# User: ACHyster
# File name: C:/ACHYSTER/ACHyster SENS/SHAMS/CoFe2O4-1gl-water-Zero Glycerol- Sens-07-03-2023/CoFe2O4-1gl-water-Zero Glycerol- 10_100F- 12kAm -Sens-07-03-20230006#1
# Saved at: ma. mar. 7 14:25:54 2023
# Hyster Loop (3 iterations). Intensity: 12.0 kA/m; Tuned frequency: 79.9 kHz
# Units x axis: (kA/m)
# Units y axis: "Repeats y" & "Average y" (10^(-3)Am^2); "Mass avg y" (Am^2/kg)
# Magnetic mass: 4e-05 g
# Parameter      	Repeat   1	Repeat   2	Repeat   3	Average   	Sigma     
# H_C (kA/m)     	      10.2	       9.9	      10.1	      10.0	       0.1
# M_R (Am^2/kg)  	      41.7	      41.6	      41.4	      41.6	       0.1
# M_max (Am^2/kg)	      27.3	      29.9	      28.3	      28.5	       1.1
# Area (mJ/kg)   	    1955.2	    1949.7	    1945.1	    1950.0	       4.1
# SAR (W/g)      	     156.2	     155.8	     155.4	     155.8	       0.3
#Repeat 1 x	Repeat 1 y	Repeat 2 x	Repeat 2 y	Repeat 3 x	Repeat 3 y	Average x 	Average y 	Mass avg x 	Mass avg y 
  -1.76678	 -0.001783	   -1.7464	-0.0017952	   -1.7476	-0.00177496	  -1.75359	-0.00178439	  -1.75359	  -44.6096	
  -1.69186	-0.00177896	  -1.67155	-0.00179036	  -1.67319	-0.0017709	  -1.67886	-0.00178007	  -1.67886	  -44.5019	
  -1.61699	-0.00177484	  -1.59683	-0.00178545	  -1.59885	-0.00176685	  -1.60422	-0.00177571	  -1.60422	  -44.3929	
   -1.5418	-0.00177062	  -1.52207	-0.0017805	  -1.52462	-0.00176272	   -1.5295	-0.00177128	   -1.5295	  -44.2819	
  -1.46656	-0.00176626	  -1.44732	-0.0017755	  -1.45032	-0.00175843	  -1.45473	-0.00176673	  -1.45473	  -44.1683	
  -1.39151	-0.00176178	   -1.3726	-0.00177046	  -1.37578	-0.00175395	  -1.37997	-0.00176207	  -1.37997	  -44.0516	
  -1.31628	-0.00175717	  -1.29776	-0.00176539	  -1.30107	-0.00174924	  -1.30504	-0.00175727	  -1.30504	  -43.9316	
  -1.24112	-0.00175245	  -1.22283	-0.00176026	  -1.22643	-0.00174433	  -1.23013	-0.00175234	  -1.23013	  -43.8086	
  -1.16587	-0.00174764	  -1.14766	-0.00175507	   -1.1515	-0.00173925	  -1.15501	-0.00174732	  -1.15501	   -43.683	
  -1.09056	-0.00174279	  -1.07252	-0.00174982	  -1.07653	-0.00173407	  -1.07987	-0.00174222	  -1.07987	  -43.5556	
  -1.01525	-0.00173791	  -0.99765	-0.00174448	  -1.00159	-0.00172886	  -1.00483	-0.00173708	  -1.00483	  -43.4271	
 -0.939773	-0.00173304	 -0.922658	-0.00173906	 -0.926487	-0.00172369	 -0.929639	-0.00173193	 -0.929639	  -43.2982	
 -0.864391	-0.00172817	 -0.847801	-0.00173355	 -0.851497	-0.00171856	 -0.854563	-0.00172676	 -0.854563	   -43.169	
 -0.789141	-0.00172332	 -0.772692	-0.00172793	 -0.776858	-0.00171348	 -0.779563	-0.00172158	 -0.779563	  -43.0394	
 -0.713842	-0.00171844	 -0.697599	-0.00172224	 -0.702162	-0.00170841	 -0.704534	-0.00171636	 -0.704534	   -42.909	
  -0.63875	-0.00171352	 -0.622566	-0.00171646	 -0.627455	-0.0017033	  -0.62959	-0.00171109	  -0.62959	  -42.7773	
 -0.563469	-0.00170851	 -0.547416	-0.00171063	 -0.552566	-0.00169811	 -0.554484	-0.00170575	 -0.554484	  -42.6437	
 -0.488267	-0.00170341	 -0.472409	-0.00170476	 -0.477552	-0.0016928	 -0.479409	-0.00170032	 -0.479409	  -42.5081	
 -0.412969	-0.00169817	 -0.397156	-0.00169887	 -0.402463	-0.00168736	 -0.404196	-0.0016948	 -0.404196	    -42.37	
 -0.337624	-0.00169281	 -0.321928	-0.00169297	 -0.327346	-0.00168178	 -0.328966	-0.00168919	 -0.328966	  -42.2296	
 -0.262279	-0.00168731	 -0.246766	-0.00168704	 -0.252244	-0.0016761	 -0.253763	-0.00168348	 -0.253763	   -42.087	
 -0.186767	-0.00168172	 -0.171706	-0.00168105	 -0.176991	-0.00167034	 -0.178488	-0.00167771	 -0.178488	  -41.9426	
 -0.111355	-0.00167604	-0.0967813	-0.00167501	 -0.101847	-0.00166455	 -0.103328	-0.00167187	 -0.103328	  -41.7966	
 -0.035866	-0.0016703	-0.0220222	-0.00166886	 -0.026638	-0.00165874	-0.0281754	-0.00166597	-0.0281754	  -41.6492	
 0.0396511	-0.00166452	 0.0527561	-0.0016626	 0.0485913	-0.00165292	 0.0469995	-0.00166001	 0.0469995	  -41.5003	
   0.11515	-0.00165871	   0.12751	-0.00165622	  0.123588	-0.00164706	  0.122083	 -0.001654	  0.122083	  -41.3499	
  0.190802	-0.00165288	  0.202204	-0.00164973	   0.19875	-0.00164115	  0.197252	-0.00164792	  0.197252	   -41.198	
  0.266341	-0.00164701	  0.276802	-0.00164316	   0.27402	-0.00163515	  0.272388	-0.00164177	  0.272388	  -41.0444	
  0.341733	-0.0016411	  0.351693	-0.00163652	  0.349139	-0.00162905	  0.347522	-0.00163556	  0.347522	  -40.8889	
  0.417158	-0.00163512	  0.426444	-0.00162985	  0.424289	-0.00162284	   0.42263	-0.00162927	   0.42263	  -40.7318	
  0.492572	-0.00162906	  0.501184	-0.00162318	  0.499218	-0.00161652	  0.497658	-0.00162292	  0.497658	   -40.573	
   0.56793	-0.0016229	  0.576082	-0.00161651	  0.574318	-0.00161009	  0.572777	-0.0016165	  0.572777	  -40.4125	
  0.643196	-0.00161663	  0.650877	-0.00160984	  0.649326	-0.00160361	    0.6478	-0.00161003	    0.6478	  -40.2506	
  0.718335	-0.00161024	  0.725534	-0.00160312	  0.724418	-0.00159708	  0.722763	-0.00160348	  0.722763	   -40.087	
  0.793528	-0.00160373	  0.800238	-0.00159633	  0.799546	-0.00159053	   0.79777	-0.00159686	   0.79777	  -39.9215	
  0.868518	-0.00159714	  0.874942	-0.00158941	  0.874456	-0.00158396	  0.872639	-0.00159017	  0.872639	  -39.7542	
  0.943701	-0.00159047	   0.94919	-0.00158233	  0.949126	-0.00157738	  0.947339	-0.0015834	  0.947339	  -39.5849	
   1.01881	-0.00158378	   1.02277	-0.0015751	   1.02375	-0.00157077	   1.02178	-0.00157655	   1.02178	  -39.4137	
   1.09402	-0.00157708	   1.09612	-0.00156772	   1.09828	-0.00156411	   1.09614	-0.00156964	   1.09614	  -39.2409	
   1.16928	-0.00157039	   1.16944	-0.00156022	    1.1729	-0.0015574	   1.17054	-0.00156267	   1.17054	  -39.0667	
   1.24434	-0.0015637	   1.24269	-0.00155266	   1.24736	-0.0015506	    1.2448	-0.00155565	    1.2448	  -38.8913	
   1.31937	-0.00155701	   1.31563	-0.00154507	   1.32184	-0.00154371	   1.31895	-0.0015486	   1.31895	  -38.7149	
   1.39435	-0.00155028	   1.38909	-0.0015375	   1.39629	-0.00153672	   1.39324	-0.0015415	   1.39324	  -38.5375	
   1.46902	-0.00154348	    1.4632	-0.00152995	   1.47069	-0.00152964	   1.46763	-0.00153436	   1.46763	   -38.359	
   1.54358	-0.00153657	   1.53703	-0.00152241	   1.54498	-0.00152248	   1.54186	-0.00152715	   1.54186	  -38.1789	
     1.618	-0.00152952	   1.61078	-0.00151486	   1.61916	-0.00151525	   1.61598	-0.00151988	   1.61598	  -37.9969	
   1.69225	-0.00152232	   1.68483	-0.00150724	   1.69339	-0.00150796	   1.69016	-0.00151251	   1.69016	  -37.8126	
   1.76652	-0.00151497	   1.75892	-0.00149952	   1.76764	-0.00150062	   1.76436	-0.00150504	   1.76436	  -37.6259	
   1.84056	-0.00150749	   1.83301	-0.00149166	   1.84186	-0.00149324	   1.83847	-0.00149746	   1.83847	  -37.4365	
   1.91455	-0.00149991	   1.90726	-0.00148365	   1.91623	-0.00148581	   1.91268	-0.00148979	   1.91268	  -37.2447	
   1.98847	-0.00149229	     1.981	-0.00147552	   1.99049	-0.00147833	   1.98665	-0.00148204	   1.98665	  -37.0511	
   2.06208	-0.00148464	   2.05465	-0.0014673	    2.0646	-0.00147079	   2.06044	-0.00147425	   2.06044	  -36.8561	
   2.13577	 -0.001477	   2.12902	-0.00145906	   2.13876	-0.00146318	   2.13452	-0.00146641	   2.13452	  -36.6604	
   2.20947	-0.00146938	   2.20301	-0.00145086	   2.21271	-0.00145548	   2.20839	-0.00145857	   2.20839	  -36.4643	
   2.28317	-0.00146175	   2.27678	-0.00144268	   2.28685	-0.0014477	   2.28227	-0.00145071	   2.28227	  -36.2678	
   2.35685	-0.0014541	   2.35178	-0.00143453	   2.36091	-0.00143982	   2.35651	-0.00144282	   2.35651	  -36.0704	
   2.43026	-0.00144639	   2.42597	-0.00142633	   2.43466	-0.00143186	   2.43029	-0.00143486	   2.43029	  -35.8715	
    2.5038	-0.00143858	   2.49897	-0.00141805	    2.5085	-0.00142382	   2.50376	-0.00142682	   2.50376	  -35.6704	
   2.57723	-0.00143066	   2.57315	-0.00140962	   2.58219	-0.00141572	   2.57752	-0.00141866	   2.57752	  -35.4666	
    2.6505	-0.00142261	   2.64731	-0.00140099	   2.65548	-0.00140756	    2.6511	-0.00141039	    2.6511	  -35.2597	
   2.72382	-0.00141444	   2.72018	-0.00139215	   2.72879	-0.00139936	   2.72426	-0.00140198	   2.72426	  -35.0496	
   2.79694	-0.00140617	   2.79412	-0.00138311	   2.80209	-0.00139112	   2.79772	-0.00139347	   2.79772	  -34.8367	
   2.87003	-0.00139783	   2.86755	-0.0013739	   2.87533	-0.00138285	   2.87097	-0.00138486	   2.87097	  -34.6215	
   2.94308	-0.00138945	   2.94004	-0.00136462	    2.9485	-0.00137453	   2.94387	-0.0013762	   2.94387	   -34.405	
   3.01604	-0.00138104	   3.01396	-0.00135535	   3.02156	-0.00136615	   3.01719	-0.00136751	   3.01719	  -34.1878	
   3.08868	-0.00137263	   3.08809	-0.00134615	   3.09469	-0.00135769	   3.09049	-0.00135882	   3.09049	  -33.9706	
   3.16121	-0.00136421	   3.16071	-0.00133706	   3.16765	-0.00134914	   3.16319	-0.00135014	   3.16319	  -33.7534	
   3.23361	-0.00135576	   3.23359	-0.0013281	   3.24062	-0.00134049	   3.23594	-0.00134145	   3.23594	  -33.5362	
   3.30605	-0.00134726	   3.30661	-0.00131921	   3.31358	-0.00133173	   3.30875	-0.00133274	   3.30875	  -33.3184	
    3.3783	-0.0013387	   3.37873	-0.00131033	   3.38648	-0.00132288	   3.38117	-0.00132397	   3.38117	  -33.0992	
   3.45055	-0.00133003	   3.45105	-0.00130137	    3.4593	-0.00131394	   3.45363	-0.00131511	   3.45363	  -32.8778	
   3.52277	-0.00132125	   3.52373	-0.00129225	   3.53201	-0.00130493	   3.52617	-0.00130614	   3.52617	  -32.6535	
   3.59472	-0.00131235	   3.59544	-0.00128291	   3.60459	-0.00129587	   3.59825	-0.00129704	   3.59825	  -32.4261	
   3.66618	-0.00130335	   3.66687	-0.00127334	   3.67701	-0.00128678	   3.67002	-0.00128782	   3.67002	  -32.1956	
   3.73758	-0.00129425	   3.73884	-0.00126356	   3.74926	-0.00127766	   3.74189	-0.00127849	   3.74189	  -31.9622	
   3.80868	-0.0012851	   3.81045	-0.00125362	    3.8211	-0.0012685	   3.81341	-0.00126907	   3.81341	  -31.7268	
   3.87975	-0.0012759	   3.88179	-0.0012436	   3.89297	-0.0012593	   3.88484	-0.0012596	   3.88484	  -31.4901	
   3.95071	-0.00126668	    3.9536	-0.0012336	   3.96461	-0.00125005	   3.95631	-0.00125011	   3.95631	  -31.2528	
   4.02133	-0.00125745	   4.02454	-0.00122366	   4.03602	-0.00124073	    4.0273	-0.00124061	    4.0273	  -31.0153	
   4.09182	-0.0012482	   4.09509	-0.00121381	    4.1074	-0.00123132	    4.0981	-0.00123111	    4.0981	  -30.7778	
   4.16216	-0.00123892	   4.16608	-0.00120405	    4.1785	-0.00122183	   4.16892	-0.0012216	   4.16892	    -30.54	
   4.23235	-0.00122959	   4.23683	-0.00119433	   4.24955	-0.00121224	   4.23958	-0.00121205	   4.23958	  -30.3014	
   4.30237	-0.00122018	   4.30691	-0.00118459	    4.3205	-0.00120258	   4.30993	-0.00120245	   4.30993	  -30.0612	
   4.37221	-0.00121067	   4.37718	-0.00117475	   4.39114	-0.00119285	   4.38018	-0.00119276	   4.38018	   -29.819	
   4.44212	-0.00120106	   4.44744	-0.00116477	   4.46173	-0.00118306	   4.45043	-0.00118296	   4.45043	  -29.5741	
   4.51202	-0.00119136	   4.51721	-0.00115458	   4.53218	-0.00117322	   4.52047	-0.00117305	   4.52047	  -29.3263	
   4.58168	-0.00118156	   4.58713	-0.0011442	   4.60228	-0.00116335	   4.59036	-0.00116303	   4.59036	  -29.0759	
   4.65109	-0.00117169	   4.65716	-0.00113364	   4.67224	-0.00115343	   4.66016	-0.00115292	   4.66016	   -28.823	
   4.72047	-0.00116177	   4.72643	-0.00112297	   4.74204	-0.00114347	   4.72964	-0.00114274	   4.72964	  -28.5684	
   4.78957	-0.00115182	   4.79561	-0.00111225	   4.81147	-0.00113344	   4.79888	-0.0011325	   4.79888	  -28.3126	
   4.85863	-0.00114184	   4.86489	-0.00110153	   4.88074	-0.00112334	   4.86809	-0.00112224	   4.86809	   -28.056	
   4.92761	-0.00113185	   4.93383	-0.00109087	   4.94985	-0.00111317	    4.9371	-0.00111196	    4.9371	   -27.799	
   4.99629	-0.00112181	   5.00259	-0.00108028	   5.01858	-0.00110291	   5.00582	-0.00110167	   5.00582	  -27.5417	
   5.06468	-0.00111174	   5.07142	-0.00106975	   5.08694	-0.00109257	   5.07435	-0.00109135	   5.07435	  -27.2838	
   5.13299	-0.00110159	    5.1401	-0.00105923	   5.15515	-0.00108215	   5.14275	-0.00108099	   5.14275	  -27.0248	
   5.20101	-0.00109136	    5.2084	-0.00104868	   5.22299	-0.00107166	    5.2108	-0.00107057	    5.2108	  -26.7642	
   5.26894	-0.00108103	   5.27676	-0.00103803	   5.29069	-0.00106112	    5.2788	-0.00106006	    5.2788	  -26.5015	
   5.33678	-0.00107061	   5.34494	-0.00102723	   5.35825	-0.00105053	   5.34665	-0.00104945	   5.34665	  -26.2363	
    5.4043	-0.00106008	   5.41273	-0.00101624	   5.42544	-0.0010399	   5.41416	-0.00103874	   5.41416	  -25.9685	
   5.47178	-0.00104948	    5.4804	-0.00100507	   5.49238	-0.00102923	   5.48152	-0.00102793	   5.48152	  -25.6982	
   5.53916	-0.00103881	    5.5479	-0.000993747	    5.5592	-0.00101852	   5.54875	-0.00101703	   5.54875	  -25.4257	
   5.60621	-0.00102809	   5.61502	-0.000982313	   5.62588	-0.00100777	    5.6157	-0.00100606	    5.6157	  -25.1515	
   5.67316	-0.00101735	   5.68219	-0.000970833	   5.69201	-0.00099697	   5.68245	-0.000995051	   5.68245	  -24.8763	
   5.74001	-0.0010066	   5.74919	-0.000959364	   5.75803	-0.000986103	   5.74908	-0.000984021	   5.74908	  -24.6005	
   5.80654	-0.000995831	   5.81579	-0.000947948	   5.82374	-0.000975173	   5.81536	-0.000972984	   5.81536	  -24.3246	
   5.87275	-0.000985045	   5.88203	-0.000936602	   5.88916	-0.000964169	   5.88132	-0.000961939	   5.88132	  -24.0485	
   5.93847	-0.000974218	   5.94814	-0.000925309	    5.9545	-0.000953097	   5.94704	-0.000950875	   5.94704	  -23.7719	
   6.00393	-0.000963338	   6.01389	-0.000914029	   6.01956	-0.000941957	   6.01246	-0.000939775	   6.01246	  -23.4944	
   6.06892	-0.000952372	   6.07932	-0.000902707	   6.08413	-0.000930758	   6.07746	-0.000928612	   6.07746	  -23.2153	
   6.13391	-0.000941321	   6.14464	-0.000891283	   6.14868	-0.000919503	   6.14241	-0.000917369	   6.14241	  -22.9342	
   6.19867	-0.000930167	   6.20964	-0.000879709	   6.21299	-0.000908206	    6.2071	-0.000906027	    6.2071	  -22.6507	
     6.263	-0.000918917	   6.27415	-0.000867967	   6.27687	-0.000896871	   6.27134	-0.000894585	   6.27134	  -22.3646	
   6.32715	-0.000907588	   6.33839	-0.000856072	   6.34076	-0.000885508	   6.33543	-0.000883056	   6.33543	  -22.0764	
   6.39112	-0.000896213	   6.40239	-0.000844066	   6.40445	-0.000874111	   6.39932	-0.000871463	   6.39932	  -21.7866	
   6.45472	-0.000884801	   6.46596	-0.000832013	   6.46774	-0.000862681	   6.46281	-0.000859832	   6.46281	  -21.4958	
   6.51792	-0.000873373	   6.52938	-0.000819976	   6.53093	-0.000851212	   6.52608	-0.000848187	   6.52608	  -21.2047	
   6.58102	-0.000861937	   6.59262	-0.000808007	   6.59397	-0.000839703	    6.5892	-0.000836549	    6.5892	  -20.9137	
   6.64381	-0.000850495	   6.65548	-0.000796131	   6.65666	-0.000828142	   6.65198	-0.000824923	   6.65198	  -20.6231	
   6.70652	-0.000839022	   6.71799	-0.000784325	   6.71883	-0.000816524	   6.71445	-0.000813291	   6.71445	  -20.3323	
   6.76917	-0.000827516	   6.78038	-0.000772542	   6.78073	-0.000804837	   6.77676	-0.000801632	   6.77676	  -20.0408	
   6.83155	-0.000815948	   6.84247	-0.000760707	   6.84238	-0.000793089	    6.8388	-0.000789915	    6.8388	  -19.7479	
   6.89347	-0.000804307	   6.90407	-0.000748749	   6.90359	-0.000781276	   6.90038	-0.000778111	   6.90038	  -19.4528	
   6.95519	-0.000792578	   6.96543	-0.00073661	   6.96483	-0.000769411	   6.96182	-0.000766199	   6.96182	   -19.155	
   7.01672	-0.000780764	   7.02657	-0.000724263	   7.02589	-0.000757501	   7.02306	-0.000754176	   7.02306	  -18.8544	
   7.07808	-0.000768869	   7.08731	-0.000711726	   7.08658	-0.000745555	   7.08399	-0.00074205	   7.08399	  -18.5513	
   7.13928	-0.000756916	   7.14811	-0.000699054	   7.14694	-0.000733577	   7.14478	-0.000729849	   7.14478	  -18.2462	
   7.20036	-0.000744916	   7.20875	-0.000686323	    7.2072	-0.000721576	   7.20544	-0.000717605	   7.20544	  -17.9401	
   7.26111	-0.000732895	   7.26906	-0.000673619	   7.26719	-0.000709547	   7.26579	-0.000705353	   7.26579	  -17.6338	
   7.32136	-0.000720864	   7.32885	-0.000661014	   7.32672	-0.000697491	   7.32564	-0.000693123	   7.32564	  -17.3281	
   7.38116	-0.000708843	   7.38839	-0.00064855	   7.38604	-0.000685399	    7.3852	-0.000680931	    7.3852	  -17.0233	
   7.44076	-0.000696848	   7.44771	-0.000636222	   7.44519	-0.000673269	   7.44456	-0.00066878	   7.44456	  -16.7195	
   7.49999	-0.000684879	   7.50663	-0.000623991	   7.50399	-0.000661085	   7.50354	-0.000656652	   7.50354	  -16.4163	
   7.55888	-0.0006729	    7.5652	-0.000611784	   7.56226	-0.000648845	   7.56211	-0.00064451	   7.56211	  -16.1127	
   7.61768	-0.00066089	   7.62366	-0.000599517	   7.62049	-0.000636536	   7.62061	-0.000632314	   7.62061	  -15.8079	
   7.67621	-0.000648803	   7.68183	-0.000587106	   7.67848	-0.000624158	   7.67884	-0.000620023	   7.67884	  -15.5006	
   7.73429	-0.000636587	   7.73975	-0.0005745	   7.73606	-0.000611709	    7.7367	-0.000607599	    7.7367	    -15.19	
   7.79198	-0.000624219	   7.79746	-0.000561678	   7.79348	-0.000599198	   7.79431	-0.000595032	   7.79431	  -14.8758	
   7.84932	-0.000611703	   7.85498	-0.000548667	   7.85058	-0.000586624	   7.85163	-0.000582331	   7.85163	  -14.5583	
   7.90636	-0.000599059	   7.91215	-0.000535525	   7.90739	-0.000574012	   7.90863	-0.000569532	   7.90863	  -14.2383	
   7.96293	-0.000586327	    7.9688	-0.000522336	   7.96374	-0.000561383	   7.96516	-0.000556682	   7.96516	   -13.917	
   8.01909	-0.000573551	    8.0252	-0.00050918	   8.01992	-0.000548766	    8.0214	-0.000543832	    8.0214	  -13.5958	
   8.07511	-0.000560806	    8.0814	-0.000496126	   8.07573	-0.000536174	   8.07741	-0.000531035	   8.07741	  -13.2759	
   8.13081	-0.000548141	   8.13722	-0.000483209	   8.13124	-0.000523618	   8.13309	-0.000518323	   8.13309	  -12.9581	
   8.18604	-0.00053559	   8.19251	-0.000470418	   8.18629	-0.000511081	   8.18828	-0.000505696	   8.18828	  -12.6424	
   8.24064	-0.000523149	   8.24733	-0.0004577	   8.24115	-0.000498553	   8.24304	-0.000493134	   8.24304	  -12.3283	
   8.29512	-0.000510798	   8.30197	-0.000444984	   8.29586	-0.000485989	   8.29765	-0.00048059	   8.29765	  -12.0148	
    8.3493	-0.000498492	   8.35625	-0.000432184	   8.35025	-0.000473355	   8.35193	-0.00046801	   8.35193	  -11.7003	
   8.40302	-0.000486164	   8.41002	-0.000419232	   8.40437	-0.000460629	   8.40581	-0.000455341	   8.40581	  -11.3835	
   8.45615	-0.000473743	   8.46357	-0.000406085	   8.45786	-0.000447783	    8.4592	-0.000442537	    8.4592	  -11.0634	
   8.50919	-0.000461196	   8.51673	-0.000392746	   8.51122	-0.000434829	   8.51238	-0.000429591	   8.51238	  -10.7398	
   8.56196	-0.000448495	   8.56956	-0.000379261	   8.56428	-0.000421807	   8.56527	-0.000416521	   8.56527	   -10.413	
   8.61431	-0.00043565	   8.62193	-0.000365699	   8.61689	-0.000408724	   8.61771	-0.000403358	   8.61771	  -10.0839	
    8.6661	-0.000422697	   8.67368	-0.000352145	   8.66912	-0.000395644	   8.66964	-0.000390162	   8.66964	  -9.75405	
   8.71762	-0.000409693	   8.72533	-0.000338676	   8.72103	-0.000382595	   8.72133	-0.000376988	   8.72133	  -9.42469	
   8.76878	-0.000396699	   8.77671	-0.000325332	   8.77269	-0.000369597	   8.77273	-0.000363876	   8.77273	   -9.0969	
   8.81958	-0.000383773	   8.82767	-0.000312127	   8.82395	-0.000356663	   8.82373	-0.000350855	   8.82373	  -8.77136	
   8.86989	-0.000370943	   8.87829	-0.000299009	   8.87465	-0.000343767	   8.87428	-0.000337906	   8.87428	  -8.44766	
   8.91979	-0.000358216	   8.92884	-0.000285919	   8.92532	-0.000330873	   8.92465	-0.000325003	   8.92465	  -8.12507	
   8.96957	-0.000345554	   8.97916	-0.000272781	   8.97579	-0.00031796	   8.97484	-0.000312098	   8.97484	  -7.80245	
   9.01907	-0.000332914	    9.0291	-0.000259517	    9.0259	-0.000304967	   9.02469	-0.000299133	   9.02469	  -7.47832	
   9.06814	-0.000320233	   9.07853	-0.000246093	   9.07551	-0.000291891	   9.07406	-0.000286072	   9.07406	   -7.1518	
   9.11682	-0.000307449	   9.12747	-0.000232491	   9.12466	-0.00027872	   9.12298	-0.000272886	   9.12298	  -6.82216	
   9.16503	-0.000294513	   9.17629	-0.000218749	   9.17348	-0.000265471	    9.1716	-0.000259578	    9.1716	  -6.48944	
   9.21306	-0.000281415	   9.22481	-0.000204931	   9.22205	-0.000252174	   9.21997	-0.000246173	   9.21997	  -6.15433	
   9.26077	-0.000268175	   9.27292	-0.000191101	   9.27022	-0.000238861	   9.26797	-0.000232713	   9.26797	  -5.81781	
   9.30803	-0.000254856	   9.32048	-0.000177333	   9.31787	-0.000225561	   9.31546	-0.00021925	   9.31546	  -5.48125	
   9.35492	-0.000241523	   9.36779	-0.000163673	   9.36488	-0.000212305	   9.36253	-0.000205834	   9.36253	  -5.14585	
   9.40153	-0.00022826	   9.41493	-0.000150139	   9.41157	-0.000199092	   9.40934	-0.000192497	   9.40934	  -4.81242	
   9.44793	-0.000215121	   9.46154	-0.000136723	     9.458	-0.000185933	   9.45583	-0.000179259	   9.45583	  -4.48147	
   9.49399	-0.000202136	   9.50773	-0.00012337	   9.50407	-0.000172806	   9.50193	-0.000166104	   9.50193	   -4.1526	
   9.53959	-0.000189292	   9.55358	-0.000110021	   9.54983	-0.000159696	   9.54766	-0.000153003	   9.54766	  -3.82508	
    9.5846	-0.000176547	   9.59875	-9.66164e-05	   9.59497	-0.000146574	   9.59277	-0.000139912	   9.59277	  -3.49781	
   9.62934	-0.000163824	   9.64378	-8.30993e-05	   9.63979	-0.00013341	   9.63764	-0.000126778	   9.63764	  -3.16944	
   9.67368	-0.000151044	   9.68854	-6.94435e-05	   9.68438	-0.00012018	    9.6822	-0.000113556	    9.6822	   -2.8389	
   9.71773	-0.000138127	   9.73288	-5.56498e-05	   9.72862	-0.000106881	   9.72641	-0.000100219	   9.72641	  -2.50548	
   9.76135	-0.000125032	   9.77671	-4.17511e-05	   9.77238	-9.35036e-05	   9.77014	-8.67621e-05	   9.77014	  -2.16905	
   9.80443	-0.00011175	   9.82011	 -2.78e-05	   9.81555	-8.00664e-05	   9.81337	-7.32055e-05	   9.81337	  -1.83014	
   9.84704	-9.83306e-05	   9.86294	-1.38589e-05	   9.85836	-6.65837e-05	   9.85611	-5.95911e-05	   9.85611	  -1.48978	
   9.88954	-8.48354e-05	   9.90556	3.68274e-09	   9.90101	-5.30963e-05	    9.8987	-4.5976e-05	    9.8987	   -1.1494	
   9.93158	-7.13501e-05	   9.94786	1.37439e-05	   9.94336	-3.96403e-05	   9.94094	-3.24155e-05	   9.94094	 -0.810387	
   9.97328	-5.79605e-05	   9.98971	 2.735e-05	   9.98531	-2.62449e-05	   9.98277	-1.89518e-05	   9.98277	 -0.473795	
   10.0145	-4.47334e-05	    10.031	4.08257e-05	   10.0267	-1.29245e-05	   10.0241	-5.61071e-06	   10.0241	 -0.140268	
   10.0552	-3.16797e-05	   10.0717	5.42148e-05	   10.0678	3.14813e-07	   10.0649	7.61662e-06	   10.0649	  0.190415	
   10.0957	-1.87883e-05	   10.1121	6.75717e-05	   10.1085	1.34984e-05	   10.1054	2.07606e-05	   10.1054	  0.519015	
    10.136	-5.99345e-06	   10.1522	8.09567e-05	   10.1488	2.66515e-05	   10.1457	3.38716e-05	   10.1457	   0.84679	
   10.1761	6.78883e-06	    10.192	9.44184e-05	   10.1888	3.98207e-05	   10.1856	4.70093e-05	   10.1856	   1.17523	
   10.2158	1.96475e-05	   10.2315	0.000107994	   10.2284	5.30389e-05	   10.2252	6.02268e-05	   10.2252	   1.50567	
    10.255	3.26488e-05	   10.2703	0.000121684	   10.2675	6.63359e-05	   10.2643	7.35563e-05	   10.2643	   1.83891	
   10.2936	4.58231e-05	   10.3086	0.000135471	   10.3062	7.97134e-05	   10.3028	8.70026e-05	   10.3028	   2.17507	
   10.3321	5.91622e-05	   10.3464	0.00014931	   10.3442	9.31664e-05	   10.3409	0.000100546	   10.3409	   2.51366	
   10.3704	7.26307e-05	   10.3841	0.000163152	   10.3819	0.000106662	   10.3788	0.000114148	   10.3788	   2.85371	
   10.4084	8.61556e-05	   10.4214	0.000176935	   10.4193	0.000120166	   10.4164	0.000127752	   10.4164	    3.1938	
   10.4461	9.96557e-05	   10.4585	0.000190623	   10.4564	0.000133628	   10.4537	0.000141302	   10.4537	   3.53255	
   10.4834	0.000113053	    10.495	0.000204189	   10.4931	0.000147026	   10.4905	0.000154756	   10.4905	    3.8689	
   10.5201	0.000126298	    10.531	0.000217643	   10.5292	0.000160335	   10.5268	0.000168092	   10.5268	    4.2023	
   10.5562	0.000139377	   10.5666	0.000231009	   10.5648	0.000173572	   10.5625	0.00018132	   10.5625	   4.53299	
   10.5918	0.000152317	   10.6018	0.000244334	      10.6	0.000186746	   10.5979	0.000194466	   10.5979	   4.86164	
   10.6271	0.00016516	   10.6365	0.00025766	   10.6348	0.000199888	   10.6328	0.000207569	   10.6328	   5.18923	
   10.6621	0.000177978	   10.6708	0.000271037	   10.6691	0.000213029	   10.6673	0.000220681	   10.6673	   5.51703	
   10.6968	0.000190847	   10.7048	0.000284489	   10.7031	0.000226207	   10.7016	0.000233847	   10.7016	   5.84619	
   10.7311	0.000203824	   10.7384	0.00029802	   10.7367	0.000239435	   10.7354	0.000247093	   10.7354	   6.17733	
   10.7649	0.000216932	   10.7715	0.000311607	   10.7699	0.000252718	   10.7688	0.000260419	   10.7688	   6.51047	
   10.7982	0.000230178	    10.804	0.000325214	   10.8025	0.000266037	   10.8016	0.00027381	   10.8016	   6.84524	
   10.8308	0.00024353	   10.8359	0.000338791	   10.8346	0.00027937	   10.8337	0.00028723	   10.8337	   7.18076	
   10.8631	0.000256933	   10.8676	0.000352295	    10.866	0.000292686	   10.8655	0.000300638	   10.8655	   7.51595	
    10.895	0.000270316	   10.8987	0.000365698	   10.8968	0.000305963	   10.8969	0.000313993	   10.8969	   7.84981	
   10.9268	0.000283614	   10.9296	0.00037899	   10.9276	0.000319184	    10.928	0.000327263	    10.928	   8.18157	
   10.9582	0.000296771	   10.9602	0.000392186	   10.9581	0.000332357	   10.9589	0.000340438	   10.9589	   8.51095	
   10.9893	0.000309767	   10.9905	0.000405319	   10.9883	0.000345472	   10.9894	0.000353519	   10.9894	   8.83798	
   11.0198	0.000322598	   11.0204	0.000418424	   11.0181	0.000358532	   11.0194	0.000366518	   11.0194	   9.16295	
   11.0499	0.000335304	   11.0498	0.000431546	   11.0474	0.000371539	    11.049	0.000379463	    11.049	   9.48658	
   11.0794	0.000347938	   11.0786	0.00044471	   11.0762	0.000384504	   11.0781	0.000392384	   11.0781	    9.8096	
   11.1082	0.000360583	   11.1068	0.00045793	   11.1045	0.000397426	   11.1065	0.000405313	   11.1065	   10.1328	
   11.1366	0.000373294	   11.1346	 0.0004712	   11.1321	0.000410325	   11.1344	0.000418273	   11.1344	   10.4568	
   11.1642	0.000386122	   11.1618	0.000484491	   11.1593	0.000423213	   11.1618	0.000431275	   11.1618	   10.7819	
   11.1915	0.000399084	   11.1886	0.000497765	   11.1862	0.000436103	   11.1887	0.000444317	   11.1887	   11.1079	
   11.2184	0.000412149	    11.215	0.000510988	   11.2129	0.000448995	   11.2154	0.000457378	   11.2154	   11.4344	
   11.2448	0.000425265	   11.2411	0.000524126	   11.2394	0.000461892	   11.2418	0.000470428	   11.2418	   11.7607	
   11.2709	0.000438372	    11.267	0.000537165	   11.2656	0.000474785	   11.2679	0.000483441	   11.2679	    12.086	
   11.2967	0.000451377	   11.2925	0.000550104	   11.2915	0.000487667	   11.2936	0.000496383	   11.2936	   12.4096	
    11.322	0.000464229	   11.3176	0.000562966	   11.3169	0.000500515	   11.3188	0.000509237	   11.3188	   12.7309	
   11.3469	0.000476901	   11.3422	0.000575773	   11.3418	0.000513283	   11.3437	0.000521986	   11.3437	   13.0496	
   11.3712	0.000489389	   11.3664	0.000588564	   11.3663	0.000525972	   11.3679	0.000534642	   11.3679	    13.366	
    11.395	0.000501756	   11.3899	0.000601366	   11.3902	0.000538593	   11.3917	0.000547238	   11.3917	    13.681	
   11.4182	0.000514061	   11.4129	0.000614195	   11.4135	0.000551135	   11.4148	0.000559797	   11.4148	   13.9949	
   11.4411	0.00052637	   11.4353	0.00062705	   11.4361	0.000563645	   11.4375	0.000572355	   11.4375	   14.3089	
   11.4636	0.000538759	    11.457	0.000639916	   11.4582	0.000576153	   11.4596	0.000584943	   11.4596	   14.6236	
   11.4856	0.000551257	   11.4781	0.000652763	   11.4795	0.000588668	   11.4811	0.000597563	   11.4811	   14.9391	
   11.5073	0.00056387	   11.4985	0.000665562	   11.5004	0.000601201	   11.5021	0.000610211	   11.5021	   15.2553	
   11.5281	0.000576568	   11.5184	0.000678281	   11.5208	0.000613755	   11.5225	0.000622868	   11.5225	   15.5717	
   11.5486	0.000589285	    11.538	0.000690903	   11.5407	0.000626293	   11.5424	0.000635494	   11.5424	   15.8873	
   11.5687	0.000601946	   11.5575	0.00070342	   11.5603	0.000638788	   11.5622	0.000648052	   11.5622	   16.2013	
   11.5886	0.000614489	   11.5767	0.000715845	   11.5797	0.000651194	   11.5816	0.00066051	   11.5816	   16.5127	
   11.6081	0.00062686	   11.5955	0.000728194	   11.5989	0.000663488	   11.6008	0.000672848	   11.6008	   16.8212	
   11.6274	0.000639055	    11.614	 0.0007405	   11.6175	0.000675664	   11.6196	0.000685073	   11.6196	   17.1268	
   11.6462	0.000651091	   11.6321	0.000752783	   11.6359	0.000687731	   11.6381	0.000697202	   11.6381	     17.43	
   11.6647	0.000663025	   11.6499	0.000765073	    11.654	0.000699716	   11.6562	0.000709272	   11.6562	   17.7318	
   11.6827	0.000674919	   11.6674	0.000777372	   11.6717	0.000711672	   11.6739	0.000721321	   11.6739	    18.033	
   11.7003	0.000686842	   11.6845	0.000789678	    11.689	0.000723637	   11.6913	0.000733385	   11.6913	   18.3346	
   11.7174	0.000698841	   11.7012	0.00080197	   11.7059	0.000735658	   11.7082	0.000745489	   11.7082	   18.6372	
    11.734	0.000710936	   11.7174	0.000814228	   11.7224	0.000747751	   11.7246	0.000757638	   11.7246	    18.941	
   11.7501	0.000723107	   11.7332	0.000826419	   11.7384	0.000759908	   11.7405	0.000769811	   11.7405	   19.2453	
   11.7656	0.000735318	   11.7485	0.000838525	   11.7539	0.000772107	    11.756	0.000781983	    11.756	   19.5496	
   11.7807	0.000747501	   11.7634	0.000850529	   11.7689	0.000784291	    11.771	0.000794107	    11.771	   19.8527	
   11.7952	0.000759599	   11.7778	0.000862435	   11.7834	0.000796401	   11.7854	0.000806145	   11.7854	   20.1536	
   11.8091	0.000771557	   11.7916	0.00087425	   11.7974	0.000808389	   11.7994	0.000818065	   11.7994	   20.4516	
   11.8225	0.000783354	    11.805	0.000886002	   11.8109	0.000820217	   11.8128	0.000829857	   11.8128	   20.7464	
   11.8354	0.000794991	   11.8179	0.000897709	   11.8239	0.000831883	   11.8257	0.000841528	   11.8257	   21.0382	
   11.8477	0.000806499	   11.8302	0.000909389	   11.8364	0.000843414	   11.8381	0.000853101	   11.8381	   21.3275	
   11.8595	0.000817921	    11.842	0.000921043	   11.8484	0.000854843	     11.85	0.000864602	     11.85	   21.6151	
   11.8707	0.000829328	   11.8534	0.000932677	   11.8598	0.000866222	   11.8613	0.000876075	   11.8613	   21.9019	
   11.8814	0.000840775	   11.8642	0.000944282	   11.8707	0.000877602	   11.8721	0.000887553	   11.8721	   22.1888	
   11.8916	0.000852312	   11.8746	0.000955851	   11.8812	0.000889018	   11.8824	0.00089906	   11.8824	   22.4765	
   11.9013	0.00086396	   11.8844	0.000967379	   11.8911	0.000900486	   11.8923	0.000910608	   11.8923	   22.7652	
   11.9105	0.000875696	   11.8938	0.000978862	   11.9005	0.000911998	   11.9016	0.000922185	   11.9016	   23.0546	
   11.9191	0.000887459	   11.9027	0.000990289	   11.9095	0.000923523	   11.9104	0.000933757	   11.9104	   23.3439	
   11.9273	0.000899177	   11.9111	0.00100167	    11.918	0.000935015	   11.9188	0.000945286	   11.9188	   23.6321	
   11.9351	0.000910776	    11.919	0.00101299	    11.926	0.000946432	   11.9267	0.000956733	   11.9267	   23.9183	
   11.9423	0.000922187	   11.9266	0.00102428	   11.9336	0.000957742	   11.9342	0.000968068	   11.9342	   24.2017	
   11.9492	0.000933366	   11.9336	0.00103551	   11.9407	0.000968935	   11.9412	0.000979271	   11.9412	   24.4818	
   11.9556	0.000944315	   11.9403	 0.0010467	   11.9474	0.000980009	   11.9478	0.00099034	   11.9478	   24.7585	
   11.9615	0.000955077	   11.9465	0.00105782	   11.9537	0.000990985	   11.9539	0.00100129	   11.9539	   25.0323	
   11.9669	0.000965727	   11.9524	0.00106887	   11.9596	0.00100189	   11.9596	0.00101216	   11.9596	   25.3041	
    11.972	0.000976362	   11.9579	0.00107984	   11.9651	0.00101278	    11.965	0.00102299	    11.965	   25.5748	
   11.9767	0.000987059	    11.963	0.00109071	     11.97	0.00102366	   11.9699	0.00103381	   11.9699	   25.8453	
    11.981	0.00099787	   11.9677	0.00110151	   11.9746	0.00103456	   11.9744	0.00104465	   11.9744	   26.1162	
    11.985	0.00100882	   11.9721	0.00111224	   11.9786	0.00104547	   11.9786	0.00105551	   11.9786	   26.3878	
   11.9887	0.00101987	   11.9762	0.00112291	   11.9821	0.00105637	   11.9823	0.00106638	   11.9823	   26.6596	
   11.9918	0.00103098	   11.9799	0.00113353	   11.9853	0.00106722	   11.9857	0.00107724	   11.9857	   26.9311	
   11.9945	0.00104204	   11.9831	0.00114413	   11.9883	0.00107797	   11.9887	0.00108805	   11.9887	   27.2012	
   11.9965	0.00105297	   11.9858	0.00115471	   11.9906	 0.0010886	   11.9909	0.00109876	   11.9909	   27.4691	
   11.9978	 0.0010637	   11.9878	0.00116527	   11.9924	0.00109909	   11.9927	0.00110935	   11.9927	   27.7338	
   11.9986	 0.0010742	   11.9889	0.00117578	   11.9937	0.00110945	   11.9938	0.00111981	   11.9938	   27.9953	
   11.9987	0.00108448	   11.9896	0.00118625	   11.9942	0.00111969	   11.9941	0.00113014	   11.9941	   28.2535	
   11.9981	0.00109459	   11.9895	0.00119665	    11.994	0.00112986	   11.9939	0.00114037	   11.9939	   28.5091	
   11.9968	 0.0011046	   11.9887	0.00120697	   11.9932	0.00113999	   11.9929	0.00115052	   11.9929	    28.763	
    11.995	 0.0011146	   11.9874	0.00121722	   11.9918	0.00115013	   11.9914	0.00116065	   11.9914	   29.0163	
   11.9927	0.00112465	   11.9855	0.00122741	   11.9899	0.00116029	   11.9894	0.00117078	   11.9894	   29.2696	
     11.99	0.00113477	   11.9832	0.00123753	   11.9875	0.00117049	   11.9869	0.00118093	   11.9869	   29.5233	
   11.9868	0.00114497	   11.9803	0.00124758	   11.9846	0.00118069	   11.9839	0.00119108	   11.9839	    29.777	
   11.9833	0.00115521	   11.9771	0.00125755	   11.9814	0.00119088	   11.9806	0.00120121	   11.9806	   30.0303	
   11.9794	0.00116544	   11.9736	0.00126741	   11.9778	0.00120099	   11.9769	0.00121128	   11.9769	    30.282	
   11.9752	0.00117557	   11.9697	0.00127719	   11.9739	0.00121101	   11.9729	0.00122126	   11.9729	   30.5314	
   11.9708	0.00118556	   11.9655	0.00128686	   11.9698	0.00122089	   11.9687	 0.0012311	   11.9687	   30.7776	
    11.966	0.00119536	   11.9609	0.00129647	   11.9652	0.00123063	    11.964	0.00124082	    11.964	   31.0205	
   11.9606	0.00120497	   11.9557	0.00130601	     11.96	0.00124024	   11.9587	0.00125041	   11.9587	   31.2602	
   11.9544	0.00121442	     11.95	0.00131552	   11.9542	0.00124975	   11.9529	 0.0012599	   11.9529	   31.4974	
   11.9476	0.00122376	   11.9437	0.00132501	   11.9479	0.00125918	   11.9464	0.00126932	   11.9464	    31.733	
   11.9403	0.00123305	   11.9367	 0.0013345	   11.9411	0.00126859	   11.9394	0.00127871	   11.9394	   31.9678	
   11.9324	0.00124234	   11.9292	0.00134397	   11.9337	0.00127798	   11.9318	 0.0012881	   11.9318	   32.2025	
   11.9241	0.00125167	   11.9212	 0.0013534	   11.9258	0.00128739	   11.9237	0.00129749	   11.9237	   32.4372	
   11.9155	0.00126106	   11.9128	0.00136276	   11.9175	 0.0012968	   11.9153	0.00130687	   11.9153	   32.6718	
   11.9065	0.00127048	   11.9041	0.00137204	   11.9088	0.00130619	   11.9065	0.00131624	   11.9065	    32.906	
   11.8973	0.00127991	   11.8951	0.00138119	   11.8996	0.00131554	   11.8973	0.00132555	   11.8973	   33.1387	
   11.8876	0.00128929	   11.8856	0.00139019	   11.8897	0.00132482	   11.8876	0.00133477	   11.8876	   33.3692	
   11.8772	0.00129857	   11.8757	0.00139907	   11.8793	  0.001334	   11.8774	0.00134388	   11.8774	   33.5969	
   11.8665	 0.0013077	   11.8652	0.00140783	   11.8684	0.00134305	   11.8667	0.00135286	   11.8667	   33.8215	
   11.8553	0.00131667	   11.8539	0.00141651	   11.8571	0.00135199	   11.8554	0.00136172	   11.8554	    34.043	
   11.8435	0.00132547	   11.8422	0.00142515	   11.8453	0.00136081	   11.8436	0.00137048	   11.8436	   34.2619	
   11.8312	0.00133413	   11.8299	0.00143376	    11.833	0.00136955	   11.8314	0.00137915	   11.8314	   34.4787	
   11.8186	 0.0013427	   11.8173	0.00144238	   11.8204	0.00137822	   11.8188	0.00138777	   11.8188	   34.6942	
   11.8055	0.00135123	   11.8044	0.00145097	   11.8074	0.00138685	   11.8058	0.00139635	   11.8058	   34.9088	
   11.7923	0.00135977	   11.7912	0.00145953	   11.7943	0.00139547	   11.7926	0.00140492	   11.7926	    35.123	
   11.7784	0.00136833	   11.7774	0.00146802	   11.7807	0.00140407	   11.7789	0.00141347	   11.7789	   35.3368	
   11.7643	0.00137694	   11.7632	0.00147641	   11.7665	0.00141265	   11.7646	  0.001422	   11.7646	     35.55	
   11.7496	0.00138558	   11.7485	0.00148467	   11.7516	0.00142119	   11.7499	0.00143048	   11.7499	    35.762	
   11.7343	0.00139421	   11.7332	0.00149281	   11.7362	0.00142966	   11.7346	0.00143889	   11.7346	   35.9723	
   11.7187	0.00140278	   11.7176	0.00150081	   11.7204	0.00143804	   11.7189	0.00144721	   11.7189	   36.1802	
   11.7026	0.00141125	   11.7015	0.00150871	   11.7043	 0.0014463	   11.7028	0.00145542	   11.7028	   36.3855	
   11.6862	0.00141958	   11.6851	0.00151652	   11.6879	0.00145443	   11.6864	0.00146351	   11.6864	   36.5878	
   11.6694	0.00142777	   11.6682	0.00152428	   11.6711	0.00146244	   11.6696	0.00147149	   11.6696	   36.7873	
   11.6521	 0.0014358	   11.6506	  0.001532	   11.6538	0.00147033	   11.6522	0.00147938	   11.6522	   36.9844	
   11.6342	0.00144372	   11.6324	0.00153969	   11.6359	0.00147814	   11.6342	0.00148718	   11.6342	   37.1796	
   11.6158	0.00145154	   11.6138	0.00154737	   11.6175	0.00148589	   11.6157	0.00149493	   11.6157	   37.3733	
    11.597	0.00145931	   11.5947	0.00155501	   11.5987	 0.0014936	   11.5968	0.00150264	   11.5968	    37.566	
   11.5779	0.00146707	   11.5753	0.00156259	   11.5795	 0.0015013	   11.5776	0.00151032	   11.5776	    37.758	
   11.5585	0.00147484	   11.5557	 0.0015701	   11.5602	0.00150899	   11.5582	0.00151798	   11.5582	   37.9494	
   11.5389	0.00148264	   11.5356	0.00157751	   11.5404	0.00151666	   11.5383	 0.0015256	   11.5383	     38.14	
   11.5186	0.00149045	   11.5148	0.00158482	   11.5199	0.00152428	   11.5178	0.00153318	   11.5178	   38.3295	
   11.4978	0.00149823	   11.4934	0.00159202	   11.4991	0.00153183	   11.4968	 0.0015407	   11.4968	   38.5174	
   11.4765	0.00150597	   11.4717	0.00159914	   11.4779	0.00153929	   11.4754	0.00154813	   11.4754	   38.7034	
   11.4549	0.00151363	   11.4496	0.00160619	   11.4563	0.00154663	   11.4536	0.00155548	   11.4536	   38.8871	
   11.4328	0.00152116	   11.4274	0.00161318	   11.4341	0.00155385	   11.4314	0.00156273	   11.4314	   39.0682	
   11.4104	0.00152855	   11.4049	0.00162012	   11.4115	0.00156096	   11.4089	0.00156987	   11.4089	   39.2468	
   11.3874	 0.0015358	   11.3817	0.00162702	   11.3883	0.00156795	   11.3858	0.00157693	   11.3858	   39.4231	
   11.3639	0.00154292	    11.358	0.00163387	   11.3646	0.00157488	   11.3622	0.00158389	   11.3622	   39.5972	
   11.3399	0.00154992	   11.3339	0.00164066	   11.3406	0.00158174	   11.3381	0.00159078	   11.3381	   39.7694	
   11.3157	0.00155684	   11.3093	0.00164737	    11.316	0.00158857	   11.3137	0.00159759	   11.3137	   39.9398	
   11.2911	 0.0015637	   11.2844	0.00165399	   11.2908	0.00159538	   11.2888	0.00160436	   11.2888	   40.1089	
   11.2658	0.00157054	   11.2588	0.00166049	   11.2653	0.00160215	   11.2633	0.00161106	   11.2633	   40.2766	
   11.2401	0.00157738	   11.2326	 0.0016669	   11.2391	0.00160889	   11.2373	0.00161772	   11.2373	   40.4431	
    11.214	0.00158421	   11.2061	0.00167322	   11.2126	0.00161557	   11.2109	0.00162433	   11.2109	   40.6083	
   11.1876	0.00159102	   11.1793	0.00167946	   11.1857	0.00162218	   11.1842	0.00163089	   11.1842	   40.7721	
    11.161	0.00159779	   11.1519	0.00168565	   11.1584	0.00162869	   11.1571	0.00163738	   11.1571	   40.9345	
   11.1337	 0.0016045	   11.1239	0.00169181	   11.1304	 0.0016351	   11.1293	 0.0016438	   11.1293	   41.0951	
   11.1058	0.00161111	   11.0953	0.00169792	   11.1019	0.00164141	    11.101	0.00165015	    11.101	   41.2537	
   11.0774	0.00161761	   11.0664	  0.001704	   11.0731	0.00164762	   11.0723	0.00165641	   11.0723	   41.4102	
   11.0488	0.00162398	   11.0373	0.00171003	    11.044	0.00165374	   11.0433	0.00166258	   11.0433	   41.5646	
   11.0195	0.00163025	    11.008	0.00171598	   11.0148	0.00165979	   11.0141	0.00166867	   11.0141	   41.7169	
   10.9896	0.00163643	   10.9783	0.00172185	   10.9849	0.00166579	   10.9842	0.00167469	   10.9842	   41.8673	
   10.9593	0.00164254	    10.948	0.00172762	   10.9545	0.00167175	   10.9539	0.00168064	   10.9539	   42.0159	
   10.9287	0.00164857	   10.9174	0.00173328	   10.9237	0.00167768	   10.9233	0.00168651	   10.9233	   42.1628	
   10.8978	0.00165455	   10.8866	0.00173885	   10.8926	0.00168357	   10.8923	0.00169232	   10.8923	   42.3081	
   10.8663	0.00166046	    10.855	0.00174434	   10.8611	0.00168941	   10.8608	0.00169807	   10.8608	   42.4518	
   10.8343	0.00166631	   10.8228	0.00174977	    10.829	0.00169519	   10.8287	0.00170376	   10.8287	    42.594	
   10.8018	0.00167209	   10.7902	0.00175516	   10.7966	 0.0017009	   10.7962	0.00170938	   10.7962	   42.7345	
    10.769	 0.0016778	   10.7574	0.00176052	   10.7638	 0.0017065	   10.7634	0.00171494	   10.7634	   42.8735	
   10.7356	0.00168345	   10.7243	0.00176584	   10.7306	0.00171201	   10.7302	0.00172043	   10.7302	   43.0108	
   10.7017	0.00168904	   10.6907	0.00177112	   10.6969	 0.0017174	   10.6964	0.00172585	   10.6964	   43.1464	
   10.6674	0.00169457	   10.6565	0.00177634	   10.6626	 0.0017227	   10.6622	 0.0017312	   10.6622	     43.28	
   10.6327	0.00170005	    10.622	0.00178148	    10.628	0.00172791	   10.6276	0.00173648	   10.6276	    43.412	
   10.5978	0.00170548	   10.5874	0.00178652	   10.5931	0.00173304	   10.5928	0.00174168	   10.5928	    43.542	
   10.5625	0.00171086	   10.5522	0.00179145	   10.5577	0.00173811	   10.5575	 0.0017468	   10.5575	   43.6701	
   10.5268	0.00171614	   10.5165	0.00179628	   10.5217	0.00174313	   10.5217	0.00175185	   10.5217	   43.7963	
   10.4908	0.00172134	   10.4805	0.00180102	   10.4855	0.00174812	   10.4856	0.00175683	   10.4856	   43.9207	
   10.4544	0.00172646	    10.444	0.00180568	   10.4488	0.00175309	   10.4491	0.00176174	   10.4491	   44.0436	
   10.4174	0.00173149	   10.4071	0.00181027	   10.4116	0.00175803	    10.412	 0.0017666	    10.412	   44.1649	
     10.38	0.00173644	   10.3697	0.00181481	   10.3738	0.00176293	   10.3745	0.00177139	   10.3745	   44.2848	
   10.3421	0.00174133	   10.3319	 0.0018193	   10.3357	0.00176779	   10.3365	0.00177614	   10.3365	   44.4035	
    10.304	0.00174616	   10.2936	0.00182375	   10.2972	 0.0017726	   10.2983	0.00178084	   10.2983	   44.5209	
   10.2653	0.00175095	   10.2549	0.00182815	   10.2582	0.00177733	   10.2595	0.00178548	   10.2595	   44.6369	
    10.226	 0.0017557	   10.2157	0.00183248	   10.2188	0.00178197	   10.2202	0.00179005	   10.2202	   44.7513	
   10.1864	0.00176038	   10.1762	0.00183675	   10.1791	0.00178651	   10.1806	0.00179455	   10.1806	   44.8637	
   10.1466	0.00176497	   10.1363	0.00184092	   10.1391	0.00179094	   10.1407	0.00179894	   10.1407	   44.9736	
   10.1061	0.00176944	    10.096	  0.001845	   10.0986	0.00179525	   10.1003	0.00180323	   10.1003	   45.0808	
   10.0652	0.00177378	   10.0552	0.00184899	   10.0578	0.00179944	   10.0594	0.00180741	   10.0594	   45.1851	
    10.024	0.00177801	   10.0142	 0.0018529	   10.0166	0.00180351	   10.0183	0.00181147	   10.0183	   45.2868	
    9.9824	0.00178214	   9.97275	0.00185672	   9.97535	0.00180748	   9.97683	0.00181544	   9.97683	   45.3861	
   9.94024	0.00178622	   9.93073	0.00186047	    9.9339	0.00181136	   9.93496	0.00181935	   9.93496	   45.4838	
   9.89767	0.00179031	    9.8883	0.00186416	   9.89222	0.00181518	   9.89273	0.00182321	   9.89273	   45.5804	
   9.85486	0.00179441	   9.84564	0.00186779	   9.85025	0.00181896	   9.85025	0.00182706	   9.85025	   45.6764	
   9.81152	0.00179857	   9.80258	0.00187138	   9.80784	0.00182273	   9.80731	0.00183089	   9.80731	   45.7723	
   9.76766	0.00180276	   9.75901	0.00187491	   9.76486	 0.0018265	   9.76384	0.00183472	   9.76384	    45.868	
   9.72349	0.00180694	   9.71509	0.00187838	   9.72086	0.00183028	   9.71981	0.00183853	   9.71981	   45.9633	
   9.67916	0.00181105	   9.67101	 0.0018818	   9.67608	0.00183406	   9.67542	 0.0018423	   9.67542	   46.0575	
   9.63443	0.00181504	    9.6263	0.00188515	   9.63074	0.00183782	   9.63049	  0.001846	   9.63049	   46.1501	
   9.58927	0.00181885	   9.58115	0.00188843	    9.5846	0.00184154	   9.58501	0.00184961	   9.58501	   46.2402	
   9.54385	0.00182247	   9.53576	0.00189163	   9.53768	0.00184517	    9.5391	0.00185309	    9.5391	   46.3273	
   9.49815	0.00182589	   9.49009	0.00189476	   9.49021	 0.0018487	   9.49282	0.00185645	   9.49282	   46.4113	
   9.45192	0.00182917	   9.44389	0.00189781	   9.44238	0.00185208	   9.44606	0.00185969	   9.44606	   46.4922	
   9.40536	0.00183236	   9.39737	0.00190079	   9.39438	0.00185531	   9.39904	0.00186282	   9.39904	   46.5706	
   9.35866	0.00183553	    9.3507	 0.0019037	   9.34639	0.00185841	   9.35191	0.00186588	   9.35191	    46.647	
   9.31155	0.00183872	   9.30342	0.00190656	   9.29856	0.00186138	   9.30451	0.00186889	   9.30451	   46.7222	
   9.26403	0.00184196	   9.25574	0.00190935	   9.25063	0.00186428	    9.2568	0.00187186	    9.2568	   46.7966	
   9.21628	0.00184526	   9.20785	0.00191209	   9.20254	0.00186712	   9.20889	0.00187482	   9.20889	   46.8706	
   9.16786	0.00184857	   9.15952	0.00191477	   9.15449	0.00186995	   9.16062	0.00187777	   9.16062	   46.9441	
   9.11897	0.00185186	   9.11072	 0.0019174	   9.10598	0.00187278	   9.11189	0.00188068	   9.11189	    47.017	
   9.06983	0.00185507	   9.06166	0.00191995	   9.05723	0.00187562	   9.06291	0.00188355	   9.06291	   47.0886	
    9.0204	0.00185815	   9.01231	0.00192244	   9.00779	0.00187844	    9.0135	0.00188634	    9.0135	   47.1586	
   8.97046	0.00186109	   8.96244	0.00192485	   8.95787	0.00188123	   8.96359	0.00188905	   8.96359	   47.2263	
   8.92021	0.00186387	   8.91227	0.00192717	   8.90769	0.00188394	   8.91339	0.00189166	   8.91339	   47.2915	
   8.86964	0.00186652	   8.86177	0.00192942	   8.85701	0.00188653	   8.86281	0.00189416	   8.86281	   47.3539	
   8.81852	0.00186908	   8.81073	 0.0019316	   8.80584	  0.001889	    8.8117	0.00189656	    8.8117	    47.414	
   8.76707	0.00187157	   8.75935	0.00193374	   8.75439	0.00189132	   8.76027	0.00189887	   8.76027	   47.4719	
   8.71534	0.00187403	   8.70784	0.00193583	   8.70285	0.00189352	   8.70868	0.00190113	   8.70868	   47.5281	
   8.66304	0.00187648	   8.65575	0.00193787	   8.65077	0.00189562	   8.65652	0.00190332	   8.65652	   47.5831	
    8.6104	0.00187893	    8.6033	0.00193986	   8.59837	0.00189766	   8.60402	0.00190548	   8.60402	   47.6371	
   8.55762	0.00188137	    8.5507	0.00194177	   8.54564	0.00189968	   8.55132	0.00190761	   8.55132	   47.6902	
   8.50446	0.00188379	    8.4975	0.00194361	   8.49257	0.00190168	   8.49818	0.00190969	   8.49818	   47.7424	
   8.45093	0.00188615	   8.44394	0.00194534	   8.43916	0.00190368	   8.44468	0.00191172	   8.44468	   47.7931	
   8.39724	0.00188844	   8.39021	0.00194695	   8.38562	0.00190568	   8.39102	0.00191369	   8.39102	   47.8422	
   8.34358	0.00189062	    8.3361	0.00194845	   8.33192	0.00190762	    8.3372	0.00191556	    8.3372	   47.8891	
    8.2895	0.00189268	    8.2816	0.00194984	   8.27784	 0.0019095	   8.28298	0.00191734	   8.28298	   47.9335	
    8.2352	0.00189461	   8.22693	0.00195114	   8.22359	0.00191128	   8.22857	0.00191901	   8.22857	   47.9753	
   8.18069	0.00189642	   8.17187	 0.0019524	   8.16874	0.00191294	   8.17377	0.00192059	   8.17377	   48.0147	
   8.12574	0.00189813	   8.11642	0.00195364	   8.11352	0.00191448	   8.11856	0.00192208	   8.11856	    48.052	
   8.07057	0.00189976	   8.06081	0.00195489	   8.05793	 0.0019159	    8.0631	0.00192352	    8.0631	   48.0879	
   8.01517	0.00190136	    8.0048	0.00195615	   8.00178	0.00191721	   8.00725	0.00192491	   8.00725	   48.1227	
   7.95934	0.00190294	   7.94842	0.00195742	   7.94529	0.00191847	   7.95101	0.00192628	   7.95101	   48.1569	
   7.90328	0.00190452	   7.89187	0.00195866	   7.88868	0.00191969	   7.89461	0.00192762	   7.89461	   48.1906	
    7.8469	0.00190609	   7.83505	0.00195985	   7.83168	0.00192089	   7.83788	0.00192894	   7.83788	   48.2236	
   7.79009	0.00190766	   7.77786	0.00196093	   7.77435	0.00192207	   7.78077	0.00193022	   7.78077	   48.2555	
   7.73307	0.00190918	   7.72051	0.00196189	   7.71692	0.00192324	    7.7235	0.00193144	    7.7235	    48.286	
   7.67585	0.00191064	   7.66279	 0.0019627	   7.65915	0.00192436	   7.66593	0.00193257	   7.66593	   48.3142	
   7.61842	  0.001912	   7.60471	0.00196336	   7.60107	0.00192542	   7.60807	0.00193359	   7.60807	   48.3398	
   7.56078	0.00191324	   7.54651	0.00196388	   7.54289	0.00192638	   7.55006	 0.0019345	   7.55006	   48.3626	
   7.50293	0.00191435	   7.48795	0.00196433	   7.48439	0.00192724	   7.49176	0.00193531	   7.49176	   48.3826	
   7.44467	0.00191533	   7.42907	0.00196473	   7.42559	0.00192797	   7.43311	0.00193601	   7.43311	   48.4003	
   7.38621	 0.0019162	   7.36987	0.00196512	   7.36672	 0.0019286	   7.37427	0.00193664	   7.37427	   48.4161	
   7.32736	0.00191699	   7.31036	0.00196553	   7.30733	0.00192914	   7.31502	0.00193722	   7.31502	   48.4305	
   7.26814	0.00191773	   7.25056	0.00196595	   7.24768	0.00192962	   7.25546	0.00193777	   7.25546	   48.4442	
   7.20876	0.00191844	   7.19049	0.00196637	   7.18778	0.00193009	   7.19568	 0.0019383	   7.19568	   48.4575	
   7.14903	0.00191915	   7.13016	0.00196676	   7.12742	0.00193058	   7.13553	0.00193883	   7.13553	   48.4708	
   7.08896	0.00191985	   7.06957	0.00196709	   7.06684	0.00193109	   7.07512	0.00193934	   7.07512	   48.4836	
   7.02877	0.00192053	   7.00896	0.00196732	   7.00585	0.00193161	   7.01453	0.00193982	   7.01453	   48.4955	
   6.96806	0.00192117	    6.9479	0.00196741	   6.94447	0.00193211	   6.95348	0.00194023	   6.95348	   48.5058	
   6.90707	0.00192174	   6.88663	0.00196737	   6.88294	0.00193254	   6.89221	0.00194055	   6.89221	   48.5137	
   6.84581	0.00192223	   6.82495	0.00196719	   6.82085	0.00193284	   6.83054	0.00194075	   6.83054	   48.5189	
   6.78409	0.00192261	   6.76289	0.00196691	   6.75846	0.00193299	   6.76848	0.00194083	   6.76848	   48.5209	
   6.72215	0.00192287	    6.7007	0.00196656	   6.69578	0.00193294	   6.70621	0.00194079	   6.70621	   48.5198	
   6.65981	0.00192302	   6.63817	0.00196619	   6.63284	0.00193272	   6.64361	0.00194064	   6.64361	   48.5161	
   6.59709	0.00192309	   6.57532	0.00196581	   6.56966	0.00193236	   6.58069	0.00194042	   6.58069	   48.5104	
   6.53424	0.00192309	    6.5124	0.00196543	   6.50647	0.00193192	    6.5177	0.00194015	    6.5177	   48.5037	
    6.4713	0.00192306	   6.44914	0.00196506	   6.44286	0.00193145	   6.45444	0.00193986	   6.45444	   48.4964	
   6.40804	  0.001923	   6.38564	0.00196467	   6.37907	0.00193104	   6.39092	0.00193957	   6.39092	   48.4893	
   6.34469	0.00192294	   6.32212	0.00196423	   6.31512	0.00193073	   6.32731	 0.0019393	   6.32731	   48.4824	
   6.28084	0.00192285	   6.25816	 0.0019637	   6.25081	0.00193052	   6.26327	0.00193902	   6.26327	   48.4756	
   6.21674	0.00192273	   6.19401	0.00196306	    6.1864	0.00193038	   6.19905	0.00193873	   6.19905	   48.4681	
   6.15263	0.00192255	   6.12992	0.00196229	   6.12168	0.00193026	   6.13474	0.00193837	   6.13474	   48.4592	
    6.0881	0.00192229	   6.06544	0.00196138	   6.05669	0.00193007	   6.07008	0.00193791	   6.07008	   48.4478	
   6.02339	0.00192192	   6.00085	0.00196037	   5.99166	0.00192971	    6.0053	0.00193733	    6.0053	   48.4333	
   5.95842	0.00192143	   5.93603	0.00195928	   5.92635	0.00192912	   5.94027	0.00193661	   5.94027	   48.4152	
   5.89312	0.00192083	   5.87092	0.00195813	   5.86085	0.00192827	   5.87496	0.00193575	   5.87496	   48.3937	
   5.82772	0.00192014	   5.80576	0.00195696	   5.79516	 0.0019272	   5.80955	0.00193477	   5.80955	   48.3692	
   5.76184	0.00191938	   5.74014	0.00195579	   5.72911	0.00192595	    5.7437	0.00193371	    5.7437	   48.3427	
   5.69572	0.00191857	   5.67431	0.00195462	   5.66296	0.00192462	   5.67766	 0.0019326	   5.67766	   48.3151	
   5.62939	0.00191774	    5.6083	0.00195344	    5.5965	0.00192331	    5.6114	 0.0019315	    5.6114	   48.2874	
   5.56269	0.00191691	   5.54193	0.00195223	   5.52978	0.00192208	    5.5448	0.00193041	    5.5448	   48.2602	
   5.49585	0.00191606	   5.47545	0.00195096	   5.46288	  0.001921	   5.47806	0.00192934	   5.47806	   48.2336	
   5.42849	 0.0019152	   5.40846	0.00194961	   5.39557	0.00192007	   5.41084	0.00192829	   5.41084	   48.2074	
   5.36088	0.00191431	   5.34124	0.00194815	   5.32812	0.00191924	   5.34341	0.00192723	   5.34341	   48.1808	
   5.29304	0.00191335	    5.2738	0.00194657	   5.26033	0.00191843	   5.27572	0.00192612	   5.27572	    48.153	
   5.22482	0.00191231	   5.20598	0.00194488	   5.19225	0.00191756	   5.20768	0.00192492	   5.20768	   48.1229	
   5.15646	0.00191118	   5.13803	0.00194309	   5.12413	0.00191652	   5.13954	 0.0019236	   5.13954	   48.0899	
   5.08799	0.00190994	   5.06977	0.00194123	   5.05558	0.00191526	   5.07111	0.00192214	   5.07111	   48.0536	
   5.01924	0.00190861	   5.00125	0.00193932	   4.98686	0.00191376	   5.00245	0.00192056	   5.00245	   48.0141	
   4.95029	0.00190718	   4.93255	 0.0019374	   4.91805	0.00191202	   4.93363	0.00191887	   4.93363	   47.9718	
   4.88093	0.00190569	   4.86346	0.00193547	   4.84891	 0.0019101	   4.86443	0.00191709	   4.86443	   47.9272	
   4.81142	0.00190413	   4.79422	0.00193353	   4.77972	0.00190808	   4.79512	0.00191525	   4.79512	   47.8813	
     4.742	0.00190255	   4.72488	0.00193155	   4.71049	0.00190604	   4.72579	0.00191338	   4.72579	   47.8346	
   4.67227	0.00190095	   4.65547	0.00192951	   4.64103	0.00190405	   4.65626	 0.0019115	   4.65626	   47.7876	
   4.60249	0.00189932	   4.58601	0.00192737	    4.5714	0.00190215	   4.58663	0.00190961	   4.58663	   47.7403	
   4.53247	0.00189767	   4.51612	0.00192511	   4.50142	0.00190032	   4.51667	 0.0019077	   4.51667	   47.6925	
   4.46227	0.00189597	   4.44605	0.00192273	   4.43134	0.00189854	   4.44655	0.00190575	   4.44655	   47.6436	
   4.39196	 0.0018942	   4.37591	0.00192023	   4.36095	0.00189674	   4.37627	0.00190373	   4.37627	   47.5932	
   4.32133	0.00189236	   4.30546	0.00191765	   4.29034	0.00189485	   4.30571	0.00190162	   4.30571	   47.5405	
   4.25063	0.00189042	   4.23496	0.00191501	   4.21955	0.00189282	   4.23505	0.00189942	   4.23505	   47.4854	
    4.1799	0.00188839	   4.16402	0.00191234	   4.14863	0.00189061	   4.16419	0.00189711	   4.16419	   47.4279	
   4.10917	0.00188626	   4.09292	0.00190968	   4.07762	0.00188821	   4.09324	0.00189472	   4.09324	   47.3679	
   4.03845	0.00188403	   4.02169	0.00190704	   4.00655	0.00188564	   4.02223	0.00189224	   4.02223	   47.3059	
   3.96737	0.00188175	   3.95016	 0.0019044	   3.93525	0.00188295	   3.95093	 0.0018897	   3.95093	   47.2424	
   3.89619	0.00187943	   3.87861	0.00190173	   3.86397	0.00188019	   3.87959	0.00188712	   3.87959	   47.1779	
   3.82483	0.00187707	   3.80679	  0.001899	   3.79231	0.00187743	   3.80798	 0.0018845	   3.80798	   47.1125	
   3.75325	0.00187469	   3.73482	0.00189616	   3.72056	0.00187471	   3.73621	0.00188185	   3.73621	   47.0463	
   3.68148	0.00187229	   3.66294	0.00189319	   3.64875	0.00187205	   3.66439	0.00187918	   3.66439	   46.9794	
   3.60936	0.00186985	   3.59077	0.00189007	   3.57691	0.00186945	   3.59234	0.00187646	   3.59234	   46.9114	
   3.53715	0.00186735	   3.51855	0.00188682	   3.50507	0.00186687	   3.52026	0.00187368	   3.52026	    46.842	
   3.46491	0.00186477	   3.44612	0.00188346	   3.43326	0.00186426	    3.4481	0.00187083	    3.4481	   46.7707	
   3.39245	0.00186209	   3.37354	0.00188002	   3.36131	0.00186155	   3.37577	0.00186788	   3.37577	   46.6971	
   3.32003	 0.0018593	   3.30104	0.00187653	   3.28947	0.00185868	   3.30351	0.00186484	   3.30351	   46.6209	
   3.24774	0.00185639	   3.22825	0.00187304	   3.21749	0.00185562	   3.23116	0.00186168	   3.23116	   46.5421	
   3.17533	0.00185338	   3.15542	0.00186955	   3.14547	0.00185235	   3.15874	0.00185843	   3.15874	   46.4607	
   3.10264	0.00185028	    3.0826	0.00186606	   3.07302	 0.0018489	   3.08609	0.00185508	   3.08609	   46.3771	
   3.02972	0.00184714	   3.00961	0.00186255	   3.00043	0.00184532	   3.01325	0.00185167	   3.01325	   46.2918	
   2.95684	0.00184395	    2.9367	0.00185901	   2.92774	0.00184168	   2.94043	0.00184821	   2.94043	   46.2053	
    2.8836	0.00184074	   2.86349	0.00185538	   2.85477	0.00183803	   2.86729	0.00184472	   2.86729	    46.118	
   2.81029	0.00183751	   2.79024	0.00185166	   2.78179	0.00183443	   2.79411	 0.0018412	   2.79411	     46.03	
   2.73683	0.00183425	   2.71688	0.00184782	   2.70874	0.00183089	   2.72082	0.00183765	   2.72082	   45.9414	
   2.66317	0.00183093	   2.64336	0.00184387	   2.63555	0.00182742	   2.64736	0.00183407	   2.64736	   45.8519	
   2.58957	0.00182755	   2.56993	 0.0018398	   2.56247	0.00182398	   2.57399	0.00183044	   2.57399	   45.7611	
   2.51585	0.00182407	   2.49621	0.00183563	   2.48954	 0.0018205	   2.50053	0.00182673	   2.50053	   45.6683	
   2.44207	0.00182047	   2.42246	 0.0018314	   2.41634	0.00181691	   2.42696	0.00182293	   2.42696	   45.5731	
   2.36826	0.00181675	   2.34873	0.00182713	   2.34316	0.00181319	   2.35338	0.00181902	   2.35338	   45.4755	
   2.29425	0.00181292	   2.27483	0.00182285	   2.27002	0.00180927	    2.2797	0.00181501	    2.2797	   45.3753	
    2.2203	  0.001809	   2.20082	0.00181857	   2.19653	0.00180516	   2.20589	0.00181091	   2.20589	   45.2727	
   2.14604	0.00180502	   2.12669	0.00181427	   2.12277	0.00180091	   2.13183	0.00180673	   2.13183	   45.1683	
   2.07173	0.00180099	   2.05255	0.00180994	   2.04899	0.00179655	   2.05776	0.00180249	   2.05776	   45.0623	
   1.99741	0.00179692	   1.97822	0.00180555	   1.97482	0.00179215	   1.98348	0.00179821	   1.98348	   44.9552	
   1.92291	0.00179281	   1.90375	0.00180108	   1.90054	0.00178777	   1.90907	0.00179389	   1.90907	   44.8472	
    1.8485	0.00178867	   1.82941	 0.0017965	    1.8264	0.00178344	   1.83477	0.00178953	   1.83477	   44.7384	
   1.77401	0.00178448	   1.75502	 0.0017918	   1.75201	0.00177915	   1.76034	0.00178514	   1.76034	   44.6286	
   1.69947	0.00178022	   1.68061	  0.001787	   1.67765	0.00177487	   1.68591	 0.0017807	   1.68591	   44.5174	
   1.62493	0.00177587	   1.60644	0.00178211	   1.60334	0.00177056	   1.61157	0.00177618	   1.61157	   44.4045	
   1.55022	0.00177143	   1.53212	0.00177716	   1.52892	0.00176616	   1.53709	0.00177158	   1.53709	   44.2896	
   1.47561	0.00176689	   1.45789	0.00177218	   1.45464	0.00176163	   1.46271	 0.0017669	   1.46271	   44.1725	
    1.4007	0.00176227	   1.38338	0.00176719	   1.38011	0.00175695	   1.38807	0.00176214	   1.38807	   44.0534	
   1.32578	0.00175756	   1.30885	0.00176219	    1.3054	0.00175212	   1.31334	0.00175729	   1.31334	   43.9322	
   1.25067	 0.0017528	   1.23435	0.00175717	   1.23055	0.00174717	   1.23852	0.00175238	   1.23852	   43.8095	
   1.17543	0.00174799	    1.1597	0.00175211	   1.15561	0.00174215	   1.16358	0.00174741	   1.16358	   43.6853	
   1.10032	0.00174314	   1.08517	0.00174699	   1.08064	 0.0017371	   1.08871	0.00174241	   1.08871	   43.5603	
   1.02517	0.00173826	   1.01056	0.00174179	   1.00546	0.00173207	   1.01373	0.00173737	   1.01373	   43.4343	
   0.95001	0.00173333	  0.935939	0.00173649	  0.930351	0.00172707	  0.938767	 0.0017323	  0.938767	   43.3074	
  0.874685	0.00172836	  0.861335	0.00173108	  0.855134	 0.0017221	  0.863718	0.00172718	  0.863718	   43.1795	
  0.799246	0.00172333	  0.786581	0.00172558	   0.77986	0.00171712	  0.788562	0.00172201	  0.788562	   43.0502	
  0.723955	0.00171823	  0.711939	0.00171998	  0.704784	 0.0017121	  0.713559	0.00171677	  0.713559	   42.9192	
  0.648422	0.00171305	  0.637439	0.00171432	  0.629512	0.00170696	  0.638458	0.00171144	  0.638458	   42.7861	
  0.572919	0.00170779	    0.5629	 0.0017086	  0.554312	0.00170167	  0.563377	0.00170602	  0.563377	   42.6505	
  0.497487	0.00170244	  0.488153	0.00170285	   0.47922	 0.0016962	  0.488287	 0.0017005	  0.488287	   42.5124	
  0.421952	0.00169701	  0.413255	0.00169704	  0.404057	0.00169055	  0.413088	0.00169487	  0.413088	   42.3717	
  0.346574	0.00169149	  0.338261	0.00169119	  0.328873	0.00168475	  0.337903	0.00168914	  0.337903	   42.2286	
  0.271173	 0.0016859	  0.263218	0.00168529	  0.253498	0.00167883	   0.26263	0.00168334	   0.26263	   42.0834	
  0.195792	0.00168023	   0.18817	0.00167932	  0.177992	0.00167284	  0.187318	0.00167746	  0.187318	   41.9365	
  0.120473	0.00167449	  0.113367	 0.0016733	  0.102409	0.00166683	  0.112083	0.00167154	  0.112083	   41.7884	
 0.0450444	 0.0016687	 0.0384133	0.00166722	 0.0267985	0.00166083	 0.0367521	0.00166558	 0.0367521	   41.6395	
-0.0302337	0.00166285	-0.0366369	0.00166108	-0.0485865	0.00165486	-0.0384857	 0.0016596	-0.0384857	     41.49	
 -0.105541	0.00165697	 -0.111526	 0.0016549	 -0.124141	0.00164892	 -0.113736	0.00165359	 -0.113736	   41.3399	
 -0.180833	0.00165105	 -0.186437	0.00164866	 -0.199599	0.00164297	 -0.188956	0.00164756	 -0.188956	    41.189	
 -0.255862	 0.0016451	 -0.261327	0.00164237	 -0.275135	0.00163698	 -0.264108	0.00164148	 -0.264108	    41.037	
 -0.331025	0.00163909	 -0.336367	0.00163603	 -0.350702	0.00163091	 -0.339365	0.00163534	 -0.339365	   40.8836	
 -0.406063	0.00163303	 -0.411297	0.00162963	 -0.426252	0.00162471	 -0.414537	0.00162913	 -0.414537	   40.7281	
 -0.481153	0.00162689	 -0.486503	0.00162314	 -0.501955	0.00161837	  -0.48987	 0.0016228	  -0.48987	     40.57	
  -0.55625	0.00162065	 -0.561712	0.00161656	 -0.577547	0.00161187	 -0.565169	0.00161636	 -0.565169	   40.4091	
 -0.631104	0.00161431	 -0.636673	0.00160988	 -0.652992	0.00160524	 -0.640256	0.00160981	 -0.640256	   40.2452	
 -0.706111	0.00160787	 -0.711781	0.00160309	 -0.728469	0.00159849	 -0.715454	0.00160315	 -0.715454	   40.0787	
 -0.781007	0.00160133	 -0.786776	0.00159619	 -0.803881	0.00159168	 -0.790555	 0.0015964	 -0.790555	     39.91	
 -0.855972	0.00159473	 -0.861834	 0.0015892	 -0.879242	0.00158482	 -0.865682	0.00158959	 -0.865682	   39.7396	
 -0.930959	0.00158807	 -0.936909	0.00158214	 -0.954515	0.00157797	 -0.940794	0.00158272	 -0.940794	   39.5681	
  -1.00592	0.00158138	  -1.01196	0.00157501	  -1.02946	0.00157111	  -1.01578	0.00157583	  -1.01578	   39.3959	
  -1.08083	0.00157466	  -1.08694	0.00156783	  -1.10448	0.00156425	  -1.09075	0.00156892	  -1.09075	    39.223	
  -1.15564	0.00156792	  -1.16183	0.00156063	  -1.17931	0.00155737	  -1.16559	0.00156197	  -1.16559	   39.0493	
  -1.23012	0.00156113	   -1.2368	0.00155339	  -1.25394	0.00155044	  -1.24028	0.00155498	  -1.24028	   38.8746	
  -1.30445	0.00155427	  -1.31179	0.00154611	  -1.32854	0.00154341	  -1.31493	0.00154793	  -1.31493	   38.6982	
  -1.37894	0.00154731	  -1.38672	0.00153878	   -1.4032	0.00153627	  -1.38962	0.00154079	  -1.38962	   38.5196	
  -1.45362	0.00154024	  -1.46182	0.00153138	  -1.47774	  0.001529	  -1.46439	0.00153354	  -1.46439	   38.3385	
  -1.52824	0.00153304	  -1.53681	0.00152391	  -1.55216	0.00152159	  -1.53907	0.00152618	  -1.53907	   38.1546	
  -1.60255	0.00152574	  -1.61145	0.00151636	  -1.62662	0.00151408	  -1.61354	0.00151873	  -1.61354	   37.9681	
  -1.67696	0.00151835	  -1.68616	0.00150872	  -1.70109	0.00150647	  -1.68807	0.00151118	  -1.68807	   37.7795	
  -1.75142	0.00151091	  -1.76089	0.00150098	  -1.77552	0.00149882	  -1.76261	0.00150357	  -1.76261	   37.5893	
  -1.82547	0.00150347	  -1.83538	0.00149315	  -1.85009	0.00149114	  -1.83698	0.00149592	  -1.83698	    37.398	
  -1.89952	0.00149604	  -1.90983	0.00148523	  -1.92454	0.00148346	  -1.91129	0.00148824	  -1.91129	   37.2061	
  -1.97395	0.00148863	  -1.98419	0.00147724	  -1.99863	0.00147579	  -1.98559	0.00148055	  -1.98559	   37.0138	
  -2.04807	0.00148125	  -2.05866	0.00146918	  -2.07277	 0.0014681	  -2.05984	0.00147284	  -2.05984	   36.8211	
  -2.12208	0.00147386	  -2.13297	0.00146105	  -2.14671	0.00146039	  -2.13392	 0.0014651	  -2.13392	   36.6275	
  -2.19615	0.00146641	  -2.20731	0.00145288	  -2.22064	0.00145262	  -2.20803	 0.0014573	  -2.20803	   36.4326	
  -2.27023	0.00145887	  -2.28163	0.00144465	  -2.29452	0.00144475	  -2.28213	0.00144942	  -2.28213	   36.2356	
  -2.34409	0.00145121	  -2.35568	0.00143637	  -2.36811	0.00143675	  -2.35596	0.00144144	  -2.35596	   36.0361	
  -2.41792	0.00144339	  -2.42967	0.00142803	   -2.4416	0.00142864	  -2.42973	0.00143335	  -2.42973	   35.8338	
  -2.49167	0.00143541	  -2.50356	0.00141963	  -2.51513	0.00142039	  -2.50345	0.00142514	  -2.50345	   35.6286	
  -2.56511	0.00142731	  -2.57731	0.00141115	  -2.58849	0.00141205	  -2.57697	0.00141684	  -2.57697	   35.4209	
  -2.63865	0.00141911	  -2.65112	 0.0014026	  -2.66188	0.00140361	  -2.65055	0.00140844	  -2.65055	    35.211	
  -2.71203	0.00141085	  -2.72474	0.00139396	  -2.73505	0.00139514	  -2.72394	0.00139998	  -2.72394	   34.9996	
  -2.78503	0.00140258	  -2.79834	0.00138524	  -2.80799	0.00138663	  -2.79712	0.00139149	  -2.79712	   34.7871	
  -2.85805	0.00139432	  -2.87191	0.00137645	  -2.88088	0.00137812	  -2.87028	0.00138296	  -2.87028	   34.5741	
  -2.93086	0.00138609	  -2.94519	0.00136758	  -2.95349	0.00136961	  -2.94318	0.00137442	  -2.94318	   34.3606	
  -3.00344	0.00137786	  -3.01838	0.00135865	  -3.02601	0.00136108	  -3.01594	0.00136586	  -3.01594	   34.1466	
  -3.07598	0.00136963	  -3.09146	0.00134967	  -3.09843	 0.0013525	  -3.08862	0.00135727	  -3.08862	   33.9317	
  -3.14845	0.00136135	  -3.16439	0.00134064	  -3.17092	0.00134387	  -3.16125	0.00134862	  -3.16125	   33.7155	
   -3.2204	  0.001353	  -3.23737	0.00133155	  -3.24324	0.00133514	  -3.23367	 0.0013399	  -3.23367	   33.4974	
  -3.29227	0.00134454	  -3.31015	0.00132241	  -3.31537	0.00132631	  -3.30593	0.00133109	  -3.30593	   33.2772	
  -3.36425	0.00133597	  -3.38271	 0.0013132	  -3.38772	0.00131737	  -3.37823	0.00132218	  -3.37823	   33.0546	
  -3.43629	0.00132728	  -3.45525	0.00130393	  -3.46002	0.00130833	  -3.45052	0.00131318	  -3.45052	   32.8295	
  -3.50815	0.00131847	  -3.52752	0.00129457	  -3.53204	 0.0012992	  -3.52257	0.00130408	  -3.52257	   32.6021	
  -3.58002	0.00130957	  -3.59973	0.00128514	  -3.60398	0.00129001	  -3.59458	0.00129491	  -3.59458	   32.3727	
  -3.65187	 0.0013006	  -3.67186	0.00127562	  -3.67582	0.00128078	  -3.66651	0.00128567	  -3.66651	   32.1417	
  -3.72346	0.00129159	  -3.74366	0.00126603	  -3.74732	0.00127152	  -3.73815	0.00127638	  -3.73815	   31.9095	
    -3.795	0.00128257	  -3.81534	0.00125636	  -3.81891	0.00126223	  -3.80975	0.00126705	  -3.80975	   31.6763	
  -3.86645	0.00127355	  -3.88688	0.00124662	  -3.89032	0.00125292	  -3.88122	 0.0012577	  -3.88122	   31.4424	
  -3.93759	0.00126451	  -3.95826	0.00123683	  -3.96156	0.00124356	  -3.95247	 0.0012483	  -3.95247	   31.2076	
  -4.00863	0.00125546	  -4.02947	  0.001227	  -4.03281	0.00123415	  -4.02363	0.00123887	  -4.02363	   30.9717	
  -4.07954	0.00124637	  -4.10049	0.00121711	  -4.10384	0.00122468	  -4.09462	0.00122938	  -4.09462	   30.7346	
  -4.15009	0.00123719	  -4.17126	0.00120718	  -4.17489	0.00121514	  -4.16542	0.00121984	  -4.16542	   30.4959	
  -4.22072	0.00122792	  -4.24204	 0.0011972	   -4.2459	0.00120554	  -4.23622	0.00121022	  -4.23622	   30.2555	
  -4.29118	0.00121852	  -4.31259	0.00118717	  -4.31682	0.00119587	  -4.30686	0.00120052	  -4.30686	    30.013	
  -4.36145	0.00120901	   -4.3831	0.00117708	  -4.38786	0.00118614	  -4.37747	0.00119074	  -4.37747	   29.7686	
  -4.43174	0.00119938	  -4.45357	0.00116693	  -4.45877	0.00117636	  -4.44803	0.00118089	  -4.44803	   29.5222	
  -4.50182	0.00118966	  -4.52375	 0.0011567	  -4.52932	0.00116651	  -4.51829	0.00117096	  -4.51829	   29.2739	
  -4.57145	0.00117988	  -4.59344	 0.0011464	  -4.59972	 0.0011566	   -4.5882	0.00116096	   -4.5882	   29.0241	
  -4.64109	0.00117008	  -4.66307	0.00113603	  -4.66995	0.00114663	  -4.65804	0.00115092	  -4.65804	   28.7729	
  -4.71064	0.00116029	  -4.73241	0.00112559	  -4.73981	 0.0011366	  -4.72762	0.00114083	  -4.72762	   28.5206	
  -4.78015	0.00115051	  -4.80167	0.00111509	  -4.80929	0.00112651	  -4.79704	 0.0011307	  -4.79704	   28.2675	
   -4.8496	0.00114073	  -4.87085	0.00110453	  -4.87819	0.00111637	  -4.86621	0.00112054	  -4.86621	   28.0135	
  -4.91875	0.00113093	  -4.93971	0.00109392	  -4.94676	0.00110618	  -4.93507	0.00111034	  -4.93507	   27.7586	
  -4.98784	0.00112108	  -5.00805	0.00108326	  -5.01541	0.00109597	  -5.00376	 0.0011001	  -5.00376	   27.5026	
   -5.0564	0.00111114	  -5.07631	0.00107254	  -5.08371	0.00108571	  -5.07214	 0.0010898	  -5.07214	   27.2449	
   -5.1247	0.00110108	  -5.14428	0.00106177	  -5.15186	 0.0010754	  -5.14028	0.00107942	  -5.14028	   26.9855	
  -5.19271	0.00109088	  -5.21217	0.00105094	  -5.22008	0.00106505	  -5.20832	0.00106896	  -5.20832	   26.7239	
  -5.26067	0.00108052	   -5.2798	0.00104004	  -5.28782	0.00105462	   -5.2761	0.00105839	   -5.2761	   26.4599	
  -5.32834	0.00107005	  -5.34714	0.00102907	  -5.35583	0.00104411	  -5.34377	0.00104774	  -5.34377	   26.1936	
  -5.39574	0.00105949	   -5.4142	0.00101804	  -5.42366	0.00103353	   -5.4112	0.00103702	   -5.4112	   25.9254	
  -5.46308	0.00104889	  -5.48118	0.00100694	  -5.49088	0.00102286	  -5.47838	0.00102623	  -5.47838	   25.6557	
  -5.53014	0.00103829	  -5.54787	0.000995776	  -5.55816	0.00101215	  -5.54539	0.00101541	  -5.54539	   25.3851	
  -5.59693	0.00102772	   -5.6145	0.000984569	  -5.62547	 0.0010014	   -5.6123	0.00100456	   -5.6123	   25.1141	
  -5.66346	 0.0010172	  -5.68105	0.00097332	  -5.69155	0.000990616	  -5.67868	0.000993713	  -5.67868	   24.8428	
  -5.72973	0.00100672	  -5.74731	0.000962034	  -5.75794	0.000979815	  -5.74499	0.000982856	  -5.74499	   24.5714	
  -5.79571	0.00099622	  -5.81324	0.000950709	  -5.82425	0.000969001	  -5.81106	0.000971977	  -5.81106	   24.2994	
  -5.86166	0.000985677	  -5.87911	0.00093936	     -5.89	0.000958167	  -5.87692	0.000961068	  -5.87692	   24.0267	
  -5.92738	0.000975035	  -5.94472	0.000927974	  -5.95605	0.000947297	  -5.94272	0.000950102	  -5.94272	   23.7525	
  -5.99286	0.000964261	  -6.01007	0.000916531	  -6.02176	0.000936367	  -6.00823	0.000939053	  -6.00823	   23.4763	
  -6.05813	0.000953323	  -6.07539	0.000905016	  -6.08671	0.000925375	  -6.07341	0.000927905	  -6.07341	   23.1976	
  -6.12319	0.000942227	  -6.14025	0.000893421	   -6.1518	0.000914294	  -6.13841	0.000916648	  -6.13841	   22.9162	
  -6.18804	0.00093099	  -6.20468	0.000881734	  -6.21659	0.000903133	   -6.2031	0.000905286	   -6.2031	   22.6321	
   -6.2526	0.000919661	  -6.26913	0.00086996	  -6.28068	0.000891893	  -6.26747	0.000893838	  -6.26747	   22.3459	
  -6.31699	0.000908284	  -6.33338	0.000858108	  -6.34475	0.00088058	  -6.33171	0.000882324	  -6.33171	   22.0581	
    -6.381	0.000896915	  -6.39724	0.000846201	   -6.4088	0.000869212	  -6.39568	0.000870776	  -6.39568	   21.7694	
  -6.44487	0.000885577	  -6.46094	0.000834249	  -6.47219	 0.0008578	  -6.45933	0.000859208	  -6.45933	   21.4802	
  -6.50861	0.000874294	  -6.52428	0.000822266	   -6.5354	0.000846352	  -6.52276	0.000847637	  -6.52276	   21.1909	
  -6.57223	0.00086305	  -6.58729	0.000810264	  -6.59887	0.000834883	  -6.58613	0.000836066	  -6.58613	   20.9016	
  -6.63531	0.00085182	  -6.65021	0.000798255	  -6.66172	0.000823387	  -6.64908	0.000824487	  -6.64908	   20.6122	
  -6.69832	0.000840555	  -6.71282	0.000786241	  -6.72401	0.00081186	  -6.71172	0.000812885	  -6.71172	   20.3221	
  -6.76105	0.000829211	  -6.77517	0.000774217	  -6.78646	0.000800286	  -6.77423	0.000801238	  -6.77423	    20.031	
  -6.82331	0.000817746	  -6.83727	0.000762171	  -6.84839	0.000788652	  -6.83633	0.000789523	  -6.83633	   19.7381	
  -6.88558	0.000806147	  -6.89894	0.000750093	  -6.91005	0.000776945	  -6.89819	0.000777728	  -6.89819	   19.4432	
  -6.94763	0.00079441	  -6.96021	0.000737981	  -6.97146	0.000765163	  -6.95977	0.000765851	  -6.95977	   19.1463	
  -7.00928	0.000782566	  -7.02112	0.000725816	  -7.03245	0.000753303	  -7.02095	0.000753895	  -7.02095	   18.8474	
  -7.07056	0.000770647	  -7.08191	0.000713585	  -7.09305	0.000741375	  -7.08184	0.000741869	  -7.08184	   18.5467	
  -7.13172	0.000758703	  -7.14261	0.000701284	   -7.1535	0.000729389	  -7.14261	0.000729792	  -7.14261	   18.2448	
  -7.19256	0.000746769	  -7.20301	0.000688904	  -7.21362	0.000717368	  -7.20307	0.000717681	  -7.20307	    17.942	
  -7.25291	0.000734876	  -7.26295	0.000676453	   -7.2734	0.000705321	  -7.26308	0.00070555	  -7.26308	   17.6387	
  -7.31323	0.000723025	  -7.32267	0.00066394	  -7.33312	0.000693261	  -7.32301	0.000693409	  -7.32301	   17.3352	
  -7.37333	0.000711207	   -7.3822	0.000651387	  -7.39261	0.000681192	  -7.38271	0.000681262	  -7.38271	   17.0315	
  -7.43302	0.000699376	  -7.44137	0.000638805	  -7.45167	0.000669114	  -7.44202	0.000669098	  -7.44202	   16.7275	
  -7.49213	0.000687498	      -7.5	0.000626211	  -7.51035	0.000657013	  -7.50083	0.000656908	  -7.50083	   16.4227	
  -7.55094	0.000675525	  -7.55857	0.000613603	  -7.56892	0.000644875	  -7.55948	0.000644668	  -7.55948	   16.1167	
  -7.60948	0.000663432	  -7.61689	0.000600969	  -7.62718	0.000632673	  -7.61785	0.000632358	  -7.61785	   15.8089	
  -7.66759	0.000651205	  -7.67479	0.000588282	  -7.68496	0.000620401	  -7.67578	0.000619963	  -7.67578	   15.4991	
  -7.72541	0.000638868	  -7.73211	0.000575513	  -7.74275	0.000608036	  -7.73342	0.000607472	  -7.73342	   15.1868	
  -7.78309	0.000626454	   -7.7887	0.000562625	  -7.80034	0.000595571	  -7.79071	0.000594883	  -7.79071	   14.8721	
  -7.84045	0.000614024	  -7.84485	0.000549611	  -7.85756	0.000583015	  -7.84762	0.000582217	  -7.84762	   14.5554	
  -7.89733	0.000601626	  -7.90063	0.000536486	  -7.91445	0.000570394	  -7.90414	0.000569502	  -7.90414	   14.2375	
  -7.95398	0.000589307	  -7.95587	0.000523293	  -7.97087	0.000557731	  -7.96024	0.000556777	  -7.96024	   13.9194	
  -8.01046	0.00057708	  -8.01085	0.000510083	  -8.02685	0.000545065	  -8.01605	0.000544076	  -8.01605	   13.6019	
  -8.06658	0.000564933	  -8.06562	0.000496921	  -8.08247	0.000532424	  -8.07156	0.000531426	  -8.07156	   13.2856	
  -8.12219	0.000552817	  -8.12002	0.000483867	  -8.13756	0.000519834	  -8.12659	0.00051884	  -8.12659	    12.971	
  -8.17761	0.000540671	  -8.17451	0.000470955	  -8.19246	0.000507299	  -8.18153	0.000506308	  -8.18153	   12.6577	
  -8.23284	0.000528418	  -8.22913	0.000458172	  -8.24716	0.000494836	  -8.23638	0.000493808	  -8.23638	   12.3452	
   -8.2877	0.000516007	  -8.28389	0.000445468	  -8.30149	0.000482383	  -8.29103	0.000481286	  -8.29103	   12.0322	
  -8.34205	0.000503403	  -8.33879	0.000432767	  -8.35529	0.000469902	  -8.34538	0.000468691	  -8.34538	   11.7173	
  -8.39594	0.000490617	  -8.39366	0.00041998	  -8.40907	0.000457326	  -8.39956	0.000455974	  -8.39956	   11.3993	
  -8.44966	0.000477679	  -8.44831	0.000407019	  -8.46264	0.000444592	  -8.45354	0.000443097	  -8.45354	   11.0774	
  -8.50305	0.000464666	  -8.50257	0.000393826	  -8.51585	0.000431686	  -8.50716	0.000430059	  -8.50716	   10.7515	
  -8.55595	0.000451657	   -8.5563	0.000380387	  -8.56775	0.000418594	     -8.56	0.000416879	     -8.56	    10.422	
  -8.60864	0.000438733	  -8.60935	0.000366728	  -8.61865	0.000405321	  -8.61222	0.000403594	  -8.61222	   10.0898	
  -8.66097	0.000425943	  -8.66162	0.000352925	  -8.66951	0.000391954	  -8.66403	0.000390274	  -8.66403	   9.75685	
    -8.713	0.000413305	   -8.7134	0.000339087	  -8.71932	0.000378541	  -8.71524	0.000376978	  -8.71524	   9.42445	
  -8.76458	0.000400787	  -8.76477	0.000325317	  -8.76822	0.000365174	  -8.76586	0.000363759	  -8.76586	   9.09399	
  -8.81558	0.000388339	   -8.8156	0.000311703	   -8.8182	0.000351925	  -8.81646	0.000350656	  -8.81646	   8.76639	
  -8.86649	0.000375871	  -8.86618	0.000298288	  -8.86818	0.000338812	  -8.86695	0.000337657	  -8.86695	   8.44143	
  -8.91717	0.00036331	  -8.91656	0.000285073	  -8.91694	0.000325842	  -8.91689	0.000324742	  -8.91689	   8.11854	
  -8.96745	0.000350584	   -8.9666	0.000272007	  -8.96656	0.000312975	  -8.96687	0.000311855	  -8.96687	   7.79638	
   -9.0172	0.000337665	  -9.01637	0.000258996	  -9.01654	0.000300139	   -9.0167	0.000298933	   -9.0167	   7.47333	
  -9.06672	0.000324557	  -9.06613	0.00024593	  -9.06628	0.000287273	  -9.06638	0.00028592	  -9.06638	     7.148	
  -9.11607	0.000311314	  -9.11573	0.000232711	  -9.11646	0.00027429	  -9.11609	0.000272772	  -9.11609	    6.8193	
   -9.1651	0.000298002	  -9.16502	0.000219278	  -9.16667	0.000261164	   -9.1656	0.000259481	   -9.1656	   6.48703	
  -9.21368	0.000284705	  -9.21385	0.000205618	   -9.2159	0.000247875	  -9.21448	0.000246066	  -9.21448	   6.15165	
  -9.26167	0.000271484	   -9.2621	0.000191762	   -9.2647	0.000234442	  -9.26282	0.000232563	  -9.26282	   5.81408	
  -9.30918	0.000258393	  -9.30986	0.000177798	  -9.31314	0.000220929	  -9.31073	0.00021904	  -9.31073	     5.476	
   -9.3565	0.000245433	  -9.35728	0.000163828	  -9.36084	0.000207391	  -9.35821	0.000205551	  -9.35821	   5.13877	
   -9.4035	0.000232587	  -9.40439	0.000149966	  -9.40817	0.000193892	  -9.40535	0.000192149	  -9.40535	   4.80372	
  -9.45003	0.000219797	  -9.45105	0.00013629	  -9.45521	0.000180488	   -9.4521	0.000178858	   -9.4521	   4.47145	
    -9.496	0.000206996	  -9.49714	0.000122825	  -9.50119	0.00016718	  -9.49811	0.000165667	  -9.49811	   4.14168	
   -9.5417	0.000194113	  -9.54298	0.000109542	  -9.54668	0.00015398	  -9.54379	0.000152545	  -9.54379	   3.81363	
    -9.587	0.000181106	  -9.58864	9.63721e-05	   -9.5922	0.000140843	  -9.58928	0.00013944	  -9.58928	   3.48601	
    -9.632	0.000167949	  -9.63399	8.32139e-05	  -9.63695	0.000127709	  -9.63432	0.000126291	  -9.63432	   3.15727	
  -9.67658	0.000154661	  -9.67889	6.99576e-05	  -9.68087	0.000114534	  -9.67878	0.000113051	  -9.67878	   2.82627	
  -9.72061	0.000141283	  -9.72324	5.65137e-05	  -9.72475	0.000101265	  -9.72287	9.96871e-05	  -9.72287	   2.49218	
  -9.76442	0.000127878	  -9.76715	4.28475e-05	  -9.76819	8.78749e-05	  -9.76659	8.62002e-05	  -9.76659	   2.15501	
  -9.80786	0.000114502	  -9.81091	2.89713e-05	  -9.81109	7.4376e-05	  -9.80995	7.26163e-05	  -9.80995	   1.81541	
  -9.85105	0.000101203	   -9.8544	1.49618e-05	  -9.85396	6.07908e-05	  -9.85314	5.89852e-05	  -9.85314	   1.47463	
  -9.89385	8.79981e-05	  -9.89749	9.0812e-07	  -9.89647	4.71764e-05	  -9.89594	4.53609e-05	  -9.89594	   1.13402	
  -9.93616	7.48888e-05	  -9.94007	-1.30873e-05	   -9.9385	3.35832e-05	  -9.93824	3.17949e-05	  -9.93824	  0.794873	
  -9.97786	6.1842e-05	  -9.98225	-2.69315e-05	  -9.98037	2.00666e-05	  -9.98016	1.83257e-05	  -9.98016	  0.458143	
  -10.0192	4.88129e-05	   -10.024	-4.0569e-05	   -10.022	6.66729e-06	  -10.0217	4.97039e-06	  -10.0217	   0.12426	
  -10.0604	3.5748e-05	  -10.0656	  -5.4e-05	  -10.0628	-6.59721e-06	  -10.0629	-8.28308e-06	  -10.0629	 -0.207077	
  -10.1013	2.26172e-05	  -10.1069	-6.72565e-05	  -10.1033	-1.97382e-05	  -10.1038	-2.14592e-05	  -10.1038	 -0.536479	
  -10.1417	9.40749e-06	  -10.1477	-8.04298e-05	  -10.1435	-3.27928e-05	  -10.1443	-3.4605e-05	  -10.1443	 -0.865126	
  -10.1817	-3.88252e-06	   -10.188	-9.36146e-05	  -10.1831	-4.58178e-05	  -10.1843	-4.77716e-05	  -10.1843	  -1.19429	
  -10.2211	-1.72437e-05	  -10.2277	-0.000106895	  -10.2225	-5.88641e-05	  -10.2237	-6.10008e-05	  -10.2237	  -1.52502	
    -10.26	-3.06255e-05	  -10.2669	-0.000120331	  -10.2617	-7.19902e-05	  -10.2629	-7.43155e-05	  -10.2629	  -1.85789	
  -10.2985	-4.40025e-05	  -10.3059	-0.000133946	  -10.3004	-8.52231e-05	  -10.3016	-8.77238e-05	  -10.3016	   -2.1931	
  -10.3369	-5.73378e-05	  -10.3446	-0.000147713	  -10.3386	-9.85704e-05	    -10.34	-0.000101207	    -10.34	  -2.53017	
  -10.3748	-7.06061e-05	   -10.383	-0.00016158	  -10.3765	-0.000112015	  -10.3781	-0.000114734	  -10.3781	  -2.86834	
  -10.4123	-8.38087e-05	  -10.4209	-0.000175461	  -10.4139	-0.000125513	  -10.4157	-0.000128261	  -10.4157	  -3.20652	
  -10.4493	-9.69538e-05	  -10.4582	-0.000189274	  -10.4508	-0.00013901	  -10.4528	-0.000141746	  -10.4528	  -3.54365	
  -10.4859	-0.000110067	  -10.4948	-0.000202955	  -10.4878	-0.000152455	  -10.4895	-0.000155159	  -10.4895	  -3.87898	
  -10.5224	-0.000123183	  -10.5311	-0.000216474	  -10.5246	-0.000165799	   -10.526	-0.000168485	   -10.526	  -4.21213	
  -10.5587	-0.000136307	  -10.5671	-0.000229836	   -10.561	-0.000179022	  -10.5622	-0.000181721	  -10.5622	  -4.54304	
  -10.5945	-0.000149463	  -10.6028	-0.000243088	   -10.597	-0.00019212	  -10.5981	-0.00019489	  -10.5981	  -4.87226	
  -10.6299	-0.000162648	  -10.6381	-0.000256293	  -10.6327	-0.000205119	  -10.6336	-0.00020802	  -10.6336	  -5.20049	
  -10.6649	-0.000175848	  -10.6729	-0.000269525	  -10.6679	-0.000218063	  -10.6685	-0.000221145	  -10.6685	  -5.52863	
  -10.6993	-0.000189034	  -10.7072	-0.000282842	  -10.7025	-0.000231009	   -10.703	-0.000234295	   -10.703	  -5.85737	
  -10.7331	-0.000202195	  -10.7409	-0.000296282	  -10.7368	-0.000244004	   -10.737	-0.000247494	   -10.737	  -6.18734	
  -10.7664	-0.000215319	  -10.7744	-0.000309844	  -10.7705	-0.000257089	  -10.7704	-0.000260751	  -10.7704	  -6.51877	
  -10.7992	-0.000228402	  -10.8073	-0.000323499	  -10.8036	-0.000270274	  -10.8034	-0.000274059	  -10.8034	  -6.85146	
  -10.8316	-0.000241441	  -10.8398	-0.000337193	  -10.8364	-0.000283555	  -10.8359	-0.000287396	  -10.8359	  -7.18491	
  -10.8637	-0.000254472	   -10.872	-0.000350857	  -10.8689	-0.000296893	  -10.8682	-0.00030074	  -10.8682	  -7.51851	
  -10.8955	-0.000267506	  -10.9039	-0.000364422	  -10.9011	-0.000310244	  -10.9001	-0.000314057	  -10.9001	  -7.85143	
  -10.9269	-0.000280573	  -10.9353	-0.000377848	  -10.9327	-0.000323553	  -10.9316	-0.000327324	  -10.9316	  -8.18311	
  -10.9578	-0.000293679	  -10.9662	-0.000391118	  -10.9638	-0.000336773	  -10.9626	-0.000340523	  -10.9626	  -8.51309	
  -10.9881	-0.000306818	  -10.9967	-0.00040426	  -10.9944	-0.000349874	  -10.9931	-0.000353651	  -10.9931	  -8.84127	
  -11.0178	-0.00031997	  -11.0266	-0.000417318	  -11.0244	-0.000362844	   -11.023	-0.000366711	   -11.023	  -9.16776	
   -11.047	-0.000333098	  -11.0561	-0.000430356	  -11.0538	-0.00037569	  -11.0523	-0.000379715	  -11.0523	  -9.49287	
  -11.0762	-0.000346163	  -11.0848	-0.000443434	  -11.0828	-0.00038845	  -11.0813	-0.000392682	  -11.0813	  -9.81705	
   -11.105	-0.000359151	  -11.1131	-0.000456606	  -11.1113	-0.000401171	  -11.1098	-0.000405643	  -11.1098	  -10.1411	
  -11.1335	-0.000372042	  -11.1413	-0.000469893	  -11.1394	-0.000413904	  -11.1381	-0.000418613	  -11.1381	  -10.4653	
  -11.1615	-0.000384854	  -11.1692	-0.000483286	  -11.1671	-0.000426687	  -11.1659	-0.000431609	  -11.1659	  -10.7902	
  -11.1892	-0.000397621	  -11.1966	-0.000496739	  -11.1945	-0.000439539	  -11.1934	-0.000444633	  -11.1934	  -11.1158	
  -11.2164	-0.000410382	  -11.2237	-0.000510195	  -11.2215	-0.000452456	  -11.2205	-0.000457678	  -11.2205	  -11.4419	
  -11.2431	-0.000423181	  -11.2503	-0.000523588	  -11.2479	-0.000465422	  -11.2471	-0.00047073	  -11.2471	  -11.7683	
  -11.2692	-0.000436064	  -11.2763	-0.000536862	  -11.2738	-0.000478395	  -11.2731	-0.000483774	  -11.2731	  -12.0943	
  -11.2948	-0.000449046	  -11.3018	-0.000549983	  -11.2992	-0.000491334	  -11.2986	-0.000496788	  -11.2986	  -12.4197	
  -11.3198	-0.00046212	  -11.3266	-0.000562943	   -11.324	-0.000504194	  -11.3235	-0.000509753	  -11.3235	  -12.7438	
  -11.3441	-0.000475242	  -11.3509	-0.000575763	  -11.3483	-0.000516941	  -11.3477	-0.000522649	  -11.3477	  -13.0662	
  -11.3677	-0.000488357	  -11.3744	-0.000588495	  -11.3718	-0.000529564	  -11.3713	-0.000535472	  -11.3713	  -13.3868	
  -11.3908	-0.000501388	  -11.3974	-0.000601192	  -11.3952	-0.000542067	  -11.3945	-0.000548216	  -11.3945	  -13.7054	
  -11.4138	-0.000514284	    -11.42	-0.000613916	  -11.4181	-0.000554471	  -11.4173	-0.00056089	  -11.4173	  -14.0223	
  -11.4373	-0.000527001	  -11.4421	-0.000626701	  -11.4406	-0.000566825	    -11.44	-0.000573509	    -11.44	  -14.3377	
  -11.4609	-0.000539528	  -11.4641	-0.000639562	  -11.4628	-0.000579172	  -11.4626	-0.000586087	  -11.4626	  -14.6522	
  -11.4841	-0.000551895	  -11.4858	-0.000652484	  -11.4848	-0.000591559	  -11.4849	-0.000598646	  -11.4849	  -14.9662	
  -11.5075	-0.00056417	  -11.5073	-0.000665429	  -11.5064	-0.000604006	  -11.5071	-0.000611202	  -11.5071	    -15.28	
  -11.5303	-0.000576418	  -11.5284	-0.000678342	  -11.5277	-0.000616517	  -11.5288	-0.000623759	  -11.5288	   -15.594	
  -11.5526	-0.000588719	  -11.5491	-0.000691172	  -11.5485	-0.000629067	  -11.5501	-0.000636319	  -11.5501	   -15.908	
  -11.5748	-0.000601126	  -11.5694	-0.000703868	  -11.5689	-0.000641619	   -11.571	-0.000648871	   -11.571	  -16.2218	
  -11.5958	-0.000613661	  -11.5893	-0.000716418	  -11.5888	-0.000654125	  -11.5913	-0.000661401	  -11.5913	   -16.535	
  -11.6157	-0.000626302	  -11.6086	-0.000728828	  -11.6082	-0.000666547	  -11.6108	-0.000673892	  -11.6108	  -16.8473	
  -11.6351	-0.000639004	  -11.6275	-0.000741129	  -11.6271	-0.000678848	  -11.6299	-0.000686327	  -11.6299	  -17.1582	
  -11.6539	-0.000651689	  -11.6458	-0.000753365	  -11.6454	-0.000691027	  -11.6484	-0.000698693	  -11.6484	  -17.4673	
  -11.6716	-0.000664277	  -11.6635	-0.000765586	  -11.6631	-0.00070309	  -11.6661	-0.000710985	  -11.6661	  -17.7746	
  -11.6891	-0.000676705	  -11.6808	-0.00077783	  -11.6803	-0.000715079	  -11.6834	-0.000723205	  -11.6834	  -18.0801	
  -11.7064	-0.000688946	  -11.6974	-0.000790123	  -11.6968	-0.00072703	  -11.7002	-0.000735366	  -11.7002	  -18.3842	
  -11.7225	-0.000700997	  -11.7134	-0.000802459	  -11.7128	-0.000738982	  -11.7163	-0.000747479	  -11.7163	   -18.687	
  -11.7385	-0.000712903	  -11.7289	-0.000814821	  -11.7282	-0.000750963	  -11.7318	-0.000759562	  -11.7318	  -18.9891	
  -11.7543	-0.000724723	  -11.7438	-0.000827165	  -11.7429	-0.000762989	   -11.747	-0.000771625	   -11.747	  -19.2906	
  -11.7695	-0.000736532	  -11.7582	-0.000839447	  -11.7571	-0.000775035	  -11.7616	-0.000783671	  -11.7616	  -19.5918	
  -11.7841	-0.000748393	  -11.7721	-0.000851621	  -11.7706	-0.000787084	  -11.7756	-0.000795699	  -11.7756	  -19.8925	
  -11.7987	-0.000760346	  -11.7854	-0.000863654	  -11.7836	-0.000799097	  -11.7892	-0.000807699	  -11.7892	  -20.1925	
  -11.8124	-0.000772396	  -11.7982	-0.00087553	  -11.7964	-0.000811035	  -11.8023	-0.000819653	  -11.8023	  -20.4913	
  -11.8256	-0.000784519	  -11.8107	-0.000887269	  -11.8087	-0.000822876	   -11.815	-0.000831555	   -11.815	  -20.7889	
  -11.8386	-0.00079666	  -11.8225	-0.000898905	  -11.8205	-0.00083461	  -11.8272	-0.000843392	  -11.8272	  -21.0848	
   -11.851	-0.000808761	   -11.834	-0.000910495	  -11.8316	-0.000846233	  -11.8389	-0.000855163	  -11.8389	  -21.3791	
  -11.8625	-0.000820756	  -11.8448	-0.000922085	  -11.8423	-0.000857764	  -11.8499	-0.000866868	  -11.8499	  -21.6717	
  -11.8737	-0.000832609	   -11.855	-0.00093372	  -11.8526	-0.000869221	  -11.8604	-0.000878516	  -11.8604	  -21.9629	
  -11.8844	-0.000844294	  -11.8648	-0.000945412	  -11.8625	-0.000880633	  -11.8706	-0.000890113	  -11.8706	  -22.2528	
  -11.8943	-0.000855825	  -11.8742	-0.000957154	  -11.8718	-0.000892019	  -11.8801	-0.000901666	  -11.8801	  -22.5417	
  -11.9042	-0.000867233	  -11.8833	-0.000968906	  -11.8807	-0.000903389	  -11.8894	-0.000913176	  -11.8894	  -22.8294	
  -11.9138	-0.000878563	  -11.8917	-0.000980618	  -11.8892	-0.000914742	  -11.8982	-0.000924641	  -11.8982	   -23.116	
  -11.9226	-0.000889872	  -11.8996	-0.000992232	  -11.8971	-0.000926074	  -11.9064	-0.000936059	  -11.9064	  -23.4015	
  -11.9309	-0.000901202	  -11.9072	-0.00100371	  -11.9045	-0.000937374	  -11.9142	-0.000947428	  -11.9142	  -23.6857	
  -11.9391	-0.000912565	  -11.9142	-0.00101501	  -11.9115	-0.000948637	  -11.9216	-0.000958739	  -11.9216	  -23.9685	
  -11.9466	-0.000923983	  -11.9209	-0.00102617	   -11.918	-0.000959852	  -11.9285	  -0.00097	  -11.9285	    -24.25	
  -11.9537	-0.000935422	  -11.9271	-0.00103719	   -11.924	-0.000971013	  -11.9349	-0.00098121	  -11.9349	  -24.5302	
  -11.9607	-0.000946849	  -11.9328	-0.00104814	  -11.9297	-0.000982116	  -11.9411	-0.000992367	  -11.9411	  -24.8092	
  -11.9671	-0.000958227	   -11.938	-0.00105905	  -11.9349	-0.00099316	  -11.9467	-0.00100348	  -11.9467	  -25.0869	
  -11.9728	-0.000969505	  -11.9428	-0.00106997	  -11.9397	-0.00100414	  -11.9517	-0.00101454	  -11.9517	  -25.3635	
  -11.9785	-0.000980655	  -11.9471	-0.00108092	   -11.944	-0.00101507	  -11.9565	-0.00102555	  -11.9565	  -25.6387	
  -11.9835	-0.000991672	   -11.951	-0.00109191	  -11.9479	-0.00102593	  -11.9608	-0.0010365	  -11.9608	  -25.9126	
  -11.9879	-0.00100255	  -11.9545	-0.00110291	  -11.9513	-0.00103673	  -11.9646	-0.0010474	  -11.9646	  -26.1849	
   -11.992	-0.00101334	  -11.9577	-0.00111387	  -11.9544	-0.00104745	   -11.968	-0.00105822	   -11.968	  -26.4555	
  -11.9955	-0.00102405	  -11.9605	-0.00112475	  -11.9572	-0.00105812	   -11.971	-0.00106898	   -11.971	  -26.7244	
  -11.9984	-0.00103475	  -11.9629	-0.00113552	  -11.9596	-0.00106872	  -11.9737	-0.00107966	  -11.9737	  -26.9915	
  -12.0009	-0.00104544	  -11.9651	-0.00114615	  -11.9617	-0.00107925	  -11.9759	-0.00109028	  -11.9759	   -27.257	
  -12.0029	-0.00105616	   -11.967	-0.00115663	  -11.9635	-0.00108972	  -11.9778	-0.00110084	  -11.9778	  -27.5209	
  -12.0045	-0.00106689	  -11.9685	 -0.001167	   -11.965	-0.00110013	  -11.9793	-0.00111134	  -11.9793	  -27.7835	
  -12.0054	-0.00107762	  -11.9699	-0.00117727	  -11.9662	-0.00111047	  -11.9805	-0.00112179	  -11.9805	  -28.0447	
   -12.006	-0.0010883	   -11.971	-0.00118749	  -11.9672	-0.00112076	  -11.9814	-0.00113218	  -11.9814	  -28.3045	
  -12.0062	-0.0010989	  -11.9716	-0.00119768	   -11.968	-0.00113099	  -11.9819	-0.00114253	  -11.9819	  -28.5631	
  -12.0056	-0.00110938	  -11.9717	-0.00120789	  -11.9683	-0.00114117	  -11.9819	-0.00115281	  -11.9819	  -28.8203	
  -12.0048	-0.00111975	  -11.9712	-0.0012181	  -11.9681	-0.0011513	  -11.9814	-0.00116305	  -11.9814	  -29.0762	
  -12.0035	  -0.00113	    -11.97	-0.0012283	  -11.9675	-0.00116138	  -11.9803	-0.00117323	  -11.9803	  -29.3306	
  -12.0015	-0.00114015	  -11.9681	-0.00123848	  -11.9666	-0.0011714	  -11.9787	-0.00118334	  -11.9787	  -29.5835	
  -11.9988	-0.00115022	  -11.9657	-0.0012486	  -11.9649	-0.00118136	  -11.9765	-0.00119339	  -11.9765	  -29.8348	
  -11.9956	-0.00116024	  -11.9626	-0.00125862	  -11.9627	-0.00119126	  -11.9736	-0.00120337	  -11.9736	  -30.0843	
  -11.9917	-0.00117022	  -11.9591	-0.00126851	  -11.9599	-0.00120109	  -11.9702	-0.00121327	  -11.9702	  -30.3318	
  -11.9874	-0.00118019	  -11.9551	-0.00127827	  -11.9565	-0.00121083	  -11.9664	-0.0012231	  -11.9664	  -30.5774	
  -11.9825	-0.00119013	  -11.9508	-0.0012879	  -11.9527	-0.0012205	   -11.962	-0.00123284	   -11.962	  -30.8211	
   -11.977	-0.00120003	  -11.9461	-0.00129742	  -11.9485	-0.00123009	  -11.9572	-0.00124251	  -11.9572	  -31.0628	
  -11.9712	-0.00120987	  -11.9411	-0.00130686	  -11.9439	-0.00123962	  -11.9521	-0.00125211	  -11.9521	  -31.3029	
   -11.965	-0.00121963	  -11.9356	-0.00131625	   -11.939	-0.00124908	  -11.9465	-0.00126165	  -11.9465	  -31.5413	
  -11.9586	-0.00122928	    -11.93	-0.00132564	  -11.9336	-0.00125851	  -11.9407	-0.00127114	  -11.9407	  -31.7786	
  -11.9515	-0.00123884	  -11.9237	-0.00133505	  -11.9277	-0.00126789	  -11.9343	-0.00128059	  -11.9343	  -32.0148	
  -11.9441	-0.0012483	  -11.9169	-0.00134446	  -11.9213	-0.00127723	  -11.9274	  -0.00129	  -11.9274	  -32.2499	
  -11.9361	-0.00125768	  -11.9095	-0.00135387	  -11.9144	-0.00128653	    -11.92	-0.00129936	    -11.92	   -32.484	
  -11.9277	-0.00126701	  -11.9015	-0.00136322	  -11.9069	-0.00129577	   -11.912	-0.00130867	   -11.912	  -32.7166	
  -11.9186	-0.00127631	   -11.893	-0.00137247	  -11.8988	-0.00130494	  -11.9035	-0.0013179	  -11.9035	  -32.9476	
  -11.9091	-0.00128557	   -11.884	-0.00138157	  -11.8902	-0.00131403	  -11.8944	-0.00132706	  -11.8944	  -33.1764	
  -11.8991	-0.00129482	  -11.8746	-0.0013905	  -11.8811	-0.00132303	   -11.885	-0.00133612	   -11.885	  -33.4029	
  -11.8886	-0.00130402	   -11.865	-0.00139926	  -11.8717	-0.00133195	  -11.8751	-0.00134508	  -11.8751	  -33.6269	
  -11.8778	-0.00131317	  -11.8549	-0.00140787	  -11.8617	-0.00134078	  -11.8648	-0.00135394	  -11.8648	  -33.8485	
  -11.8665	-0.00132223	  -11.8444	-0.00141636	  -11.8515	-0.00134954	  -11.8541	-0.00136271	  -11.8541	  -34.0678	
  -11.8546	-0.00133119	  -11.8334	-0.0014248	  -11.8406	-0.00135824	  -11.8429	-0.00137141	  -11.8429	  -34.2853	
  -11.8423	-0.00134003	   -11.822	-0.00143323	   -11.829	-0.0013669	  -11.8311	-0.00138005	  -11.8311	  -34.5014	
  -11.8293	-0.00134875	    -11.81	-0.00144171	  -11.8168	-0.00137552	  -11.8187	-0.00138866	  -11.8187	  -34.7165	
  -11.8159	-0.00135736	  -11.7975	-0.00145024	  -11.8041	-0.00138411	  -11.8058	-0.00139724	  -11.8058	  -34.9309	
   -11.802	-0.00136587	  -11.7846	-0.00145882	  -11.7909	-0.00139266	  -11.7925	-0.00140578	  -11.7925	  -35.1446	
  -11.7877	-0.00137431	  -11.7714	-0.0014674	  -11.7773	-0.00140116	  -11.7788	-0.00141429	  -11.7788	  -35.3572	
  -11.7732	-0.00138269	  -11.7578	-0.00147595	  -11.7635	-0.00140959	  -11.7648	-0.00142274	  -11.7648	  -35.5686	
  -11.7585	-0.00139104	  -11.7439	-0.00148438	  -11.7491	-0.00141794	  -11.7505	-0.00143112	  -11.7505	  -35.7781	
  -11.7432	-0.00139937	  -11.7295	-0.00149267	  -11.7346	-0.00142621	  -11.7358	-0.00143942	  -11.7358	  -35.9854	
  -11.7275	-0.00140769	  -11.7145	-0.00150076	  -11.7194	-0.00143438	  -11.7205	-0.00144761	  -11.7205	  -36.1902	
  -11.7112	-0.00141598	  -11.6991	-0.00150867	  -11.7036	-0.00144246	  -11.7046	-0.0014557	  -11.7046	  -36.3926	
  -11.6944	-0.00142424	  -11.6831	-0.00151642	  -11.6873	-0.00145046	  -11.6883	-0.00146371	  -11.6883	  -36.5926	
  -11.6772	-0.00143244	  -11.6667	-0.00152406	  -11.6706	-0.00145839	  -11.6715	-0.00147163	  -11.6715	  -36.7908	
  -11.6598	-0.00144057	  -11.6501	-0.00153164	  -11.6536	-0.00146627	  -11.6545	-0.0014795	  -11.6545	  -36.9874	
  -11.6421	-0.0014486	   -11.633	-0.00153923	  -11.6362	-0.0014741	  -11.6371	-0.00148731	  -11.6371	  -37.1827	
  -11.6239	-0.00145651	  -11.6155	-0.00154684	  -11.6183	-0.00148189	  -11.6192	-0.00149508	  -11.6192	   -37.377	
  -11.6054	-0.00146431	  -11.5973	-0.00155449	  -11.5997	-0.00148964	  -11.6008	-0.00150281	  -11.6008	  -37.5703	
  -11.5863	-0.00147198	  -11.5786	-0.00156216	  -11.5806	-0.00149735	  -11.5818	-0.0015105	  -11.5818	  -37.7624	
  -11.5667	-0.00147955	  -11.5594	-0.0015698	  -11.5611	-0.00150501	  -11.5624	-0.00151812	  -11.5624	  -37.9529	
  -11.5469	-0.00148703	  -11.5399	-0.00157735	  -11.5412	-0.0015126	  -11.5427	-0.00152566	  -11.5427	  -38.1415	
  -11.5267	-0.00149446	  -11.5199	-0.00158478	  -11.5211	-0.00152011	  -11.5226	-0.00153312	  -11.5226	  -38.3279	
  -11.5057	-0.00150186	  -11.4991	-0.00159205	  -11.5006	-0.00152754	  -11.5018	-0.00154048	  -11.5018	   -38.512	
  -11.4843	-0.00150926	   -11.478	-0.00159916	  -11.4795	-0.00153487	  -11.4806	-0.00154776	  -11.4806	  -38.6941	
  -11.4625	-0.00151664	  -11.4563	-0.00160615	  -11.4577	-0.00154211	  -11.4588	-0.00155497	  -11.4588	  -38.8742	
  -11.4402	-0.00152401	  -11.4341	-0.00161304	  -11.4355	-0.00154928	  -11.4366	-0.00156211	  -11.4366	  -39.0527	
  -11.4176	-0.00153132	  -11.4117	-0.00161988	  -11.4128	-0.00155638	   -11.414	-0.00156919	   -11.414	  -39.2298	
  -11.3944	-0.00153857	  -11.3888	-0.00162669	  -11.3895	-0.00156341	  -11.3909	-0.00157622	  -11.3909	  -39.4056	
  -11.3706	-0.00154572	  -11.3655	-0.0016335	  -11.3656	-0.00157039	  -11.3672	-0.00158321	  -11.3672	  -39.5801	
  -11.3464	-0.00155275	  -11.3417	-0.00164032	  -11.3412	-0.00157733	  -11.3431	-0.00159013	  -11.3431	  -39.7533	
  -11.3217	-0.00155964	  -11.3174	-0.00164711	  -11.3163	-0.00158421	  -11.3184	-0.00159699	  -11.3184	  -39.9247	
  -11.2966	-0.00156642	  -11.2928	-0.00165386	   -11.291	-0.00159104	  -11.2935	-0.00160377	  -11.2935	  -40.0943	
  -11.2711	-0.0015731	  -11.2677	-0.00166052	  -11.2655	-0.00159781	  -11.2681	-0.00161048	  -11.2681	  -40.2619	
  -11.2453	-0.00157972	  -11.2423	-0.00166705	  -11.2395	-0.0016045	  -11.2424	-0.00161709	  -11.2424	  -40.4273	
   -11.219	-0.0015863	  -11.2162	-0.00167343	  -11.2129	-0.00161111	   -11.216	-0.00162362	   -11.216	  -40.5904	
  -11.1922	-0.00159287	  -11.1897	-0.00167967	  -11.1858	-0.00161764	  -11.1892	-0.00163006	  -11.1892	  -40.7515	
   -11.165	-0.00159944	  -11.1627	-0.00168577	  -11.1583	-0.00162408	   -11.162	-0.00163643	   -11.162	  -40.9107	
  -11.1375	 -0.001606	  -11.1355	-0.00169176	  -11.1306	-0.00163044	  -11.1345	-0.00164273	  -11.1345	  -41.0683	
  -11.1098	-0.00161252	  -11.1081	-0.00169767	  -11.1024	-0.00163672	  -11.1068	-0.00164897	  -11.1068	  -41.2242	
  -11.0819	-0.00161896	    -11.08	-0.00170356	  -11.0735	-0.00164294	  -11.0785	-0.00165515	  -11.0785	  -41.3788	
  -11.0534	-0.00162529	  -11.0514	-0.00170946	  -11.0442	-0.0016491	  -11.0497	-0.00166128	  -11.0497	  -41.5321	
  -11.0245	-0.00163149	  -11.0224	-0.00171538	  -11.0146	-0.00165522	  -11.0205	-0.00166736	  -11.0205	  -41.6841	
  -10.9953	-0.00163756	  -10.9928	-0.00172131	  -10.9845	-0.00166129	  -10.9909	-0.00167338	  -10.9909	  -41.8346	
  -10.9655	-0.00164351	  -10.9626	-0.00172721	   -10.954	-0.00166731	  -10.9607	-0.00167935	  -10.9607	  -41.9837	
  -10.9351	-0.00164938	  -10.9322	-0.00173304	  -10.9231	-0.00167327	  -10.9301	-0.00168523	  -10.9301	  -42.1307	
  -10.9041	-0.0016552	  -10.9016	-0.00173875	  -10.8918	-0.00167916	  -10.8992	-0.00169104	  -10.8992	  -42.2759	
  -10.8728	 -0.001661	  -10.8706	-0.0017443	  -10.8602	-0.00168498	  -10.8679	-0.00169676	  -10.8679	   -42.419	
  -10.8409	-0.00166679	  -10.8394	-0.00174967	  -10.8284	-0.00169071	  -10.8363	-0.00170239	  -10.8363	  -42.5598	
  -10.8088	-0.00167258	  -10.8079	-0.00175488	  -10.7962	-0.00169633	  -10.8043	-0.00170793	  -10.8043	  -42.6983	
  -10.7761	-0.00167834	  -10.7758	-0.00175997	  -10.7635	-0.00170186	  -10.7718	-0.00171339	  -10.7718	  -42.8347	
   -10.743	-0.00168404	  -10.7433	-0.00176498	  -10.7304	-0.00170729	  -10.7389	-0.00171877	  -10.7389	  -42.9693	
  -10.7096	-0.00168964	  -10.7102	-0.00176999	  -10.6968	-0.00171265	  -10.7056	-0.00172409	  -10.7056	  -43.1023	
  -10.6759	-0.00169512	  -10.6764	-0.00177501	  -10.6632	-0.00171793	  -10.6718	-0.00172936	  -10.6718	  -43.2339	
  -10.6415	-0.00170048	   -10.642	-0.00178007	  -10.6292	-0.00172316	  -10.6376	-0.00173457	  -10.6376	  -43.3644	
  -10.6067	-0.00170573	   -10.607	-0.00178515	  -10.5948	-0.00172834	  -10.6028	-0.00173974	  -10.6028	  -43.4936	
  -10.5716	-0.00171087	  -10.5713	-0.00179022	    -10.56	-0.00173348	  -10.5677	-0.00174485	  -10.5677	  -43.6214	
  -10.5359	-0.00171595	  -10.5354	-0.00179518	  -10.5247	-0.00173857	   -10.532	-0.0017499	   -10.532	  -43.7475	
  -10.4998	-0.00172099	  -10.4989	-0.00180001	  -10.4888	-0.0017436	  -10.4958	-0.00175487	  -10.4958	  -43.8717	
  -10.4632	-0.00172601	  -10.4619	-0.00180465	  -10.4524	-0.00174857	  -10.4592	-0.00175974	  -10.4592	  -43.9936	
  -10.4263	-0.00173102	  -10.4248	-0.00180912	  -10.4157	-0.00175347	  -10.4223	-0.00176454	  -10.4223	  -44.1135	
  -10.3891	 -0.001736	  -10.3871	-0.00181345	  -10.3785	-0.0017583	  -10.3849	-0.00176925	  -10.3849	  -44.2312	
  -10.3514	-0.00174093	   -10.349	-0.00181767	  -10.3407	-0.00176306	   -10.347	-0.00177389	   -10.347	  -44.3471	
  -10.3132	-0.0017458	  -10.3107	-0.00182184	  -10.3024	-0.00176774	  -10.3088	-0.00177846	  -10.3088	  -44.4615	
  -10.2748	-0.00175056	  -10.2714	-0.00182604	  -10.2639	-0.00177233	    -10.27	-0.00178298	    -10.27	  -44.5744	
  -10.2357	-0.00175522	  -10.2318	-0.00183027	  -10.2248	-0.00177683	  -10.2308	-0.00178744	  -10.2308	   -44.686	
  -10.1961	-0.00175977	  -10.1921	-0.00183455	  -10.1854	-0.00178123	  -10.1912	-0.00179185	  -10.1912	  -44.7962	
   -10.156	-0.00176422	   -10.151	-0.00183884	  -10.1462	-0.00178553	  -10.1511	-0.0017962	  -10.1511	  -44.9049	
  -10.1157	-0.00176861	  -10.1097	-0.00184309	  -10.1069	-0.00178974	  -10.1108	-0.00180048	  -10.1108	  -45.0119	
  -10.0746	-0.00177293	  -10.0689	-0.00184726	  -10.0675	-0.00179388	  -10.0703	-0.00180469	  -10.0703	  -45.1172	
  -10.0332	-0.00177722	  -10.0271	-0.00185128	  -10.0274	-0.00179797	  -10.0293	-0.00180882	  -10.0293	  -45.2205	
  -9.99149	-0.00178149	  -9.98506	-0.00185513	   -9.9869	-0.00180201	  -9.98781	-0.00181288	  -9.98781	  -45.3219	
  -9.94955	-0.00178572	  -9.94303	-0.00185883	  -9.94577	-0.00180602	  -9.94612	-0.00181686	  -9.94612	  -45.4214	
  -9.90693	-0.00178993	  -9.89997	-0.00186237	   -9.9035	-0.00181001	  -9.90347	-0.00182077	  -9.90347	  -45.5192	
  -9.86385	-0.00179407	  -9.85694	-0.00186584	  -9.86095	-0.00181396	  -9.86058	-0.00182462	  -9.86058	  -45.6156	
  -9.82047	-0.00179816	  -9.81366	-0.00186925	  -9.81807	-0.00181786	   -9.8174	-0.00182842	   -9.8174	  -45.7106	
  -9.77676	-0.00180216	  -9.76945	-0.00187268	   -9.7742	-0.00182167	  -9.77347	-0.00183217	  -9.77347	  -45.8042	
  -9.73247	-0.00180607	  -9.72475	-0.00187613	  -9.72978	-0.00182539	    -9.729	-0.00183586	    -9.729	  -45.8966	
   -9.6878	-0.00180989	  -9.67996	-0.00187962	  -9.68519	-0.00182901	  -9.68432	-0.0018395	  -9.68432	  -45.9876	
  -9.64292	-0.00181362	  -9.63455	-0.00188311	   -9.6401	-0.00183252	  -9.63919	-0.00184308	  -9.63919	  -46.0771	
  -9.59759	-0.00181727	  -9.58858	-0.00188659	  -9.59499	-0.00183594	  -9.59372	-0.0018466	  -9.59372	   -46.165	
  -9.55179	-0.00182086	  -9.54286	-0.00188998	   -9.5494	-0.00183928	  -9.54802	-0.00185004	  -9.54802	  -46.2511	
   -9.5057	-0.00182439	   -9.4967	-0.00189328	  -9.50226	-0.00184258	  -9.50155	-0.00185341	  -9.50155	  -46.3353	
   -9.4593	-0.00182788	  -9.44986	-0.00189643	  -9.45511	-0.00184585	  -9.45476	-0.00185672	  -9.45476	   -46.418	
  -9.41255	-0.00183132	  -9.40318	-0.00189944	  -9.40811	-0.0018491	  -9.40794	-0.00185996	  -9.40794	  -46.4989	
  -9.36543	-0.00183473	  -9.35618	-0.00190232	  -9.35972	-0.00185234	  -9.36044	-0.00186313	  -9.36044	  -46.5782	
  -9.31813	-0.0018381	  -9.30862	-0.0019051	  -9.31085	-0.00185554	  -9.31253	-0.00186625	  -9.31253	  -46.6561	
  -9.27034	-0.0018414	  -9.26097	-0.00190782	  -9.26291	-0.00185868	  -9.26474	-0.0018693	  -9.26474	  -46.7325	
  -9.22212	-0.00184463	  -9.21271	-0.00191054	  -9.21331	-0.00186171	  -9.21605	-0.00187229	  -9.21605	  -46.8073	
  -9.17365	-0.00184777	  -9.16363	-0.00191326	   -9.1634	-0.00186464	  -9.16689	-0.00187522	  -9.16689	  -46.8806	
  -9.12491	-0.00185083	   -9.1146	-0.00191602	  -9.11462	-0.00186743	  -9.11805	-0.00187809	  -9.11805	  -46.9523	
  -9.07567	-0.0018538	  -9.06515	-0.00191877	  -9.06496	-0.00187011	  -9.06859	-0.00188089	  -9.06859	  -47.0223	
  -9.02612	-0.00185669	  -9.01526	-0.00192152	  -9.01465	-0.00187268	  -9.01868	-0.00188363	  -9.01868	  -47.0907	
  -8.97626	-0.00185951	  -8.96535	-0.0019242	  -8.96517	-0.00187517	  -8.96893	-0.00188629	  -8.96893	  -47.1573	
  -8.92626	-0.00186228	  -8.91516	-0.00192679	  -8.91473	-0.00187761	  -8.91872	-0.00188889	  -8.91872	  -47.2223	
   -8.8759	-0.00186501	  -8.86453	-0.00192924	  -8.86321	-0.00188003	  -8.86788	-0.00189143	  -8.86788	  -47.2856	
  -8.82538	-0.00186769	   -8.8138	-0.00193155	  -8.81292	-0.00188245	  -8.81737	-0.0018939	  -8.81737	  -47.3474	
  -8.77423	-0.00187034	  -8.76275	-0.0019337	  -8.76203	-0.00188487	  -8.76634	-0.00189631	  -8.76634	  -47.4076	
   -8.7227	-0.00187294	  -8.71115	-0.00193573	  -8.70972	-0.00188729	  -8.71452	-0.00189865	  -8.71452	  -47.4663	
  -8.67097	-0.00187548	  -8.65901	-0.00193766	  -8.65796	-0.00188967	  -8.66264	-0.00190094	  -8.66264	  -47.5234	
  -8.61882	-0.00187795	  -8.60695	-0.00193954	  -8.60623	-0.00189199	  -8.61067	-0.00190316	  -8.61067	   -47.579	
  -8.56625	-0.00188033	  -8.55453	-0.00194139	  -8.55347	-0.00189423	  -8.55808	-0.00190532	  -8.55808	  -47.6329	
  -8.51346	-0.00188262	  -8.50195	-0.00194325	  -8.50076	-0.00189634	  -8.50539	-0.00190741	  -8.50539	  -47.6852	
  -8.46019	-0.00188483	  -8.44924	-0.00194513	  -8.44807	-0.00189833	   -8.4525	-0.00190943	   -8.4525	  -47.7358	
  -8.40648	-0.00188693	   -8.3961	 -0.001947	  -8.39431	-0.0019002	  -8.39897	-0.00191138	  -8.39897	  -47.7845	
  -8.35257	-0.00188892	  -8.34256	-0.00194885	  -8.34039	-0.00190197	  -8.34517	-0.00191325	  -8.34517	  -47.8312	
  -8.29842	-0.00189082	   -8.2886	-0.00195064	  -8.28649	-0.00190366	  -8.29117	-0.00191504	  -8.29117	   -47.876	
  -8.24382	-0.00189264	  -8.23423	-0.00195232	  -8.23174	-0.00190531	   -8.2366	-0.00191676	   -8.2366	  -47.9189	
    -8.189	-0.00189439	  -8.17947	-0.00195387	  -8.17661	-0.00190694	  -8.18169	-0.0019184	  -8.18169	    -47.96	
  -8.13395	-0.00189612	   -8.1241	-0.00195527	  -8.12173	-0.00190856	  -8.12659	-0.00191998	  -8.12659	  -47.9996	
  -8.07813	-0.00189785	  -8.06837	-0.00195653	  -8.06611	-0.00191018	  -8.07087	-0.00192152	  -8.07087	   -48.038	
  -8.02084	-0.0018996	  -8.01226	-0.00195767	  -8.00989	-0.00191177	  -8.01433	-0.00192301	  -8.01433	  -48.0753	
  -7.96304	-0.00190136	   -7.9558	-0.00195871	  -7.95373	-0.00191332	  -7.95753	-0.00192446	  -7.95753	  -48.1116	
  -7.90538	-0.00190314	    -7.899	-0.0019597	  -7.89697	-0.0019148	  -7.90045	-0.00192588	  -7.90045	   -48.147	
  -7.84656	-0.00190491	  -7.84185	-0.00196067	  -7.83943	-0.00191619	  -7.84261	-0.00192726	  -7.84261	  -48.1814	
   -7.7873	-0.00190663	  -7.78416	-0.00196164	    -7.782	-0.00191746	  -7.78449	-0.00192858	  -7.78449	  -48.2144	
  -7.72909	-0.00190824	  -7.72617	-0.00196261	  -7.72444	-0.00191862	  -7.72656	-0.00192982	  -7.72656	  -48.2456	
  -7.67077	-0.00190969	  -7.66788	-0.00196356	  -7.66611	-0.00191967	  -7.66825	-0.00193098	  -7.66825	  -48.2744	
  -7.61193	-0.00191095	  -7.60926	-0.00196448	  -7.60775	-0.00192064	  -7.60965	-0.00193203	  -7.60965	  -48.3007	
  -7.55407	-0.00191203	  -7.55036	-0.00196533	  -7.54907	-0.00192154	  -7.55117	-0.00193296	  -7.55117	  -48.3241	
  -7.49644	-0.00191292	  -7.49121	-0.00196606	  -7.48969	-0.00192238	  -7.49245	-0.00193379	  -7.49245	  -48.3447	
  -7.43882	-0.00191368	  -7.43159	-0.00196668	  -7.43005	-0.00192319	  -7.43349	-0.00193452	  -7.43349	  -48.3629	
  -7.38139	-0.00191438	  -7.37175	-0.00196715	  -7.37037	-0.00192397	   -7.3745	-0.00193517	   -7.3745	  -48.3792	
  -7.32391	-0.00191507	   -7.3119	-0.0019675	  -7.31003	-0.00192472	  -7.31528	-0.00193577	  -7.31528	  -48.3941	
  -7.26574	-0.00191578	  -7.25161	-0.00196775	  -7.24949	-0.00192546	  -7.25562	-0.00193633	  -7.25562	  -48.4082	
  -7.20755	-0.00191654	  -7.19113	-0.00196792	  -7.18896	-0.00192616	  -7.19588	-0.00193687	  -7.19588	  -48.4219	
  -7.14911	-0.00191734	  -7.13051	-0.00196806	  -7.12813	-0.00192684	  -7.13591	-0.00193741	  -7.13591	  -48.4353	
  -7.09001	-0.00191814	  -7.06949	-0.00196818	  -7.06711	-0.00192747	  -7.07553	-0.00193793	  -7.07553	  -48.4483	
  -7.03051	-0.00191889	  -7.00831	-0.0019683	  -7.00591	-0.00192805	  -7.01491	-0.00193842	  -7.01491	  -48.4604	
  -6.97061	-0.00191955	  -6.94698	-0.00196843	  -6.94413	-0.00192854	  -6.95391	-0.00193884	  -6.95391	   -48.471	
  -6.90973	-0.0019201	  -6.88529	-0.00196853	  -6.88203	-0.00192891	  -6.89235	-0.00193918	  -6.89235	  -48.4795	
  -6.84856	-0.00192053	  -6.82349	-0.00196859	  -6.81983	-0.00192914	  -6.83063	-0.00193942	  -6.83063	  -48.4854	
  -6.78733	-0.00192082	  -6.76158	-0.00196857	  -6.75754	-0.00192921	  -6.76882	-0.00193953	  -6.76882	  -48.4883	
   -6.7252	-0.00192103	  -6.69935	-0.00196844	  -6.69496	-0.00192914	   -6.7065	-0.00193954	   -6.7065	  -48.4885	
  -6.66225	-0.00192116	  -6.63704	-0.00196819	  -6.63232	-0.00192897	  -6.64387	-0.00193944	  -6.64387	   -48.486	
  -6.59937	-0.00192123	  -6.57444	-0.00196781	   -6.5692	-0.00192871	    -6.581	-0.00193925	    -6.581	  -48.4812	
  -6.53636	-0.00192127	  -6.51158	-0.00196733	  -6.50586	-0.00192843	  -6.51793	-0.00193901	  -6.51793	  -48.4752	
  -6.47322	-0.00192128	  -6.44848	-0.00196675	  -6.44252	-0.00192816	  -6.45474	-0.00193873	  -6.45474	  -48.4683	
  -6.41018	-0.00192126	  -6.38515	-0.00196612	  -6.37876	-0.00192794	  -6.39136	-0.00193844	  -6.39136	  -48.4611	
  -6.34743	-0.00192121	  -6.32163	-0.00196547	  -6.31485	-0.00192778	  -6.32797	-0.00193815	  -6.32797	  -48.4538	
  -6.28433	-0.00192111	  -6.25771	-0.0019648	  -6.25057	-0.00192766	   -6.2642	-0.00193785	   -6.2642	  -48.4463	
  -6.22054	-0.00192095	  -6.19344	-0.00196413	  -6.18612	-0.00192753	  -6.20003	-0.00193753	  -6.20003	  -48.4383	
  -6.15711	-0.00192072	  -6.12906	-0.00196345	  -6.12138	-0.00192734	  -6.13585	-0.00193717	  -6.13585	  -48.4293	
  -6.09297	-0.00192041	  -6.06416	-0.00196275	  -6.05615	-0.00192704	  -6.07109	-0.00193673	  -6.07109	  -48.4184	
  -6.02777	-0.00192005	  -5.99901	-0.00196199	  -5.99069	-0.00192659	  -6.00582	-0.00193621	  -6.00582	  -48.4053	
  -5.96285	-0.0019196	  -5.93384	-0.00196116	  -5.92504	-0.00192595	  -5.94058	-0.00193557	  -5.94058	  -48.3893	
    -5.898	-0.00191907	  -5.86824	-0.00196024	    -5.859	-0.00192514	  -5.87508	-0.00193481	  -5.87508	  -48.3703	
  -5.83174	-0.00191846	  -5.80247	-0.0019592	  -5.79284	-0.00192417	  -5.80901	-0.00193394	  -5.80901	  -48.3486	
  -5.76545	-0.00191778	  -5.73675	-0.00195806	  -5.72635	-0.0019231	  -5.74285	-0.00193298	  -5.74285	  -48.3244	
  -5.69922	-0.00191703	  -5.67084	-0.00195682	  -5.65959	-0.00192198	  -5.67655	-0.00193194	  -5.67655	  -48.2985	
  -5.63214	-0.00191621	  -5.60481	-0.0019555	  -5.59279	-0.00192086	  -5.60991	-0.00193086	  -5.60991	  -48.2714	
  -5.56557	-0.00191535	  -5.53847	-0.00195412	  -5.52576	-0.00191977	  -5.54327	-0.00192975	  -5.54327	  -48.2437	
  -5.49863	-0.00191443	  -5.47186	-0.00195272	  -5.45854	-0.00191872	  -5.47634	-0.00192862	  -5.47634	  -48.2156	
  -5.43075	-0.00191348	  -5.40502	-0.00195128	  -5.39116	-0.0019177	  -5.40897	-0.00192748	  -5.40897	  -48.1871	
  -5.36326	-0.00191248	  -5.33797	-0.00194983	  -5.32364	-0.00191666	  -5.34163	-0.00192632	  -5.34163	  -48.1581	
  -5.29575	-0.00191144	  -5.27075	-0.00194835	  -5.25602	-0.00191556	  -5.27417	-0.00192511	  -5.27417	  -48.1279	
  -5.22758	-0.00191033	  -5.20339	-0.00194682	  -5.18852	-0.00191435	   -5.2065	-0.00192384	   -5.2065	  -48.0959	
  -5.15906	-0.00190916	  -5.13571	-0.00194523	  -5.12074	 -0.001913	   -5.1385	-0.00192246	   -5.1385	  -48.0616	
  -5.09064	-0.00190791	  -5.06795	-0.00194356	  -5.05271	-0.00191149	  -5.07043	-0.00192099	  -5.07043	  -48.0247	
  -5.02171	-0.00190661	  -5.00014	-0.00194179	  -4.98426	-0.00190983	  -5.00204	-0.00191941	  -5.00204	  -47.9852	
  -4.95253	-0.00190523	  -4.93209	-0.00193992	  -4.91565	-0.00190806	  -4.93343	-0.00191774	  -4.93343	  -47.9435	
  -4.88357	-0.00190379	  -4.86364	-0.00193796	  -4.84692	-0.00190621	  -4.86471	-0.00191599	  -4.86471	  -47.8996	
  -4.81441	-0.00190227	  -4.79482	-0.00193593	  -4.77789	-0.00190433	  -4.79571	-0.00191418	  -4.79571	  -47.8544	
  -4.74468	-0.00190069	  -4.72591	-0.00193382	  -4.70882	-0.00190245	  -4.72647	-0.00191232	  -4.72647	   -47.808	
  -4.67507	-0.00189903	  -4.65692	-0.00193168	  -4.63951	-0.00190059	  -4.65717	-0.00191043	  -4.65717	  -47.7608	
  -4.60532	-0.00189729	  -4.58769	-0.00192951	  -4.57001	-0.00189875	  -4.58767	-0.00190851	  -4.58767	  -47.7129	
  -4.53533	-0.00189546	  -4.51824	-0.00192731	  -4.50056	-0.00189691	  -4.51804	-0.00190656	  -4.51804	   -47.664	
  -4.46555	-0.00189355	  -4.44841	-0.00192507	  -4.43077	-0.00189503	  -4.44824	-0.00190455	  -4.44824	  -47.6138	
  -4.39557	-0.00189157	  -4.37846	-0.0019228	   -4.3609	-0.00189306	  -4.37831	-0.00190248	  -4.37831	  -47.5619	
  -4.32521	-0.00188952	  -4.30822	-0.00192046	  -4.29119	-0.00189097	  -4.30821	-0.00190032	  -4.30821	   -47.508	
  -4.25455	-0.00188744	  -4.23774	-0.00191806	  -4.22122	-0.00188873	  -4.23783	-0.00189807	  -4.23783	  -47.4518	
  -4.18361	-0.00188533	  -4.16726	-0.00191556	  -4.15083	-0.00188631	  -4.16724	-0.00189573	  -4.16724	  -47.3933	
  -4.11226	-0.0018832	  -4.09672	-0.00191296	  -4.08025	-0.00188376	  -4.09641	-0.00189331	  -4.09641	  -47.3327	
  -4.04076	-0.00188107	  -4.02604	-0.00191028	  -4.00935	-0.00188111	  -4.02538	-0.00189082	  -4.02538	  -47.2705	
  -3.96915	-0.00187892	  -3.95525	-0.00190751	  -3.93818	-0.00187842	   -3.9542	-0.00188828	   -3.9542	   -47.207	
  -3.89726	-0.00187674	  -3.88419	-0.00190467	  -3.86681	-0.00187573	  -3.88275	-0.00188571	  -3.88275	  -47.1428	
  -3.82536	-0.00187449	  -3.81311	-0.00190178	  -3.79548	-0.00187308	  -3.81131	-0.00188312	  -3.81131	  -47.0779	
  -3.75347	-0.00187217	  -3.74183	-0.00189884	   -3.7238	-0.00187047	   -3.7397	-0.00188049	   -3.7397	  -47.0124	
  -3.68141	-0.00186975	  -3.67039	-0.00189586	  -3.65203	-0.00186791	  -3.66794	-0.00187784	  -3.66794	   -46.946	
  -3.60944	-0.00186721	  -3.59884	-0.00189284	  -3.58022	-0.00186535	  -3.59617	-0.00187513	  -3.59617	  -46.8783	
  -3.53733	-0.00186454	  -3.52701	-0.00188978	  -3.50819	-0.00186272	  -3.52417	-0.00187235	  -3.52417	  -46.8087	
  -3.46515	-0.00186178	  -3.45516	-0.00188665	  -3.43619	-0.00185999	  -3.45217	-0.00186947	  -3.45217	  -46.7368	
  -3.39296	-0.00185893	   -3.3829	-0.00188346	  -3.36405	-0.0018571	  -3.37997	-0.0018665	  -3.37997	  -46.6624	
  -3.32058	-0.00185602	  -3.31051	-0.00188018	   -3.2918	-0.00185405	  -3.30763	-0.00186342	  -3.30763	  -46.5854	
  -3.24826	-0.00185307	  -3.23804	-0.00187681	   -3.2195	-0.00185083	  -3.23526	-0.00186024	  -3.23526	   -46.506	
  -3.17581	-0.00185011	  -3.16551	-0.00187336	  -3.14696	-0.0018475	  -3.16276	-0.00185699	  -3.16276	  -46.4247	
   -3.1033	-0.00184712	  -3.09297	-0.00186983	  -3.07424	-0.00184409	  -3.09017	-0.00185368	  -3.09017	   -46.342	
  -3.03095	-0.0018441	  -3.02024	-0.00186622	  -3.00118	-0.00184067	  -3.01745	-0.00185033	  -3.01745	  -46.2582	
  -2.95837	-0.00184104	  -2.94736	-0.00186254	  -2.92805	-0.00183726	  -2.94459	-0.00184695	  -2.94459	  -46.1737	
  -2.88583	-0.00183793	   -2.8744	-0.00185881	  -2.85467	-0.00183389	  -2.87163	-0.00184354	  -2.87163	  -46.0886	
  -2.81292	-0.00183473	  -2.80137	-0.00185503	   -2.7811	-0.00183055	  -2.79847	-0.0018401	  -2.79847	  -46.0026	
  -2.73993	-0.00183145	  -2.72833	-0.00185119	  -2.70761	-0.00182722	  -2.72529	-0.00183662	  -2.72529	  -45.9156	
   -2.6669	-0.00182808	  -2.65511	-0.0018473	  -2.63402	-0.00182385	  -2.65201	-0.00183308	  -2.65201	  -45.8269	
  -2.59365	-0.00182464	  -2.58175	-0.00184334	  -2.56037	-0.00182038	  -2.57859	-0.00182945	  -2.57859	  -45.7363	
  -2.52045	-0.00182112	   -2.5085	-0.00183932	   -2.4867	-0.00181677	  -2.50522	-0.00182574	  -2.50522	  -45.6434	
  -2.44732	-0.00181754	  -2.43498	-0.00183522	  -2.41305	 -0.001813	  -2.43178	-0.00182192	  -2.43178	  -45.5479	
   -2.3741	-0.00181389	  -2.36146	-0.00183103	  -2.33929	-0.00180906	  -2.35828	 -0.001818	  -2.35828	  -45.4499	
  -2.30081	-0.0018102	  -2.28754	-0.00182677	  -2.26542	-0.00180498	  -2.28459	-0.00181398	  -2.28459	  -45.3495	
  -2.22729	-0.00180643	  -2.21352	-0.00182249	  -2.19149	-0.00180073	  -2.21077	-0.00180988	  -2.21077	   -45.247	
  -2.15381	-0.00180261	  -2.13943	-0.00181815	  -2.11753	-0.00179637	  -2.13692	-0.00180571	  -2.13692	  -45.1427	
  -2.08018	-0.00179874	   -2.0651	-0.00181374	  -2.04339	-0.00179196	  -2.06289	-0.00180148	  -2.06289	   -45.037	
  -2.00646	-0.00179485	  -1.99081	-0.00180924	  -1.96931	-0.00178758	  -1.98886	-0.00179722	  -1.98886	  -44.9306	
  -1.93268	-0.00179092	  -1.91639	-0.00180465	  -1.89492	-0.00178327	  -1.91466	-0.00179295	  -1.91466	  -44.8237	
  -1.85869	-0.00178698	  -1.84172	-0.00179997	  -1.82049	-0.00177906	   -1.8403	-0.00178867	   -1.8403	  -44.7168	
