# User: ACHyster
# File name: C:/ACHYSTER/ACHyster SENS/SHAMS/CoFe2O4-1gl-water-Zero Glycerol- Sens-07-03-2023/CoFe2O4-1gl-water-Zero Glycerol- 10_100F- 12kAm -Sens-07-03-20230004#1
# Saved at: ma. mar. 7 14:19:28 2023
# Hyster Loop (3 iterations). Intensity: 12.0 kA/m; Tuned frequency: 50.0 kHz
# Units x axis: (kA/m)
# Units y axis: "Repeats y" & "Average y" (10^(-3)Am^2); "Mass avg y" (Am^2/kg)
# Magnetic mass: 4e-05 g
# Parameter      	Repeat   1	Repeat   2	Repeat   3	Average   	Sigma     
# H_C (kA/m)     	       8.9	       8.7	       8.7	       8.8	       0.1
# M_R (Am^2/kg)  	      46.3	      46.1	      45.9	      46.1	       0.2
# M_max (Am^2/kg)	      44.5	      46.2	      46.0	      45.6	       0.8
# Area (mJ/kg)   	    2130.2	    2116.9	    2106.8	    2118.0	       9.6
# SAR (W/g)      	     106.5	     105.8	     105.3	     105.9	       0.5
#Repeat 1 x	Repeat 1 y	Repeat 2 x	Repeat 2 y	Repeat 3 x	Repeat 3 y	Average x 	Average y 	Mass avg x 	Mass avg y 
  -1.68598	-0.00203101	  -1.67843	-0.0020292	  -1.67468	-0.00201993	   -1.6797	-0.00202671	   -1.6797	  -50.6678	
  -1.61176	 -0.002024	  -1.60372	-0.00202182	  -1.59992	-0.00201273	  -1.60513	-0.00201952	  -1.60513	  -50.4879	
  -1.53741	-0.00201696	  -1.52914	-0.00201441	  -1.52513	-0.0020053	  -1.53056	-0.00201222	  -1.53056	  -50.3055	
  -1.46292	-0.00200983	  -1.45436	-0.00200697	   -1.4502	-0.00199766	  -1.45583	-0.00200482	  -1.45583	  -50.1205	
  -1.38781	-0.00200257	  -1.37944	-0.00199949	  -1.37529	-0.00198991	  -1.38085	-0.00199732	  -1.38085	  -49.9331	
  -1.31335	-0.00199512	  -1.30452	-0.00199194	  -1.30067	-0.00198217	  -1.30618	-0.00198975	  -1.30618	  -49.7437	
  -1.23849	-0.00198749	  -1.22946	-0.00198431	   -1.2259	-0.0019745	  -1.23128	-0.0019821	  -1.23128	  -49.5525	
  -1.16394	-0.00197976	  -1.15453	-0.00197655	  -1.15115	-0.00196685	  -1.15654	-0.00197439	  -1.15654	  -49.3597	
  -1.08862	-0.00197202	  -1.07947	-0.00196868	  -1.07627	-0.00195913	  -1.08145	-0.00196661	  -1.08145	  -49.1652	
  -1.01423	-0.00196433	   -1.0044	-0.00196069	  -1.00125	-0.00195125	  -1.00663	-0.00195876	  -1.00663	   -48.969	
 -0.938651	-0.00195669	 -0.929443	-0.00195263	 -0.926181	-0.00194316	 -0.931425	-0.00195083	 -0.931425	  -48.7706	
 -0.863838	 -0.001949	 -0.854338	-0.00194451	 -0.850993	-0.00193489	 -0.856389	-0.0019428	 -0.856389	    -48.57	
 -0.788138	-0.00194117	 -0.779371	-0.00193635	 -0.775969	-0.00192653	 -0.781159	-0.00193468	 -0.781159	   -48.367	
 -0.712988	-0.00193312	 -0.704121	-0.00192813	 -0.700823	-0.00191816	 -0.705977	-0.00192647	 -0.705977	  -48.1618	
 -0.637115	-0.00192488	 -0.628883	-0.00191984	 -0.625698	-0.00190982	 -0.630565	-0.00191818	 -0.630565	  -47.9545	
 -0.561763	-0.00191653	 -0.553589	-0.00191144	 -0.550523	-0.00190146	 -0.555292	-0.00190981	 -0.555292	  -47.7452	
 -0.485841	-0.00190816	 -0.478172	-0.00190292	 -0.475234	-0.00189297	 -0.479749	-0.00190135	 -0.479749	  -47.5338	
 -0.410355	-0.00189985	  -0.40278	-0.0018943	 -0.400111	-0.0018843	 -0.404416	-0.00189282	 -0.404416	  -47.3204	
 -0.334418	-0.00189156	 -0.327138	-0.00188561	 -0.324902	-0.00187546	 -0.328819	-0.00188421	 -0.328819	  -47.1053	
 -0.258852	-0.00188321	 -0.251539	-0.00187688	 -0.249603	-0.00186652	 -0.253331	-0.00187554	 -0.253331	  -46.8884	
 -0.183014	-0.00187474	 -0.176117	-0.00186808	 -0.172834	-0.00185759	 -0.177321	-0.0018668	 -0.177321	    -46.67	
 -0.107743	-0.00186609	 -0.100587	-0.00185919	-0.0963611	-0.00184869	 -0.101564	-0.00185799	 -0.101564	  -46.4497	
-0.0320739	-0.00185729	-0.0252295	-0.00185018	-0.0186293	-0.0018398	-0.0253109	-0.00184909	-0.0253109	  -46.2273	
 0.0434019	-0.00184841	 0.0502649	-0.00184104	 0.0577584	-0.00183083	 0.0504751	-0.00184009	 0.0504751	  -46.0023	
  0.119155	-0.00183949	  0.125726	-0.00183178	  0.134957	-0.00182167	  0.126613	-0.00183098	  0.126613	  -45.7745	
  0.194619	-0.00183053	  0.201155	-0.00182247	   0.21044	-0.00181225	  0.202071	-0.00182175	  0.202071	  -45.5438	
  0.270226	-0.00182151	  0.276693	-0.00181313	  0.285987	-0.00180262	  0.277636	-0.00181242	  0.277636	  -45.3105	
  0.345691	-0.00181236	  0.352284	-0.00180379	  0.360752	-0.00179289	  0.352909	-0.00180301	  0.352909	  -45.0753	
  0.421298	-0.00180309	  0.427969	-0.00179438	  0.436052	-0.00178317	   0.42844	-0.00179354	   0.42844	  -44.8386	
    0.4969	-0.00179373	  0.503603	-0.00178484	  0.510888	-0.00177352	  0.503797	-0.00178403	  0.503797	  -44.6007	
  0.572733	-0.00178433	  0.579259	-0.00177515	   0.58629	-0.00176391	  0.579427	-0.00177447	  0.579427	  -44.3616	
  0.648674	-0.00177493	  0.654999	-0.00176532	   0.66154	-0.00175424	  0.655071	-0.00176483	  0.655071	  -44.1207	
  0.724574	-0.00176552	  0.730544	-0.00175538	  0.737288	-0.00174439	  0.730802	-0.00175509	  0.730802	  -43.8774	
  0.800163	-0.00175602	  0.806181	-0.00174539	  0.812536	-0.00173432	  0.806294	-0.00174524	  0.806294	  -43.6311	
   0.87574	-0.00174639	  0.881768	-0.00173536	  0.888248	-0.00172406	  0.881918	-0.00173527	  0.881918	  -43.3818	
  0.951034	-0.00173657	   0.95726	-0.00172529	  0.963599	-0.0017137	  0.957298	-0.00172519	  0.957298	  -43.1297	
   1.02634	-0.00172661	   1.03285	-0.00171513	   1.03903	-0.00170332	   1.03274	-0.00171502	   1.03274	  -42.8755	
   1.10153	-0.00171656	   1.10825	-0.00170485	   1.11399	-0.00169297	   1.10792	-0.00170479	   1.10792	  -42.6199	
   1.17684	-0.00170649	   1.18373	-0.00169446	    1.1892	-0.00168262	   1.18326	-0.00169452	   1.18326	  -42.3631	
   1.25216	-0.00169644	   1.25917	-0.00168396	   1.26426	-0.0016722	   1.25853	-0.0016842	   1.25853	   -42.105	
    1.3275	-0.00168634	   1.33457	-0.00167337	   1.33943	-0.00166164	   1.33383	-0.00167378	   1.33383	  -41.8446	
   1.40298	-0.00167615	   1.40993	-0.00166273	   1.41442	-0.00165089	   1.40911	-0.00166326	   1.40911	  -41.5814	
   1.47833	-0.00166582	   1.48514	-0.00165203	   1.48959	-0.00163995	   1.48435	-0.0016526	   1.48435	   -41.315	
   1.55351	-0.00165533	   1.56014	-0.00164126	   1.56444	-0.0016289	   1.55936	-0.00164183	   1.55936	  -41.0458	
   1.62871	-0.00164471	   1.63514	-0.00163042	   1.63928	-0.00161781	   1.63438	-0.00163098	   1.63438	  -40.7745	
   1.70367	 -0.001634	   1.70988	-0.00161948	   1.71398	-0.00160672	   1.70918	-0.00162006	   1.70918	  -40.5016	
   1.77847	-0.00162326	   1.78462	-0.00160841	   1.78883	-0.00159562	   1.78397	-0.0016091	   1.78397	  -40.2274	
    1.8532	-0.0016125	   1.85925	-0.00159721	   1.86343	-0.00158446	   1.85863	-0.00159806	   1.85863	  -39.9514	
   1.92773	-0.00160168	   1.93379	-0.0015859	   1.93806	-0.00157317	   1.93319	-0.00158692	   1.93319	  -39.6729	
   2.00235	-0.00159075	   2.00825	-0.00157451	   2.01272	-0.00156171	   2.00778	-0.00157566	   2.00778	  -39.3915	
   2.07679	-0.00157969	   2.08251	-0.00156306	   2.08714	-0.00155008	   2.08215	-0.00156428	   2.08215	   -39.107	
   2.15102	-0.00156848	   2.15665	-0.00155158	   2.16129	-0.00153834	   2.15632	-0.0015528	   2.15632	    -38.82	
    2.2251	-0.00155715	   2.23075	-0.00154003	   2.23538	-0.00152655	   2.23041	-0.00154124	   2.23041	   -38.531	
   2.29892	-0.00154575	   2.30469	-0.00152839	   2.30915	-0.00151473	   2.30426	-0.00152962	   2.30426	  -38.2406	
   2.37291	-0.00153431	   2.37859	-0.00151659	   2.38304	-0.0015029	   2.37818	-0.00151793	   2.37818	  -37.9483	
    2.4468	-0.00152283	   2.45236	-0.00150462	   2.45678	 -0.001491	   2.45198	-0.00150615	   2.45198	  -37.6537	
   2.52059	-0.00151128	   2.52587	-0.00149251	   2.53066	-0.00147898	   2.52571	-0.00149426	   2.52571	  -37.3564	
   2.59444	-0.00149962	   2.59929	-0.00148034	   2.60439	-0.00146681	   2.59937	-0.00148226	   2.59937	  -37.0564	
   2.66808	-0.00148781	   2.67251	-0.00146816	   2.67786	-0.00145451	   2.67282	-0.00147016	   2.67282	  -36.7541	
   2.74171	-0.00147586	   2.74561	-0.00145599	   2.75128	-0.00144211	    2.7462	-0.00145798	    2.7462	  -36.4496	
   2.81529	-0.00146379	   2.81854	-0.00144377	   2.82449	-0.00142964	   2.81944	-0.00144573	   2.81944	  -36.1434	
   2.88857	-0.00145166	   2.89133	-0.00143143	   2.89763	-0.00141711	   2.89251	-0.0014334	   2.89251	   -35.835	
   2.96198	-0.00143947	    2.9641	-0.0014189	   2.97036	-0.00140453	   2.96548	-0.00142097	   2.96548	  -35.5241	
   3.03525	-0.00142725	   3.03676	-0.00140616	   3.04307	-0.00139185	   3.03836	-0.00140842	   3.03836	  -35.2105	
   3.10826	-0.00141494	    3.1092	-0.00139327	   3.11538	-0.00137908	   3.11094	-0.00139576	   3.11094	   -34.894	
    3.1809	-0.0014025	   3.18171	-0.00138031	   3.18775	-0.00136623	   3.18345	-0.00138301	   3.18345	  -34.5753	
   3.25335	-0.00138993	   3.25403	-0.00136735	   3.25991	-0.0013533	   3.25576	-0.0013702	   3.25576	  -34.2549	
    3.3256	-0.00137724	   3.32636	-0.00135441	   3.33207	-0.00134033	   3.32801	-0.00135733	   3.32801	  -33.9331	
   3.39786	-0.00136446	   3.39868	-0.00134144	   3.40421	-0.0013273	   3.40025	-0.0013444	   3.40025	  -33.6101	
   3.46999	-0.00135164	   3.47072	-0.00132837	   3.47619	-0.0013142	    3.4723	-0.00133141	    3.4723	  -33.2851	
    3.5423	-0.00133878	   3.54276	-0.00131514	   3.54797	 -0.001301	   3.54434	-0.00131831	   3.54434	  -32.9577	
   3.61451	-0.00132587	    3.6147	-0.00130173	   3.61967	-0.00128769	   3.61629	-0.0013051	   3.61629	  -32.6275	
   3.68637	-0.00131287	   3.68643	-0.00128821	   3.69101	-0.00127428	   3.68794	-0.00129179	   3.68794	  -32.2947	
   3.75819	-0.00129973	   3.75813	-0.00127465	   3.76246	-0.00126081	   3.75959	-0.00127839	   3.75959	  -31.9598	
   3.82985	-0.00128643	   3.82965	-0.00126109	   3.83374	-0.00124729	   3.83108	-0.00126494	   3.83108	  -31.6234	
   3.90121	-0.00127299	   3.90089	-0.00124752	   3.90496	-0.00123375	   3.90235	-0.00125142	   3.90235	  -31.2855	
   3.97262	-0.00125949	   3.97216	-0.00123388	   3.97566	-0.00122015	   3.97348	-0.00123784	   3.97348	  -30.9461	
   4.04382	-0.00124599	   4.04322	-0.00122007	   4.04617	-0.00120648	    4.0444	-0.00122418	    4.0444	  -30.6045	
   4.11472	-0.0012325	     4.114	-0.00120605	   4.11625	-0.00119271	   4.11499	-0.00121042	   4.11499	  -30.2605	
   4.18551	-0.00121899	   4.18465	-0.00119183	   4.18615	-0.00117883	   4.18544	-0.00119655	   4.18544	  -29.9138	
   4.25605	-0.00120541	   4.25505	-0.00117754	   4.25585	-0.00116485	   4.25565	-0.0011826	   4.25565	   -29.565	
   4.32637	-0.00119166	   4.32524	-0.00116326	   4.32552	-0.0011508	   4.32571	-0.00116857	   4.32571	  -29.2144	
   4.39666	-0.00117773	    4.3954	-0.00114907	   4.39502	-0.0011367	   4.39569	-0.0011545	   4.39569	  -28.8625	
   4.46665	-0.00116363	   4.46549	-0.00113495	   4.46428	-0.00112256	   4.46547	-0.00114038	   4.46547	  -28.5095	
   4.53653	-0.00114944	   4.53545	-0.00112078	   4.53349	-0.00110837	   4.53516	-0.0011262	   4.53516	   -28.155	
    4.6062	-0.00113524	   4.60532	-0.00110644	   4.60266	-0.00109411	   4.60472	-0.00111193	   4.60472	  -27.7983	
   4.67555	-0.00112107	   4.67484	-0.00109186	   4.67155	-0.00107974	   4.67398	-0.00109756	   4.67398	   -27.439	
   4.74458	-0.00110692	   4.74391	-0.00107706	   4.74028	-0.00106527	   4.74292	-0.00108308	   4.74292	   -27.077	
   4.81354	-0.00109271	   4.81288	-0.00106214	   4.80895	-0.0010507	   4.81179	-0.00106851	   4.81179	  -26.7129	
   4.88218	-0.00107837	   4.88152	-0.00104722	   4.87745	-0.00103606	   4.88038	-0.00105388	   4.88038	  -26.3471	
   4.95078	-0.00106384	   4.95012	-0.0010324	   4.94576	-0.00102135	   4.94889	-0.0010392	   4.94889	    -25.98	
   5.01928	-0.00104914	    5.0186	-0.00101765	   5.01399	-0.00100658	   5.01729	-0.00102446	   5.01729	  -25.6114	
   5.08757	-0.00103434	   5.08673	-0.00100287	    5.0819	-0.000991714	    5.0854	-0.00100964	    5.0854	   -25.241	
   5.15556	-0.00101953	   5.15483	-0.000987931	   5.14954	-0.000976736	   5.15331	-0.000994732	   5.15331	  -24.8683	
   5.22343	-0.00100475	    5.2228	-0.000972771	    5.2171	-0.000961651	   5.22111	-0.000979722	   5.22111	  -24.4931	
   5.29096	-0.000989984	   5.29041	-0.000957402	   5.28434	-0.000946492	   5.28857	-0.000964626	   5.28857	  -24.1156	
   5.35847	-0.000975157	   5.35797	-0.000941926	   5.35146	-0.000931298	   5.35597	-0.00094946	   5.35597	  -23.7365	
   5.42586	-0.000960196	    5.4254	-0.000926475	   5.41849	-0.00091609	   5.42325	-0.000934254	   5.42325	  -23.3563	
   5.49289	-0.000945053	   5.49245	-0.000911127	    5.4852	-0.000900862	   5.49018	-0.000919014	   5.49018	  -22.9754	
   5.55958	-0.000929759	   5.55949	-0.000895856	   5.55183	-0.000885579	   5.55697	-0.000903731	   5.55697	  -22.5933	
   5.62616	-0.000914376	   5.62638	-0.000880548	   5.61838	-0.00087019	   5.62364	-0.000888371	   5.62364	  -22.2093	
   5.69242	-0.000898988	   5.69291	-0.000865081	   5.68461	-0.000854673	   5.68998	-0.000872914	   5.68998	  -21.8229	
   5.75831	-0.000883625	   5.75902	-0.000849388	   5.75064	-0.000839032	   5.75599	-0.000857348	   5.75599	  -21.4337	
   5.82412	-0.000868261	   5.82503	-0.000833498	   5.81661	-0.000823305	   5.82192	-0.000841688	   5.82192	  -21.0422	
   5.88964	-0.000852827	   5.89071	-0.000817519	   5.88227	-0.000807538	   5.88754	-0.000825961	   5.88754	   -20.649	
   5.95465	-0.000837254	    5.9564	-0.000801566	   5.94809	-0.000791757	   5.95305	-0.000810192	   5.95305	  -20.2548	
   6.01964	-0.000821517	   6.02198	-0.0007857	   6.01349	-0.000775967	   6.01837	-0.000794395	   6.01837	  -19.8599	
   6.08438	-0.000805644	   6.08735	-0.000769888	   6.07861	-0.000760147	   6.08345	-0.00077856	   6.08345	   -19.464	
   6.14879	-0.000789706	   6.15232	-0.000754028	   6.14336	-0.000744264	   6.14816	-0.000762666	   6.14816	  -19.0667	
   6.21293	-0.000773762	   6.21721	-0.000738018	    6.2081	-0.000728281	   6.21275	-0.000746687	   6.21275	  -18.6672	
   6.27688	-0.000757828	   6.28182	-0.000721805	   6.27258	-0.000712175	   6.27709	-0.000730603	   6.27709	  -18.2651	
   6.34041	-0.000741881	   6.34592	-0.00070542	    6.3366	-0.000695949	   6.34098	-0.000714417	   6.34098	  -17.8604	
   6.40387	-0.000725866	   6.41002	-0.000688957	   6.39996	-0.000679631	   6.40462	-0.000698151	   6.40462	  -17.4538	
   6.46719	-0.000709746	   6.47387	-0.000672506	   6.46304	-0.000663268	   6.46803	-0.00068184	   6.46803	   -17.046	
   6.53014	-0.000693506	   6.53745	-0.000656109	   6.52577	-0.000646911	   6.53112	-0.000665509	   6.53112	  -16.6377	
   6.59286	-0.000677175	    6.6006	-0.000639739	    6.5884	-0.000630573	   6.59395	-0.000649162	   6.59395	  -16.2291	
    6.6555	-0.000660793	   6.66357	-0.000623317	   6.65095	-0.000614225	   6.65667	-0.000632778	   6.65667	  -15.8195	
   6.71783	-0.000644394	   6.72618	-0.000606762	   6.71388	-0.000597795	    6.7193	-0.000616317	    6.7193	  -15.4079	
   6.77966	-0.000627989	   6.78837	-0.000590037	   6.77641	-0.000581258	   6.78148	-0.000599761	   6.78148	   -14.994	
   6.84136	-0.000611559	   6.85049	-0.000573171	   6.83876	-0.000564578	   6.84354	-0.000583102	   6.84354	  -14.5776	
   6.90285	-0.000595072	   6.91231	-0.000556242	   6.90069	-0.0005478	   6.90528	-0.000566372	   6.90528	  -14.1593	
   6.96392	-0.000578495	   6.97363	-0.000539331	   6.96256	-0.000530987	    6.9667	-0.000549605	    6.9667	  -13.7401	
   7.02473	-0.000561827	   7.03478	-0.000522474	   7.02407	-0.000514211	   7.02786	-0.000532837	   7.02786	  -13.3209	
    7.0854	-0.000545071	   7.09573	-0.000505646	    7.0855	-0.000497495	   7.08888	-0.000516071	   7.08888	  -12.9018	
   7.14575	-0.000528269	   7.15628	-0.000488775	   7.14651	-0.000480776	   7.14951	-0.000499273	   7.14951	  -12.4818	
   7.20557	-0.000511454	   7.21664	-0.000471791	   7.20788	-0.000463989	   7.21003	-0.000482412	   7.21003	  -12.0603	
   7.26539	-0.000494637	   7.27689	-0.000454663	   7.26873	-0.000447065	   7.27033	-0.000465455	   7.27033	  -11.6364	
   7.32497	-0.000477809	   7.33682	-0.000437406	   7.32935	-0.00042999	   7.33038	-0.000448402	   7.33038	    -11.21	
   7.38413	-0.000460924	   7.39651	-0.000420093	   7.38887	-0.000412824	   7.38984	-0.000431281	   7.38984	   -10.782	
   7.44296	-0.000443942	   7.45604	-0.000402787	   7.44882	-0.000395633	   7.44928	-0.000414121	   7.44928	   -10.353	
   7.50169	-0.000426863	   7.51535	-0.000385528	   7.50801	-0.00037848	   7.50835	-0.000396957	   7.50835	  -9.92392	
   7.56011	-0.000409718	   7.57435	-0.000368307	    7.5675	-0.00036137	   7.56732	-0.000379799	   7.56732	  -9.49496	
   7.61804	-0.000392569	   7.63302	-0.00035107	   7.62622	-0.000344245	   7.62576	-0.000362628	   7.62576	  -9.06571	
   7.67586	-0.00037546	   7.69157	-0.000333756	   7.68512	-0.000327028	   7.68418	-0.000345415	   7.68418	  -8.63536	
    7.7335	-0.000358391	   7.74982	-0.000316315	   7.74318	-0.000309665	   7.74217	-0.000328124	   7.74217	  -8.20309	
   7.79077	-0.000341321	   7.80757	-0.00029875	   7.80112	-0.000292167	   7.79982	-0.000310746	   7.79982	  -7.76865	
   7.84762	-0.000324182	   7.86507	-0.000281123	    7.8584	-0.00027462	   7.85703	-0.000293308	   7.85703	  -7.33271	
   7.90445	-0.000306926	    7.9224	-0.00026349	   7.91569	-0.000257104	   7.91418	-0.00027584	   7.91418	    -6.896	
   7.96103	-0.000289559	   7.97937	-0.00024591	   7.97246	-0.000239679	   7.97095	-0.000258382	   7.97095	  -6.45956	
   8.01719	-0.000272125	   8.03581	-0.000228373	   8.02908	-0.000222332	   8.02736	-0.000240943	   8.02736	  -6.02358	
   8.07303	-0.000254692	   8.09182	-0.000210836	     8.085	-0.000204979	   8.08328	-0.000223502	   8.08328	  -5.58756	
   8.12879	-0.000237308	   8.14751	-0.000193237	   8.14078	-0.000187518	   8.13903	-0.000206021	   8.13903	  -5.15053	
   8.18427	-0.000219975	   8.20285	-0.000175528	   8.19621	-0.000169881	   8.19444	-0.000188461	   8.19444	  -4.71154	
   8.23941	-0.000202655	   8.25767	-0.000157717	   8.25147	-0.000152099	   8.24952	-0.000170824	   8.24952	  -4.27059	
   8.29434	-0.000185291	   8.31222	-0.000139858	    8.3063	-0.000134266	   8.30429	-0.000153138	   8.30429	  -3.82846	
   8.34914	-0.000167853	   8.36661	-0.000122022	   8.36095	-0.000116471	    8.3589	-0.000135449	    8.3589	  -3.38622	
   8.40363	-0.000150336	   8.42064	-0.000104258	   8.41525	-9.87536e-05	   8.41317	-0.000117783	   8.41317	  -2.94456	
   8.45765	-0.000132762	   8.47426	-8.65513e-05	   8.46902	-8.10778e-05	   8.46698	-0.00010013	   8.46698	  -2.50326	
   8.51116	-0.000115186	   8.52749	-6.8833e-05	   8.52184	-6.33746e-05	   8.52016	-8.24644e-05	   8.52016	  -2.06161	
   8.56443	-9.76393e-05	   8.58056	-5.10214e-05	   8.57442	-4.55848e-05	   8.57314	-6.47485e-05	   8.57314	  -1.61871	
   8.61743	-8.01361e-05	   8.63329	-3.30695e-05	   8.62639	-2.76829e-05	    8.6257	-4.69628e-05	    8.6257	  -1.17407	
   8.66998	-6.26494e-05	   8.68554	-1.50087e-05	   8.67851	-9.71462e-06	   8.67801	-2.91243e-05	   8.67801	 -0.728106	
   8.72207	-4.51275e-05	   8.73742	3.07126e-06	   8.73002	8.2579e-06	   8.72984	-1.12661e-05	   8.72984	 -0.281653	
   8.77382	-2.75328e-05	   8.78918	2.1066e-05	    8.7816	2.62015e-05	   8.78153	6.57822e-06	   8.78153	  0.164455	
   8.82535	-9.86217e-06	   8.84065	3.89294e-05	   8.83258	4.40805e-05	   8.83286	2.43826e-05	   8.83286	  0.609565	
   8.87649	7.84521e-06	   8.89166	5.66917e-05	   8.88329	6.19345e-05	   8.88381	4.21571e-05	   8.88381	   1.05393	
   8.92722	2.55187e-05	   8.94221	7.44501e-05	   8.93317	7.97975e-05	    8.9342	5.99221e-05	    8.9342	   1.49805	
   8.97767	4.31215e-05	   8.99242	9.23074e-05	   8.98362	9.77004e-05	   8.98457	7.77098e-05	   8.98457	   1.94274	
   9.02795	6.06529e-05	   9.04242	0.000110312	   9.03335	0.000115649	   9.03457	9.55378e-05	   9.03457	   2.38845	
    9.0779	7.81806e-05	   9.09204	0.000128434	   9.08331	0.000133619	   9.08442	0.000113411	   9.08442	   2.83528	
   9.12736	9.57755e-05	   9.14113	0.000146579	   9.13194	0.000151597	   9.13348	0.000131317	   9.13348	   3.28293	
   9.17646	0.000113468	   9.18971	0.000164646	   9.18119	0.000169557	   9.18246	0.000149224	   9.18246	    3.7306	
   9.22531	0.000131207	   9.23818	0.000182582	   9.22861	0.000187492	    9.2307	0.000167093	    9.2307	   4.17734	
   9.27391	0.000148911	   9.28626	0.000200412	   9.27633	0.000205396	   9.27883	0.000184906	   9.27883	   4.62266	
   9.32211	0.000166538	   9.33393	0.00021822	   9.32287	0.000223281	    9.3263	0.000202679	    9.3263	   5.06699	
   9.36977	0.000184065	   9.38105	0.000236095	   9.37049	0.000241173	   9.37377	0.000220444	   9.37377	    5.5111	
   9.41677	0.000201561	   9.42766	0.00025408	    9.4164	0.000259087	   9.42028	0.000238243	   9.42028	   5.95607	
   9.46332	0.000219067	   9.47405	0.000272148	   9.46263	0.000277023	   9.46667	0.000256079	   9.46667	   6.40199	
   9.50965	0.000236615	   9.52017	0.000290215	   9.50782	0.000294969	   9.51255	0.000273933	   9.51255	   6.84833	
   9.55561	0.000254209	   9.56587	0.000308192	   9.55326	0.000312897	   9.55825	0.000291766	   9.55825	   7.29416	
   9.60105	0.000271818	   9.61104	0.000326038	   9.59737	0.000330781	   9.60315	0.000309546	   9.60315	   7.73864	
   9.64587	0.000289435	   9.65555	0.000343774	   9.64186	0.000348614	   9.64776	0.000327275	   9.64776	   8.18186	
   9.69048	0.00030703	   9.69985	0.000361472	   9.68577	0.000366398	   9.69203	0.000344967	   9.69203	   8.62417	
   9.73476	0.000324601	   9.74377	0.000379213	    9.7298	0.000384164	   9.73611	0.000362659	   9.73611	   9.06649	
    9.7787	0.000342149	   9.78735	0.00039705	   9.77283	0.00040192	   9.77963	0.000380373	   9.77963	   9.50932	
   9.82217	0.000359648	   9.83045	0.000414955	   9.81582	0.000419678	   9.82281	0.000398094	   9.82281	   9.95234	
   9.86506	0.000377081	   9.87322	0.000432848	   9.85827	0.000437419	   9.86552	0.000415783	   9.86552	   10.3946	
    9.9074	0.000394442	   9.91554	0.000450646	   9.90062	0.000455118	   9.90786	0.000433402	   9.90786	   10.8351	
   9.94963	0.000411757	   9.95771	0.000468305	   9.94235	0.000472752	    9.9499	0.000450938	    9.9499	   11.2735	
   9.99159	0.000429066	   9.99959	0.000485843	    9.9841	0.000490319	   9.99176	0.000468409	   9.99176	   11.7102	
   10.0332	0.000446392	    10.041	0.000503325	   10.0252	0.000507828	   10.0331	0.000485848	   10.0331	   12.1462	
   10.0743	0.000463746	    10.082	0.000520825	   10.0663	0.000525308	   10.0742	0.000503293	   10.0742	   12.5823	
   10.1147	0.000481106	   10.1224	0.000538391	   10.1069	0.000542773	   10.1147	0.000520756	   10.1147	   13.0189	
   10.1547	0.000498441	   10.1626	0.000556015	   10.1471	0.000560229	   10.1548	0.000538228	   10.1548	   13.4557	
   10.1946	0.000515722	   10.2024	0.000573616	   10.1867	0.000577661	   10.1946	0.000555666	   10.1946	   13.8917	
   10.2342	0.000532932	    10.242	0.000591124	   10.2261	0.000595048	   10.2341	0.000573035	   10.2341	   14.3259	
   10.2734	0.000550068	   10.2811	0.000608491	   10.2653	0.000612378	   10.2733	0.000590312	   10.2733	   14.7578	
   10.3122	0.000567154	   10.3197	0.000625745	   10.3042	0.000629645	   10.3121	0.000607514	   10.3121	   15.1879	
   10.3504	0.000584213	   10.3577	0.000642959	   10.3427	0.000646849	   10.3503	0.000624674	   10.3503	   15.6168	
    10.388	0.000601268	   10.3954	0.000660212	   10.3811	  0.000664	   10.3882	0.000641827	   10.3882	   16.0457	
   10.4252	0.000618321	    10.433	0.000677552	   10.4191	0.000681107	   10.4257	0.000658993	   10.4257	   16.4748	
   10.4622	0.000635351	   10.4703	0.00069493	   10.4567	0.000698175	    10.463	0.000676152	    10.463	   16.9038	
   10.4989	0.000652327	   10.5072	0.000712313	   10.4939	0.000715208	      10.5	0.000693283	      10.5	   17.3321	
   10.5352	0.000669219	   10.5437	0.000729582	   10.5308	0.00073221	   10.5365	0.000710337	   10.5365	   17.7584	
    10.571	0.000686015	   10.5796	0.000746676	   10.5673	0.000749174	   10.5726	0.000727288	   10.5726	   18.1822	
   10.6063	0.000702737	    10.615	0.000763552	   10.6033	0.000766089	   10.6082	0.000744126	   10.6082	   18.6031	
   10.6413	0.000719415	   10.6506	0.000780282	   10.6389	0.000782934	   10.6436	0.000760877	   10.6436	   19.0219	
   10.6761	0.00073608	   10.6865	0.000796972	   10.6739	0.00079969	   10.6789	0.000777581	   10.6789	   19.4395	
   10.7108	0.000752728	   10.7218	0.000813688	   10.7087	0.00081638	   10.7138	0.000794265	   10.7138	   19.8566	
    10.745	0.000769336	   10.7567	0.000830489	   10.7431	0.000833012	   10.7483	0.000810945	   10.7483	   20.2736	
   10.7789	0.000785876	   10.7906	0.000847361	    10.777	0.000849618	   10.7822	0.000827619	   10.7822	   20.6905	
   10.8123	0.000802326	   10.8239	0.000864257	   10.8105	0.000866203	   10.8156	0.000844262	   10.8156	   21.1065	
   10.8451	0.00081869	   10.8556	0.000881101	   10.8434	0.000882769	    10.848	0.000860853	    10.848	   21.5213	
   10.8774	0.000834996	   10.8867	0.00089781	   10.8758	0.00089929	   10.8799	0.000877365	   10.8799	   21.9341	
   10.9089	0.000851266	   10.9175	0.000914355	   10.9078	0.000915734	   10.9114	0.000893785	   10.9114	   22.3446	
   10.9402	0.000867511	    10.948	0.000930725	   10.9393	0.000932087	   10.9425	0.000910108	   10.9425	   22.7527	
    10.971	0.000883722	   10.9779	0.000946978	   10.9705	0.000948348	   10.9732	0.000926349	   10.9732	   23.1587	
   11.0016	0.000899872	   11.0076	0.000963178	   11.0013	0.000964529	   11.0035	0.000942526	   11.0035	   23.5632	
   11.0316	0.000915936	   11.0373	0.000979397	   11.0316	0.000980647	   11.0335	0.00095866	   11.0335	   23.9665	
   11.0613	0.000931903	   11.0665	0.000995658	   11.0615	0.000996701	   11.0631	0.000974754	   11.0631	   24.3689	
   11.0905	0.000947782	   11.0954	0.00101193	   11.0909	0.00101271	   11.0923	0.000990808	   11.0923	   24.7702	
   11.1191	0.000963606	    11.124	0.00102813	   11.1197	0.00102867	   11.1209	 0.0010068	   11.1209	     25.17	
   11.1472	0.000979393	   11.1522	0.00104418	    11.148	0.00104457	   11.1491	0.00102271	   11.1491	   25.5678	
   11.1747	0.000995172	   11.1799	0.00106005	   11.1756	0.00106041	   11.1767	0.00103854	   11.1767	   25.9636	
   11.2015	0.00101093	   11.2071	0.00107577	   11.2032	0.00107618	   11.2039	0.00105429	   11.2039	   26.3574	
   11.2278	0.00102665	    11.234	0.00109145	   11.2301	0.00109186	   11.2306	0.00106998	   11.2306	   26.7496	
   11.2536	0.00104225	   11.2604	0.00110714	   11.2568	0.00110744	   11.2569	0.00108561	   11.2569	   27.1403	
    11.279	0.00105772	   11.2864	0.00112287	   11.2832	0.00112292	   11.2829	0.00110117	   11.2829	   27.5293	
   11.3043	0.00107304	   11.3121	0.00113859	   11.3092	0.00113831	   11.3085	0.00111664	   11.3085	   27.9161	
   11.3291	0.00108826	   11.3374	0.00115419	   11.3346	0.00115362	   11.3337	0.00113202	   11.3337	   28.3006	
   11.3536	0.00110345	   11.3623	 0.0011696	   11.3597	0.00116888	   11.3585	0.00114731	   11.3585	   28.6827	
   11.3776	0.00111864	   11.3866	0.00118481	   11.3842	0.00118407	   11.3828	0.00116251	   11.3828	   29.0628	
   11.4012	0.00113385	   11.4103	0.00119988	   11.4082	0.00119922	   11.4066	0.00117765	   11.4066	   29.4412	
   11.4243	  0.001149	   11.4335	0.00121489	   11.4316	0.00121429	   11.4298	0.00119273	   11.4298	   29.8182	
   11.4469	0.00116404	    11.456	 0.0012299	   11.4544	0.00122926	   11.4524	0.00120774	   11.4524	   30.1934	
   11.4688	0.00117891	   11.4779	0.00124494	   11.4765	0.00124411	   11.4744	0.00122265	   11.4744	   30.5663	
   11.4902	0.00119361	   11.4995	0.00125992	   11.4981	0.00125883	   11.4959	0.00123746	   11.4959	   30.9364	
   11.5108	0.00120822	   11.5206	0.00127479	   11.5191	0.00127344	   11.5169	0.00125215	   11.5169	   31.3038	
   11.5309	 0.0012228	   11.5412	0.00128948	   11.5396	0.00128797	   11.5372	0.00126675	   11.5372	   31.6687	
   11.5505	0.00123738	   11.5612	0.00130398	   11.5597	0.00130246	   11.5571	0.00128127	   11.5571	   32.0318	
   11.5698	0.00125196	   11.5807	0.00131835	   11.5793	0.00131691	   11.5766	0.00129574	   11.5766	   32.3935	
   11.5887	0.00126648	   11.5999	0.00133265	   11.5985	0.00133131	   11.5957	0.00131015	   11.5957	   32.7536	
   11.6074	0.00128086	   11.6187	0.00134694	   11.6174	 0.0013456	   11.6145	0.00132447	   11.6145	   33.1117	
   11.6257	0.00129508	   11.6374	0.00136122	   11.6359	0.00135974	    11.633	0.00133868	    11.633	    33.467	
   11.6438	0.00130914	   11.6557	0.00137545	   11.6541	0.00137373	   11.6512	0.00135277	   11.6512	   33.8193	
   11.6617	 0.0013231	   11.6737	0.00138955	   11.6721	0.00138761	   11.6691	0.00136675	   11.6691	   34.1688	
   11.6792	0.00133702	   11.6912	0.00140348	   11.6897	0.00140141	   11.6867	0.00138064	   11.6867	    34.516	
   11.6965	0.00135093	   11.7084	0.00141724	   11.7069	0.00141517	   11.7039	0.00139445	   11.7039	   34.8612	
   11.7134	0.00136481	   11.7252	0.00143087	   11.7237	0.00142888	   11.7208	0.00140819	   11.7208	   35.2046	
   11.7299	0.00137859	   11.7416	0.00144443	   11.7401	 0.0014425	   11.7372	0.00142184	   11.7372	   35.5459	
    11.746	0.00139222	   11.7575	0.00145796	    11.756	0.00145598	   11.7532	0.00143539	   11.7532	   35.8847	
   11.7615	 0.0014057	   11.7729	0.00147147	   11.7714	 0.0014693	   11.7686	0.00144882	   11.7686	   36.2206	
   11.7766	0.00141903	   11.7879	 0.0014849	   11.7863	 0.0014825	   11.7836	0.00146214	   11.7836	   36.5535	
   11.7912	0.00143227	   11.8023	 0.0014982	   11.8008	0.00149559	   11.7981	0.00147535	   11.7981	   36.8838	
   11.8053	0.00144547	   11.8162	0.00151131	   11.8147	0.00150862	   11.8121	0.00148847	   11.8121	   37.2116	
    11.819	0.00145863	   11.8296	0.00152426	   11.8281	0.00152159	   11.8256	0.00150149	   11.8256	   37.5374	
   11.8322	0.00147175	   11.8425	0.00153707	    11.841	0.00153451	   11.8385	0.00151444	   11.8385	   37.8611	
   11.8448	0.00148476	   11.8548	0.00154981	   11.8533	0.00154732	    11.851	 0.0015273	    11.851	   38.1824	
    11.857	0.00149763	   11.8666	0.00156252	   11.8652	   0.00156	   11.8629	0.00154005	   11.8629	   38.5012	
   11.8686	0.00151034	   11.8779	0.00157518	   11.8765	0.00157254	   11.8744	0.00155269	   11.8744	   38.8172	
   11.8798	0.00152292	   11.8887	0.00158778	   11.8872	0.00158496	   11.8853	0.00156522	   11.8853	   39.1304	
   11.8905	0.00153541	    11.899	0.00160025	   11.8975	0.00159728	   11.8957	0.00157764	   11.8957	   39.4411	
   11.9006	0.00154784	   11.9088	0.00161256	   11.9073	0.00160954	   11.9055	0.00158998	   11.9055	   39.7494	
   11.9103	0.00156023	    11.918	0.00162471	   11.9165	0.00162173	   11.9149	0.00160222	   11.9149	   40.0556	
   11.9195	0.00157256	   11.9268	0.00163673	   11.9253	0.00163386	   11.9238	0.00161438	   11.9238	   40.3596	
   11.9282	0.00158481	   11.9351	0.00164866	   11.9336	0.00164588	   11.9323	0.00162645	   11.9323	   40.6612	
   11.9364	0.00159693	   11.9429	0.00166055	   11.9414	0.00165777	   11.9402	0.00163842	   11.9402	   40.9604	
   11.9442	0.00160891	   11.9502	0.00167238	   11.9487	0.00166952	   11.9477	0.00165027	   11.9477	   41.2567	
   11.9515	0.00162076	   11.9571	0.00168412	   11.9556	0.00168113	   11.9548	  0.001662	   11.9548	   41.5501	
   11.9584	0.00163249	   11.9636	0.00169575	   11.9621	0.00169264	   11.9614	0.00167363	   11.9614	   41.8407	
   11.9649	0.00164413	   11.9697	0.00170724	    11.968	0.00170408	   11.9675	0.00168515	   11.9675	   42.1287	
    11.971	0.00165572	   11.9753	0.00171858	   11.9735	0.00171544	   11.9733	0.00169658	   11.9733	   42.4145	
   11.9766	0.00166724	   11.9804	 0.0017298	   11.9785	0.00172672	   11.9785	0.00170792	   11.9785	   42.6979	
   11.9819	0.00167868	   11.9851	0.00174094	   11.9831	0.00173788	   11.9834	0.00171916	   11.9834	   42.9791	
   11.9868	0.00168999	   11.9894	0.00175201	   11.9873	0.00174892	   11.9878	0.00173031	   11.9878	   43.2577	
   11.9912	0.00170117	   11.9933	0.00176302	   11.9911	0.00175986	   11.9919	0.00174135	   11.9919	   43.5337	
   11.9953	0.00171223	   11.9969	0.00177394	   11.9944	0.00177069	   11.9955	0.00175229	   11.9955	   43.8071	
    11.999	0.00172318	   12.0002	0.00178473	   11.9975	0.00178144	   11.9989	0.00176312	   11.9989	   44.0779	
   12.0021	0.00173407	   12.0031	0.00179538	   11.9999	 0.0017921	   12.0017	0.00177385	   12.0017	   44.3462	
   12.0043	 0.0017449	   12.0054	0.00180589	    12.002	0.00180264	   12.0039	0.00178448	   12.0039	   44.6119	
   12.0061	0.00175565	   12.0072	 0.0018163	   12.0035	0.00181304	   12.0056	  0.001795	   12.0056	    44.875	
   12.0071	0.00176627	   12.0083	0.00182664	   12.0046	0.00182332	   12.0066	0.00180541	   12.0066	   45.1352	
   12.0076	0.00177672	   12.0088	0.00183693	   12.0048	0.00183348	   12.0071	0.00181571	   12.0071	   45.3927	
   12.0074	0.00178701	   12.0087	0.00184714	   12.0047	0.00184357	   12.0069	0.00182591	   12.0069	   45.6477	
   12.0066	0.00179717	   12.0079	0.00185726	    12.004	0.00185364	   12.0061	0.00183602	   12.0061	   45.9005	
   12.0053	0.00180723	   12.0064	0.00186725	   12.0025	0.00186369	   12.0047	0.00184606	   12.0047	   46.1514	
   12.0033	0.00181724	   12.0044	0.00187711	   12.0006	0.00187367	   12.0027	0.00185601	   12.0027	   46.4001	
   12.0009	0.00182722	   12.0018	0.00188684	    11.998	0.00188349	   12.0002	0.00186585	   12.0002	   46.6462	
   11.9979	0.00183716	   11.9987	0.00189644	   11.9951	0.00189311	   11.9972	0.00187557	   11.9972	   46.8892	
   11.9946	0.00184702	   11.9953	0.00190595	   11.9917	 0.0019025	   11.9938	0.00188516	   11.9938	   47.1289	
   11.9909	0.00185676	   11.9915	0.00191538	   11.9879	0.00191173	   11.9901	0.00189462	   11.9901	   47.3656	
   11.9869	0.00186636	   11.9873	0.00192475	   11.9838	0.00192087	    11.986	0.00190399	    11.986	   47.5999	
   11.9826	 0.0018758	   11.9829	0.00193405	   11.9794	0.00193002	   11.9816	0.00191329	   11.9816	   47.8322	
   11.9778	 0.0018851	   11.9782	0.00194325	   11.9747	 0.0019392	   11.9769	0.00192252	   11.9769	   48.0629	
   11.9725	0.00189429	   11.9733	0.00195232	   11.9696	0.00194836	   11.9718	0.00193166	   11.9718	   48.2915	
   11.9666	0.00190341	   11.9675	0.00196125	    11.964	0.00195742	    11.966	0.00194069	    11.966	   48.5174	
   11.9603	0.00191248	   11.9614	0.00197006	   11.9578	0.00196628	   11.9598	0.00194961	   11.9598	   48.7402	
   11.9534	0.00192147	   11.9547	0.00197878	    11.951	0.00197492	    11.953	0.00195839	    11.953	   48.9597	
   11.9458	0.00193038	   11.9476	0.00198744	   11.9435	0.00198337	   11.9456	0.00196706	   11.9456	   49.1765	
   11.9377	0.00193917	   11.9399	0.00199604	   11.9356	0.00199172	   11.9377	0.00197564	   11.9377	   49.3911	
   11.9292	0.00194783	   11.9316	0.00200456	   11.9272	0.00200006	   11.9293	0.00198415	   11.9293	   49.6038	
   11.9203	0.00195638	   11.9231	0.00201298	   11.9184	0.00200843	   11.9206	0.00199259	   11.9206	   49.8148	
   11.9112	0.00196482	   11.9141	0.00202124	   11.9092	0.00201679	   11.9115	0.00200095	   11.9115	   50.0237	
   11.9017	0.00197318	   11.9047	0.00202936	   11.8997	 0.0020251	    11.902	0.00200921	    11.902	   50.2303	
   11.8917	0.00198148	   11.8945	0.00203735	   11.8898	0.00203325	    11.892	0.00201736	    11.892	    50.434	
   11.8813	0.00198975	   11.8837	0.00204527	   11.8794	0.00204119	   11.8815	 0.0020254	   11.8815	    50.635	
   11.8701	0.00199794	   11.8723	0.00205313	   11.8685	0.00204889	   11.8703	0.00203332	   11.8703	    50.833	
   11.8584	  0.002006	   11.8605	0.00206096	    11.857	0.00205641	   11.8586	0.00204113	   11.8586	   51.0281	
   11.8461	0.00201387	   11.8481	0.00206871	   11.8449	0.00206385	   11.8464	0.00204881	   11.8464	   51.2202	
   11.8333	0.00202153	   11.8353	0.00207635	   11.8324	0.00207128	   11.8337	0.00205639	   11.8337	   51.4096	
   11.8203	0.00202904	   11.8222	0.00208385	   11.8195	0.00207875	   11.8206	0.00206388	   11.8206	    51.597	
   11.8069	0.00203646	   11.8087	0.00209123	   11.8063	0.00208622	   11.8073	 0.0020713	   11.8073	   51.7825	
   11.7932	0.00204389	    11.795	 0.0020985	   11.7926	0.00209363	   11.7936	0.00207867	   11.7936	   51.9668	
    11.779	0.00205135	   11.7811	0.00210568	   11.7786	 0.0021009	   11.7796	0.00208598	   11.7796	   52.1494	
   11.7644	0.00205874	   11.7666	0.00211279	   11.7639	0.00210799	    11.765	0.00209317	    11.765	   52.3292	
   11.7495	0.00206598	   11.7514	0.00211981	   11.7487	0.00211488	   11.7499	0.00210022	   11.7499	   52.5055	
   11.7343	0.00207296	   11.7357	0.00212672	   11.7329	0.00212164	   11.7343	0.00210711	   11.7343	   52.6776	
    11.719	0.00207974	   11.7195	0.00213351	   11.7167	0.00212832	   11.7184	0.00211386	   11.7184	   52.8464	
   11.7031	0.00208639	    11.703	0.00214019	   11.7002	0.00213499	   11.7021	0.00212052	   11.7021	   53.0131	
   11.6867	0.00209306	   11.6861	0.00214677	   11.6833	0.00214164	   11.6854	0.00212716	   11.6854	    53.179	
   11.6691	0.00209982	   11.6689	 0.0021533	   11.6659	0.00214824	   11.6679	0.00213379	   11.6679	   53.3447	
   11.6505	0.00210661	    11.651	0.00215977	    11.648	0.00215472	   11.6498	0.00214037	   11.6498	   53.5092	
   11.6309	0.00211333	   11.6326	0.00216618	   11.6294	0.00216104	    11.631	0.00214685	    11.631	   53.6713	
    11.611	0.00211984	   11.6139	0.00217248	   11.6104	 0.0021672	   11.6118	0.00215317	   11.6118	   53.8293	
   11.5908	0.00212608	   11.5946	0.00217864	    11.591	0.00217323	   11.5921	0.00215932	   11.5921	    53.983	
   11.5706	0.00213212	   11.5748	0.00218464	   11.5711	 0.0021792	   11.5722	0.00216532	   11.5722	    54.133	
   11.5502	0.00213807	   11.5546	 0.0021905	   11.5511	0.00218514	    11.552	0.00217124	    11.552	   54.2809	
   11.5296	0.00214405	    11.534	0.00219625	   11.5305	0.00219104	   11.5314	0.00217711	   11.5314	   54.4278	
   11.5083	 0.0021501	   11.5128	0.00220196	   11.5092	0.00219689	   11.5101	0.00218298	   11.5101	   54.5746	
   11.4865	0.00215617	   11.4911	0.00220768	   11.4874	0.00220266	   11.4883	0.00218884	   11.4883	    54.721	
   11.4642	0.00216216	   11.4689	0.00221343	   11.4652	0.00220831	   11.4661	0.00219463	   11.4661	   54.8658	
   11.4416	0.00216796	   11.4457	 0.0022191	   11.4427	0.00221385	   11.4433	 0.0022003	   11.4433	   55.0076	
   11.4186	0.00217353	   11.4221	0.00222461	   11.4197	0.00221929	   11.4201	0.00220581	   11.4201	   55.1452	
   11.3954	0.00217892	    11.398	0.00222988	   11.3963	0.00222464	   11.3966	0.00221115	   11.3966	   55.2787	
   11.3716	0.00218424	   11.3741	0.00223493	   11.3723	0.00222988	   11.3727	0.00221635	   11.3727	   55.4087	
   11.3473	0.00218956	   11.3496	0.00223985	   11.3479	0.00223501	   11.3483	0.00222147	   11.3483	   55.5368	
   11.3226	0.00219493	   11.3252	0.00224478	   11.3231	0.00224004	   11.3236	0.00222658	   11.3236	   55.6645	
   11.2978	0.00220029	   11.3003	0.00224976	   11.2979	0.00224501	   11.2987	0.00223169	   11.2987	   55.7922	
   11.2725	0.00220557	   11.2751	0.00225478	   11.2722	0.00224994	   11.2733	0.00223676	   11.2733	    55.919	
   11.2466	0.00221068	   11.2491	0.00225971	   11.2459	0.00225483	   11.2472	0.00224174	   11.2472	   56.0435	
   11.2202	0.00221558	   11.2232	0.00226446	   11.2191	0.00225968	   11.2208	0.00224657	   11.2208	   56.1644	
   11.1934	0.00222032	   11.1971	0.00226897	   11.1919	0.00226445	   11.1942	0.00225125	   11.1942	   56.2812	
   11.1664	0.00222497	   11.1709	0.00227329	   11.1644	0.00226911	   11.1672	0.00225579	   11.1672	   56.3948	
   11.1387	0.00222963	   11.1438	0.00227755	   11.1365	0.00227363	   11.1397	0.00226027	   11.1397	   56.5067	
   11.1103	0.00223432	   11.1165	0.00228186	   11.1079	0.00227799	   11.1116	0.00226472	   11.1116	   56.6181	
   11.0814	0.00223901	   11.0884	0.00228626	   11.0789	0.00228223	   11.0829	0.00226917	   11.0829	   56.7292	
   11.0522	0.00224363	   11.0603	0.00229066	   11.0495	0.00228641	    11.054	0.00227357	    11.054	   56.8392	
   11.0226	0.00224811	   11.0311	0.00229494	   11.0199	0.00229056	   11.0245	0.00227787	   11.0245	   56.9468	
   10.9925	0.00225239	   11.0024	0.00229903	   10.9898	 0.0022947	   10.9949	0.00228204	   10.9949	    57.051	
   10.9618	0.00225651	   10.9725	0.00230292	   10.9593	 0.0022988	   10.9645	0.00228608	   10.9645	   57.1519	
   10.9307	0.00226054	   10.9431	0.00230668	   10.9283	 0.0023028	    10.934	0.00229001	    10.934	   57.2502	
   10.8993	0.00226456	   10.9122	0.00231038	   10.8969	0.00230667	   10.9028	0.00229387	   10.9028	   57.3468	
   10.8678	 0.0022686	   10.8814	0.00231407	   10.8654	 0.0023104	   10.8715	0.00229769	   10.8715	   57.4422	
   10.8359	0.00227266	   10.8496	0.00231774	   10.8334	  0.002314	   10.8396	0.00230147	   10.8396	   57.5366	
   10.8034	0.00227665	    10.818	0.00232134	   10.8008	0.00231752	   10.8074	0.00230517	   10.8074	   57.6292	
   10.7705	0.00228051	   10.7853	0.00232482	   10.7679	  0.002321	   10.7746	0.00230878	   10.7746	   57.7194	
   10.7373	0.00228419	   10.7526	0.00232819	   10.7346	0.00232446	   10.7415	0.00231228	   10.7415	   57.8069	
   10.7037	 0.0022877	   10.7192	0.00233146	   10.7011	0.00232787	    10.708	0.00231568	    10.708	    57.892	
   10.6698	0.00229109	   10.6857	 0.0023347	   10.6669	0.00233121	   10.6741	  0.002319	   10.6741	    57.975	
   10.6354	0.00229445	   10.6512	0.00233793	   10.6322	0.00233442	   10.6396	0.00232226	   10.6396	   58.0566	
   10.6006	0.00229781	   10.6167	0.00234112	   10.5972	0.00233747	   10.6048	0.00232547	   10.6048	   58.1368	
   10.5656	 0.0023012	   10.5815	0.00234424	   10.5619	 0.0023404	   10.5697	0.00232861	   10.5697	   58.2154	
   10.5301	0.00230456	   10.5462	 0.0023472	   10.5263	0.00234325	   10.5342	0.00233167	   10.5342	   58.2918	
    10.494	0.00230779	     10.51	   0.00235	   10.4902	0.00234607	   10.4981	0.00233462	   10.4981	   58.3655	
   10.4576	0.00231085	   10.4736	0.00235266	   10.4537	0.00234887	   10.4616	0.00233746	   10.4616	   58.4365	
   10.4209	0.00231373	   10.4365	0.00235526	   10.4168	0.00235163	   10.4247	0.00234021	   10.4247	   58.5052	
   10.3836	0.00231651	   10.3993	0.00235787	   10.3794	0.00235431	   10.3874	0.00234289	   10.3874	   58.5724	
   10.3458	0.00231925	   10.3614	 0.0023605	   10.3414	0.00235687	   10.3496	0.00234554	   10.3496	   58.6384	
   10.3077	0.00232201	   10.3231	0.00236312	   10.3032	0.00235929	   10.3113	0.00234814	   10.3113	   58.7035	
   10.2691	 0.0023248	   10.2843	0.00236566	   10.2646	 0.0023616	   10.2727	0.00235068	   10.2727	   58.7671	
   10.2299	0.00232753	   10.2454	0.00236805	   10.2255	0.00236383	   10.2336	0.00235314	   10.2336	   58.8284	
   10.1902	0.00233014	   10.2058	0.00237028	   10.1859	0.00236603	    10.194	0.00235548	    10.194	   58.8871	
   10.1502	0.00233258	   10.1659	0.00237236	    10.146	0.00236822	    10.154	0.00235772	    10.154	    58.943	
   10.1098	0.00233487	   10.1258	0.00237438	   10.1057	0.00237037	   10.1138	0.00235987	   10.1138	   58.9968	
    10.069	0.00233707	   10.0851	0.00237639	   10.0649	0.00237245	    10.073	0.00236197	    10.073	   59.0492	
   10.0277	0.00233926	   10.0439	0.00237841	   10.0237	0.00237442	   10.0317	0.00236403	   10.0317	   59.1007	
    9.9861	0.00234146	   10.0023	0.00238043	   9.98216	0.00237628	   9.99018	0.00236605	   9.99018	   59.1513	
   9.94423	0.00234365	   9.96022	0.00238237	   9.94022	0.00237804	   9.94822	0.00236802	   9.94822	   59.2005	
   9.90178	0.00234578	   9.91751	0.00238418	   9.89769	0.00237973	   9.90566	 0.0023699	   9.90566	   59.2475	
   9.85894	 0.0023478	   9.87437	0.00238583	   9.85478	0.00238139	   9.86269	0.00237167	   9.86269	   59.2918	
    9.8159	0.00234965	   9.83098	0.00238735	   9.81167	0.00238301	   9.81952	0.00237334	   9.81952	   59.3335	
   9.77238	0.00235139	   9.78731	0.00238882	   9.76808	 0.0023846	   9.77592	0.00237494	   9.77592	   59.3734	
   9.72836	0.00235305	   9.74307	0.00239028	   9.72398	0.00238612	    9.7318	0.00237648	    9.7318	    59.412	
   9.68403	 0.0023547	   9.69848	0.00239175	   9.67958	0.00238754	   9.68736	  0.002378	   9.68736	   59.4499	
   9.63923	0.00235636	   9.65355	0.00239322	   9.63507	0.00238886	   9.64262	0.00237948	   9.64262	    59.487	
   9.59384	0.00235801	   9.60819	0.00239462	   9.59015	0.00239007	   9.59739	 0.0023809	   9.59739	   59.5225	
   9.54805	0.00235959	   9.56238	 0.0023959	   9.54479	0.00239121	   9.55174	0.00238224	   9.55174	   59.5559	
   9.50195	0.00236106	   9.51631	0.00239703	   9.49921	0.00239231	   9.50582	0.00238347	   9.50582	   59.5866	
   9.45551	0.00236238	   9.47001	0.00239802	   9.45306	0.00239337	   9.45953	0.00238459	   9.45953	   59.6148	
    9.4087	0.00236359	   9.42316	0.00239893	   9.40641	 0.0023944	   9.41276	0.00238564	   9.41276	    59.641	
   9.36162	0.00236472	   9.37597	0.00239984	   9.35945	0.00239535	   9.36568	0.00238664	   9.36568	    59.666	
   9.31418	0.00236584	   9.32837	0.00240076	   9.31225	0.00239621	   9.31826	 0.0023876	   9.31826	   59.6901	
   9.26651	0.00236696	   9.28032	0.00240167	   9.26445	0.00239698	   9.27043	0.00238853	   9.27043	   59.7134	
   9.21848	0.00236806	   9.23186	0.00240251	   9.21628	0.00239764	   9.22221	0.00238941	   9.22221	   59.7351	
   9.17014	0.00236908	   9.18308	0.00240324	   9.16794	0.00239824	   9.17372	0.00239019	   9.17372	   59.7547	
   9.12115	   0.00237	    9.1339	0.00240382	   9.11935	 0.0023988	    9.1248	0.00239087	    9.1248	   59.7719	
   9.07192	0.00237078	   9.08442	0.00240428	    9.0703	0.00239933	   9.07555	0.00239146	   9.07555	   59.7866	
   9.02246	0.00237146	   9.03469	0.00240466	     9.021	0.00239978	   9.02605	0.00239197	   9.02605	   59.7992	
   8.97285	0.00237207	    8.9845	0.00240502	   8.97138	0.00240016	   8.97624	0.00239242	   8.97624	   59.8104	
   8.92273	0.00237267	   8.93378	0.00240537	   8.92124	0.00240045	   8.92592	0.00239283	   8.92592	   59.8206	
   8.87232	0.00237325	   8.88278	 0.0024057	   8.87079	0.00240069	    8.8753	0.00239321	    8.8753	   59.8303	
   8.82161	 0.0023738	   8.83159	0.00240597	   8.82003	0.00240094	   8.82441	0.00239357	   8.82441	   59.8393	
   8.77062	0.00237428	   8.77997	0.00240615	   8.76885	 0.0024012	   8.77315	0.00239387	   8.77315	   59.8469	
   8.71929	0.00237463	   8.72801	0.00240619	   8.71733	0.00240146	   8.72154	0.00239409	   8.72154	   59.8523	
   8.66782	0.00237486	   8.67577	0.00240611	   8.66551	0.00240164	    8.6697	0.00239421	    8.6697	   59.8551	
   8.61586	0.00237499	   8.62328	0.00240596	   8.61321	0.00240168	   8.61745	0.00239421	   8.61745	   59.8553	
   8.56352	0.00237507	   8.57041	0.00240578	   8.56055	0.00240154	   8.56482	0.00239413	   8.56482	   59.8533	
   8.51088	0.00237513	   8.51711	0.00240562	    8.5076	0.00240123	   8.51186	0.00239399	   8.51186	   59.8498	
   8.45812	0.00237518	    8.4632	0.00240545	   8.45422	0.00240085	   8.45852	0.00239383	   8.45852	   59.8457	
   8.40494	0.00237519	   8.40894	0.00240523	   8.40046	0.00240047	   8.40478	0.00239363	   8.40478	   59.8408	
   8.35156	0.00237509	   8.35454	0.00240491	   8.34655	0.00240015	   8.35088	0.00239339	   8.35088	   59.8347	
   8.29751	0.00237486	   8.29953	0.00240443	   8.29201	0.00239987	   8.29635	0.00239305	   8.29635	   59.8264	
   8.24304	0.00237452	   8.24484	0.00240376	   8.23709	0.00239953	   8.24166	 0.0023926	   8.24166	   59.8151	
   8.18827	0.00237412	    8.1902	0.00240295	   8.18203	0.00239904	   8.18683	0.00239204	   8.18683	    59.801	
   8.13299	0.00237372	   8.13556	0.00240209	   8.12649	0.00239835	   8.13168	0.00239139	   8.13168	   59.7846	
   8.07732	 0.0023733	    8.0803	0.00240127	   8.07058	 0.0023975	   8.07607	0.00239069	   8.07607	   59.7673	
   8.02148	0.00237285	   8.02465	0.00240054	   8.01452	 0.0023966	   8.02022	   0.00239	   8.02022	   59.7499	
   7.96535	0.00237231	    7.9681	0.00239985	   7.95809	0.00239574	   7.96385	 0.0023893	   7.96385	   59.7325	
   7.90882	0.00237164	   7.91102	0.00239912	   7.90129	0.00239493	   7.90704	0.00238856	   7.90704	   59.7141	
   7.85212	0.00237086	   7.85326	0.00239823	   7.84435	0.00239414	   7.84991	0.00238774	   7.84991	   59.6935	
   7.79514	0.00237001	   7.79545	0.00239711	   7.78698	0.00239324	   7.79252	0.00238679	   7.79252	   59.6697	
   7.73775	0.00236916	    7.7374	 0.0023958	   7.72926	0.00239218	   7.73481	0.00238571	   7.73481	   59.6427	
   7.68022	0.00236829	   7.67966	0.00239439	   7.67115	0.00239092	   7.67701	0.00238453	   7.67701	   59.6133	
   7.62233	0.00236738	   7.62157	0.00239301	   7.61262	0.00238956	   7.61884	0.00238332	   7.61884	    59.583	
   7.56407	0.00236641	   7.56329	0.00239175	   7.55378	0.00238816	   7.56038	 0.0023821	   7.56038	   59.5526	
   7.50567	0.00236532	   7.50463	0.00239057	   7.49487	0.00238679	   7.50172	 0.0023809	   7.50172	   59.5224	
   7.44682	0.00236414	   7.44552	0.00238937	    7.4357	0.00238547	   7.44268	0.00237966	   7.44268	   59.4915	
   7.38762	0.00236287	   7.38567	  0.002388	   7.37624	0.00238411	   7.38318	0.00237833	   7.38318	   59.4582	
   7.32832	0.00236154	    7.3256	0.00238638	   7.31655	0.00238261	   7.32349	0.00237684	   7.32349	   59.4211	
   7.26858	0.00236018	   7.26527	0.00238452	   7.25647	0.00238092	   7.26344	0.00237521	   7.26344	   59.3802	
   7.20854	0.00235876	   7.20467	0.00238255	   7.19614	0.00237904	   7.20312	0.00237345	   7.20312	   59.3362	
   7.14788	0.00235728	   7.14379	 0.0023806	   7.13566	0.00237704	   7.14244	0.00237164	   7.14244	    59.291	
    7.0871	0.00235573	   7.08245	0.00237876	   7.07472	0.00237501	   7.08142	0.00236984	   7.08142	   59.2459	
   7.02607	0.00235409	   7.02093	0.00237701	   7.01346	0.00237304	   7.02015	0.00236805	   7.02015	   59.2012	
    6.9649	0.00235236	   6.95931	0.00237521	   6.95197	0.00237113	   6.95873	0.00236623	   6.95873	   59.1559	
   6.90329	0.00235054	   6.89729	0.00237323	   6.89009	0.00236923	   6.89689	0.00236434	   6.89689	   59.1084	
   6.84148	0.00234865	   6.83495	0.00237101	   6.82806	0.00236724	   6.83483	 0.0023623	   6.83483	   59.0575	
   6.77927	0.00234673	   6.77238	0.00236861	   6.76568	0.00236506	   6.77245	0.00236013	   6.77245	   59.0033	
    6.7167	0.00234479	   6.70948	0.00236616	   6.70298	0.00236267	   6.70972	0.00235787	   6.70972	   58.9468	
   6.65373	0.00234282	   6.64636	0.00236379	    6.6402	0.00236011	   6.64677	0.00235557	   6.64677	   58.8894	
   6.59023	0.00234079	   6.58274	0.00236155	   6.57725	0.00235749	   6.58341	0.00235328	   6.58341	   58.8319	
   6.52648	0.00233866	   6.51889	0.00235933	   6.51401	0.00235489	   6.51979	0.00235096	   6.51979	    58.774	
   6.46271	0.00233638	   6.45477	0.00235701	   6.45075	0.00235235	   6.45608	0.00234858	   6.45608	   58.7145	
    6.3989	0.00233397	   6.39065	0.00235445	   6.38701	0.00234981	   6.39219	0.00234608	   6.39219	   58.6519	
   6.33537	0.00233149	   6.32635	0.00235164	   6.32306	0.00234718	   6.32826	0.00234344	   6.32826	   58.5859	
   6.27148	0.00232899	   6.26189	0.00234867	   6.25882	0.00234436	   6.26406	0.00234067	   6.26406	   58.5168	
   6.20742	0.00232649	   6.19706	0.00234569	   6.19419	0.00234134	   6.19956	0.00233784	   6.19956	    58.446	
   6.14263	0.00232401	   6.13212	 0.0023428	   6.12944	0.00233819	   6.13473	  0.002335	   6.13473	    58.375	
   6.07811	0.00232148	   6.06682	0.00234002	   6.06466	0.00233501	   6.06986	0.00233217	   6.06986	   58.3042	
     6.013	0.00231884	   6.00124	0.00233725	   5.99956	0.00233187	    6.0046	0.00232932	    6.0046	    58.233	
   5.94821	0.00231604	   5.93565	0.00233435	   5.93427	0.00232879	   5.93938	0.00232639	   5.93938	   58.1598	
   5.88246	 0.0023131	   5.86974	0.00233123	   5.86876	 0.0023257	   5.87365	0.00232334	   5.87365	   58.0836	
   5.81749	0.00231009	   5.80364	0.00232788	   5.80303	0.00232251	   5.80805	0.00232016	   5.80805	   58.0041	
   5.75165	0.00230708	   5.73761	0.00232441	    5.7371	0.00231915	   5.74212	0.00231688	   5.74212	    57.922	
   5.68593	 0.0023041	   5.67119	0.00232093	   5.67078	0.00231562	   5.67596	0.00231355	   5.67596	   57.8388	
   5.61931	0.00230112	   5.60465	0.00231754	   5.60432	0.00231199	   5.60943	0.00231021	   5.60943	   57.7554	
   5.55296	0.00229807	   5.53775	0.00231422	   5.53749	0.00230835	   5.54273	0.00230688	   5.54273	    57.672	
   5.48614	0.00229486	   5.47057	 0.0023109	   5.47037	0.00230477	   5.47569	0.00230351	   5.47569	   57.5878	
   5.41952	 0.0022915	   5.40339	0.00230746	   5.40324	0.00230122	   5.40872	0.00230006	   5.40872	   57.5015	
   5.35236	0.00228804	    5.3359	0.00230381	   5.33592	0.00229764	    5.3414	 0.0022965	    5.3414	   57.4124	
    5.2853	0.00228457	   5.26824	0.00229996	   5.26842	0.00229393	   5.27399	0.00229282	   5.27399	   57.3206	
   5.21766	0.00228117	   5.20056	0.00229599	   5.20075	0.00229006	   5.20632	0.00228907	   5.20632	   57.2268	
   5.15002	0.00227783	   5.13266	0.00229202	   5.13273	0.00228604	   5.13847	 0.0022853	   5.13847	   57.1324	
   5.08182	0.00227448	   5.06468	0.00228812	   5.06463	0.00228196	   5.07038	0.00228152	   5.07038	    57.038	
   5.01359	0.00227101	   4.99635	0.00228429	   4.99619	0.00227789	   5.00204	0.00227773	   5.00204	   56.9433	
   4.94506	0.00226734	   4.92779	0.00228045	   4.92763	0.00227387	   4.93349	0.00227389	   4.93349	   56.8472	
   4.87637	0.00226348	   4.85912	0.00227648	   4.85895	0.00226987	   4.86481	0.00226994	   4.86481	   56.7486	
   4.80724	0.00225949	   4.79019	0.00227231	   4.78988	 0.0022658	   4.79577	0.00226587	   4.79577	   56.6467	
   4.73796	0.00225548	   4.72114	0.00226794	   4.72069	 0.0022616	    4.7266	0.00226167	    4.7266	   56.5418	
   4.66822	0.00225153	   4.65188	0.00226345	   4.65141	0.00225725	   4.65717	0.00225741	   4.65717	   56.4353	
    4.5982	0.00224765	   4.58235	0.00225895	   4.58186	0.00225278	   4.58747	0.00225313	   4.58747	   56.3282	
    4.5279	0.00224377	   4.51282	 0.0022545	   4.51217	0.00224825	   4.51763	0.00224884	   4.51763	    56.221	
   4.45771	0.00223978	   4.44286	0.00225008	   4.44206	0.00224371	   4.44754	0.00224452	   4.44754	    56.113	
   4.38735	0.00223561	   4.37276	0.00224558	   4.37181	0.00223916	   4.37731	0.00224012	   4.37731	   56.0029	
   4.31697	0.00223126	    4.3025	0.00224093	   4.30143	 0.0022346	   4.30696	 0.0022356	   4.30696	   55.8899	
   4.24626	0.00222679	   4.23196	0.00223609	   4.23076	0.00222996	   4.23632	0.00223095	   4.23632	   55.7737	
   4.17551	0.00222228	   4.16123	0.00223115	   4.16008	0.00222523	   4.16561	0.00222622	   4.16561	   55.6555	
   4.10442	 0.0022178	   4.09041	0.00222622	   4.08921	0.00222038	   4.09468	0.00222147	   4.09468	   55.5367	
   4.03316	0.00221336	   4.01944	0.00222139	   4.01817	0.00221541	   4.02359	0.00221672	   4.02359	    55.418	
   3.96158	 0.0022089	    3.9483	0.00221664	   3.94712	0.00221037	   3.95233	0.00221197	   3.95233	   55.2992	
   3.88988	0.00220434	   3.87686	0.00221187	   3.87592	0.00220528	   3.88089	0.00220716	   3.88089	   55.1791	
   3.81815	0.00219962	    3.8053	0.00220692	   3.80457	0.00220019	   3.80934	0.00220224	   3.80934	   55.0561	
   3.74625	0.00219472	   3.73344	 0.0022017	   3.73305	0.00219508	   3.73758	0.00219717	   3.73758	   54.9292	
   3.67418	0.00218968	   3.66144	0.00219622	   3.66135	0.00218994	   3.66565	0.00219195	   3.66565	   54.7986	
    3.6022	 0.0021846	   3.58939	0.00219059	   3.58957	0.00218469	   3.59372	0.00218663	   3.59372	   54.6657	
   3.52991	0.00217953	   3.51706	0.00218498	   3.51759	0.00217931	   3.52152	0.00218127	   3.52152	   54.5319	
   3.45757	 0.0021745	   3.44472	0.00217949	   3.44556	 0.0021738	   3.44928	0.00217593	   3.44928	   54.3982	
   3.38491	0.00216944	    3.3721	0.00217411	   3.37322	0.00216819	   3.37674	0.00217058	   3.37674	   54.2645	
   3.31208	0.00216428	   3.29934	0.00216873	    3.3007	0.00216256	   3.30404	0.00216519	   3.30404	   54.1298	
   3.23926	0.00215896	    3.2266	0.00216321	   3.22817	0.00215693	   3.23134	 0.0021597	   3.23134	   53.9925	
   3.16626	0.00215347	   3.15358	0.00215744	   3.15547	0.00215128	   3.15844	0.00215406	   3.15844	   53.8516	
   3.09324	0.00214786	   3.08057	0.00215146	   3.08274	0.00214557	   3.08552	 0.0021483	   3.08552	   53.7074	
   3.01994	 0.0021422	   3.00749	0.00214536	    3.0099	0.00213974	   3.01244	0.00214243	   3.01244	   53.5608	
   2.94649	0.00213655	   2.93426	0.00213924	   2.93688	0.00213377	   2.93921	0.00213652	   2.93921	    53.413	
   2.87302	 0.0021309	   2.86103	0.00213316	   2.86369	0.00212769	   2.86591	0.00213058	   2.86591	   53.2646	
    2.7994	0.00212521	   2.78752	0.00212712	   2.79033	0.00212153	   2.79242	0.00212462	   2.79242	   53.1155	
   2.72577	0.00211941	   2.71402	0.00212103	   2.71695	0.00211535	   2.71891	 0.0021186	   2.71891	   52.9649	
   2.65204	0.00211346	   2.64045	 0.0021148	   2.64348	0.00210915	   2.64532	0.00211247	   2.64532	   52.8118	
   2.57817	0.00210735	   2.56674	0.00210838	   2.56984	0.00210291	   2.57158	0.00210621	   2.57158	   52.6553	
   2.50415	0.00210113	   2.49303	0.00210178	   2.49632	0.00209659	   2.49783	0.00209983	   2.49783	   52.4958	
   2.42985	0.00209486	   2.41922	 0.0020951	   2.42249	0.00209014	   2.42385	0.00209337	   2.42385	   52.3342	
   2.35558	0.00208857	   2.34541	0.00208845	   2.34865	0.00208356	   2.34988	0.00208686	   2.34988	   52.1715	
   2.28104	0.00208228	   2.27159	0.00208185	   2.27492	0.00207686	   2.27585	0.00208033	   2.27585	   52.0083	
    2.2064	0.00207594	   2.19763	0.00207526	   2.20102	 0.0020701	   2.20168	0.00207377	   2.20168	   51.8441	
   2.13193	0.00206949	   2.12381	0.00206858	   2.12724	 0.0020633	   2.12766	0.00206713	   2.12766	   51.6782	
   2.05732	0.00206291	    2.0498	0.00206173	   2.05313	0.00205648	   2.05342	0.00206037	   2.05342	   51.5093	
   1.98273	0.00205619	   1.97578	0.00205466	   1.97901	0.00204961	   1.97917	0.00205348	   1.97917	   51.3371	
   1.90817	0.00204937	   1.90134	0.00204743	     1.905	0.00204265	   1.90483	0.00204648	   1.90483	   51.1621	
   1.83366	0.00204252	   1.82677	0.00204012	   1.83081	0.00203556	   1.83041	 0.0020394	   1.83041	    50.985	
   1.75895	0.00203565	   1.75226	0.00203283	   1.75673	0.00202835	   1.75598	0.00203228	   1.75598	   50.8069	
   1.68413	0.00202878	   1.67749	0.00202558	   1.68234	0.00202103	   1.68132	0.00202513	   1.68132	   50.6282	
   1.60907	0.00202183	   1.60276	0.00201833	   1.60793	0.00201366	   1.60659	0.00201794	   1.60659	   50.4484	
   1.53434	0.00201477	   1.52782	0.00201099	   1.53327	0.00200625	   1.53181	0.00201067	   1.53181	   50.2667	
   1.45926	0.00200756	    1.4528	 0.0020035	   1.45847	0.00199882	   1.45684	0.00200329	   1.45684	   50.0823	
   1.38451	0.00200022	   1.37797	0.00199582	   1.38368	0.00199135	   1.38205	 0.0019958	   1.38205	   49.8949	
   1.30924	0.00199281	    1.3029	  0.001988	   1.30862	0.00198379	   1.30692	 0.0019882	   1.30692	   49.7051	
   1.23421	0.00198541	   1.22789	0.00198011	    1.2336	0.00197613	    1.2319	0.00198055	    1.2319	   49.5137	
   1.15892	0.00197803	   1.15298	0.00197222	   1.15852	0.00196835	   1.15681	0.00197286	   1.15681	   49.3216	
   1.08397	0.00197063	   1.07796	0.00196433	   1.08348	0.00196046	    1.0818	0.00196514	    1.0818	   49.1285	
    1.0085	0.00196315	   1.00286	0.00195642	    1.0086	0.00195247	   1.00665	0.00195735	   1.00665	   48.9337	
  0.933355	0.00195551	  0.927711	0.00194841	  0.933617	0.00194442	  0.931561	0.00194945	  0.931561	   48.7362	
  0.858029	0.00194767	  0.852614	0.00194025	   0.85865	0.00193632	  0.856431	0.00194141	  0.856431	   48.5354	
  0.782766	0.00193968	  0.777567	0.00193192	  0.783559	0.00192817	  0.781297	0.00193326	  0.781297	   48.3314	
  0.707155	0.00193162	  0.702428	0.00192346	  0.708352	0.00191996	  0.705978	0.00192501	  0.705978	   48.1253	
  0.631768	0.00192356	  0.627477	0.00191493	  0.633312	0.00191167	  0.630852	0.00191672	  0.630852	    47.918	
  0.556404	0.00191555	  0.552401	0.00190638	  0.558241	 0.0019033	  0.555682	0.00190841	  0.555682	   47.7102	
  0.481107	0.00190755	  0.477366	0.00189782	  0.483184	0.00189482	  0.480553	0.00190007	  0.480553	   47.5017	
  0.405599	0.00189948	  0.402233	0.00188924	  0.407868	0.00188624	  0.405233	0.00189165	  0.405233	   47.2913	
  0.330031	0.00189122	  0.327008	0.00188055	   0.33245	0.00187755	   0.32983	0.00188311	   0.32983	   47.0777	
  0.254343	0.00188275	  0.251744	0.00187173	  0.256984	0.00186877	  0.254357	0.00187442	  0.254357	   46.8604	
   0.17875	0.00187409	  0.176261	0.00186274	  0.181564	0.00185992	  0.178858	0.00186558	  0.178858	   46.6396	
  0.102971	0.00186532	   0.10085	0.00185361	  0.106185	0.00185101	  0.103335	0.00185664	  0.103335	   46.4161	
 0.0273989	0.00185651	 0.0256071	0.00184439	 0.0309467	0.00184203	 0.0279842	0.00184765	 0.0279842	   46.1911	
 -0.048108	0.00184772	-0.0497194	0.00183514	-0.0444007	0.00183301	-0.0474093	0.00183862	-0.0474093	   45.9656	
 -0.123396	0.00183895	 -0.125121	0.00182589	 -0.119711	 0.0018239	 -0.122743	0.00182958	 -0.122743	   45.7395	
 -0.198893	0.00183015	  -0.20073	0.00181662	 -0.195262	0.00181467	 -0.198295	0.00182048	 -0.198295	    45.512	
  -0.27431	0.00182126	 -0.276426	0.00180728	 -0.270761	 0.0018053	 -0.273832	0.00181128	 -0.273832	    45.282	
 -0.349834	0.00181222	 -0.352211	0.00179781	 -0.346278	0.00179577	 -0.349441	0.00180193	 -0.349441	   45.0483	
 -0.425411	0.00180302	 -0.428033	0.00178815	 -0.421882	0.00178614	 -0.425109	0.00179244	 -0.425109	    44.811	
 -0.501035	 0.0017937	 -0.503614	0.00177833	 -0.497292	0.00177646	 -0.500647	0.00178283	 -0.500647	   44.5708	
  -0.57684	 0.0017843	 -0.578702	0.00176843	 -0.572762	0.00176677	 -0.576101	0.00177316	 -0.576101	   44.3291	
 -0.652533	0.00177486	 -0.653636	0.00175851	 -0.648186	0.00175706	 -0.651452	0.00176347	 -0.651452	   44.0869	
 -0.728125	0.00176538	 -0.728271	0.00174863	 -0.723567	0.00174726	 -0.726654	0.00175376	 -0.726654	   43.8439	
 -0.803621	0.00175583	 -0.803179	0.00173874	 -0.798906	0.00173733	 -0.801902	0.00174397	 -0.801902	   43.5992	
 -0.878895	0.00174618	 -0.878099	0.00172878	 -0.874243	0.00172722	 -0.877079	0.00173406	 -0.877079	   43.3515	
 -0.954033	0.00173641	 -0.953045	0.00171865	 -0.949589	0.00171695	 -0.952222	  0.001724	 -0.952222	   43.1001	
  -1.02925	0.00172653	   -1.0277	0.00170831	   -1.0249	0.00170659	  -1.02728	0.00171381	  -1.02728	   42.8452	
  -1.10441	0.00171654	  -1.10263	0.00169784	  -1.10018	0.00169622	  -1.10241	0.00170353	  -1.10241	   42.5883	
  -1.17965	0.00170646	  -1.17717	0.00168731	  -1.17556	0.00168588	  -1.17746	0.00169322	  -1.17746	   42.3304	
   -1.2547	0.00169633	  -1.25194	 0.0016768	  -1.25078	0.00167552	  -1.25247	0.00168289	  -1.25247	   42.0722	
  -1.32971	0.00168613	  -1.32617	0.00166634	  -1.32583	0.00166506	  -1.32724	0.00167251	  -1.32724	   41.8128	
  -1.40468	0.00167584	  -1.40127	0.00165584	  -1.40088	0.00165441	  -1.40228	0.00166203	  -1.40228	   41.5507	
  -1.47951	0.00166545	  -1.47557	0.00164521	  -1.47565	0.00164354	  -1.47691	 0.0016514	  -1.47691	    41.285	
  -1.55435	0.00165495	  -1.55029	0.00163436	  -1.55046	 0.0016325	   -1.5517	 0.0016406	   -1.5517	   41.0151	
  -1.62904	0.00164435	  -1.62448	0.00162332	  -1.62516	0.00162138	  -1.62623	0.00162968	  -1.62623	   40.7421	
  -1.70359	0.00163365	  -1.69916	0.00161216	  -1.69989	0.00161028	  -1.70088	 0.0016187	  -1.70088	   40.4675	
  -1.77815	0.00162287	  -1.77335	0.00160098	  -1.77465	0.00159924	  -1.77538	 0.0016077	  -1.77538	   40.1925	
  -1.85245	0.00161202	  -1.84769	0.00158983	  -1.84916	0.00158821	  -1.84977	0.00159669	  -1.84977	   39.9172	
  -1.92694	0.00160106	  -1.92155	 0.0015787	  -1.92374	 0.0015771	  -1.92408	0.00158562	  -1.92408	   39.6406	
  -2.00131	   0.00159	  -1.99581	 0.0015675	  -1.99823	0.00156581	  -1.99845	0.00157444	  -1.99845	   39.3609	
   -2.0755	0.00157883	  -2.06957	0.00155613	  -2.07271	0.00155431	  -2.07259	0.00156309	  -2.07259	   39.0773	
  -2.14975	0.00156759	  -2.14346	0.00154458	  -2.14727	0.00154261	  -2.14683	0.00155159	  -2.14683	   38.7898	
  -2.22392	0.00155628	  -2.21721	0.00153286	  -2.22176	0.00153084	  -2.22096	0.00153999	  -2.22096	   38.4999	
  -2.29803	0.00154494	  -2.29125	0.00152105	  -2.29618	0.00151907	  -2.29515	0.00152836	  -2.29515	   38.2089	
  -2.37209	0.00153355	  -2.36513	0.00150922	  -2.37055	0.00150735	  -2.36926	 0.0015167	  -2.36926	   37.9176	
  -2.44583	0.00152208	  -2.43944	0.00149739	  -2.44474	0.00149561	  -2.44334	0.00150503	  -2.44334	   37.6257	
   -2.5197	0.00151049	  -2.51345	0.00148553	   -2.5189	0.00148378	  -2.51735	0.00149327	  -2.51735	   37.3317	
  -2.59341	0.00149874	  -2.58734	0.00147357	   -2.5929	0.00147177	  -2.59122	0.00148136	  -2.59122	    37.034	
    -2.667	0.00148684	  -2.66084	0.00146146	  -2.66677	0.00145953	  -2.66487	0.00146928	  -2.66487	   36.7319	
   -2.7406	0.00147482	  -2.73441	0.00144919	  -2.74066	0.00144713	  -2.73856	0.00145705	  -2.73856	   36.4261	
  -2.81396	0.00146273	  -2.80777	0.00143679	   -2.8143	0.00143466	  -2.81201	0.00144473	  -2.81201	   36.1182	
  -2.88724	0.00145063	  -2.88122	0.00142431	  -2.88786	0.00142221	  -2.88544	0.00143238	  -2.88544	   35.8096	
  -2.96045	 0.0014385	  -2.95449	0.00141177	  -2.96134	0.00140978	  -2.95876	0.00142002	  -2.95876	   35.5005	
  -3.03348	0.00142632	  -3.02773	 0.0013992	  -3.03463	0.00139732	  -3.03195	0.00140761	  -3.03195	   35.1903	
  -3.10647	0.00141403	  -3.10096	0.00138656	  -3.10774	0.00138474	  -3.10506	0.00139511	  -3.10506	   34.8777	
  -3.17931	 0.0014016	  -3.17405	0.00137384	   -3.1807	0.00137198	  -3.17802	0.00138247	  -3.17802	   34.5617	
  -3.25216	0.00138902	  -3.24675	  0.001361	  -3.25341	0.00135905	  -3.25077	0.00136969	  -3.25077	   34.2423	
  -3.32502	0.00137632	  -3.31951	0.00134806	  -3.32615	0.00134602	  -3.32356	 0.0013568	  -3.32356	     33.92	
  -3.39763	0.00136356	  -3.39206	0.00133499	  -3.39867	0.00133296	  -3.39612	0.00134384	  -3.39612	   33.5959	
  -3.47015	0.00135076	  -3.46457	0.00132183	  -3.47099	 0.0013199	  -3.46857	0.00133083	  -3.46857	   33.2708	
  -3.54262	0.00133793	  -3.53705	0.00130861	  -3.54328	0.00130682	  -3.54098	0.00131779	  -3.54098	   32.9446	
  -3.61489	0.00132503	  -3.60924	0.00129534	  -3.61528	0.00129366	  -3.61314	0.00130468	  -3.61314	   32.6169	
  -3.68702	0.00131205	  -3.68159	0.00128203	  -3.68703	0.00128033	  -3.68521	0.00129147	  -3.68521	   32.2867	
  -3.75901	0.00129894	  -3.75382	0.00126867	   -3.7587	0.00126683	  -3.75718	0.00127814	  -3.75718	   31.9536	
  -3.83075	0.00128571	  -3.82582	0.00125521	  -3.83004	0.00125318	  -3.82887	 0.0012647	  -3.82887	   31.6175	
  -3.90242	0.00127239	  -3.89775	0.00124163	  -3.90136	0.00123943	  -3.90051	0.00125115	  -3.90051	   31.2787	
  -3.97389	0.00125899	   -3.9695	0.00122793	  -3.97254	0.00122564	  -3.97198	0.00123752	  -3.97198	    30.938	
  -4.04507	0.00124554	  -4.04123	0.00121413	   -4.0436	0.00121182	   -4.0433	0.00122383	   -4.0433	   30.5958	
  -4.11627	0.00123201	  -4.11282	0.00120027	  -4.11472	0.00119799	   -4.1146	0.00121009	   -4.1146	   30.2523	
  -4.18736	 0.0012184	  -4.18416	0.00118638	  -4.18563	0.00118409	  -4.18572	0.00119629	  -4.18572	   29.9072	
  -4.25822	0.00120469	  -4.25543	0.00117244	  -4.25622	0.00117008	  -4.25662	 0.0011824	  -4.25662	     29.56	
  -4.32905	0.00119088	  -4.32663	0.00115843	  -4.32668	0.00115591	  -4.32746	 0.0011684	  -4.32746	   29.2101	
  -4.39958	0.00117699	  -4.39753	 0.0011443	  -4.39691	0.00114159	  -4.39801	0.00115429	  -4.39801	   28.8573	
  -4.46998	0.00116302	  -4.46831	0.00113005	  -4.46707	0.00112718	  -4.46845	0.00114008	  -4.46845	    28.502	
   -4.5403	0.00114899	  -4.53898	0.00111567	  -4.53719	0.00111271	  -4.53882	0.00112579	  -4.53882	   28.1447	
  -4.61042	0.00113488	  -4.60944	 0.0011012	  -4.60702	0.00109823	  -4.60896	0.00111144	  -4.60896	   27.7859	
  -4.68024	0.00112068	  -4.67959	0.00108669	  -4.67702	0.00108372	  -4.67895	0.00109703	  -4.67895	   27.4258	
  -4.74994	 0.0011064	   -4.7496	0.00107215	  -4.74692	0.00106916	  -4.74882	0.00108257	  -4.74882	   27.0642	
  -4.81941	0.00109204	  -4.81925	0.00105756	  -4.81647	0.00105447	  -4.81837	0.00106803	  -4.81837	   26.7006	
  -4.88897	0.00107761	  -4.88884	0.00104289	  -4.88544	0.00103964	  -4.88775	0.00105338	  -4.88775	   26.3345	
  -4.95837	 0.0010631	  -4.95828	0.00102809	  -4.95434	0.00102467	  -4.95699	0.00103862	  -4.95699	   25.9655	
  -5.02735	0.00104851	  -5.02732	0.00101317	   -5.0229	0.00100961	  -5.02586	0.00102376	  -5.02586	   25.5941	
  -5.09613	0.00103385	  -5.09616	0.000998135	  -5.09118	0.000994512	  -5.09449	0.00100883	  -5.09449	   25.2208	
  -5.16473	 0.0010191	  -5.16483	0.000983019	  -5.15938	 0.0009794	  -5.16298	0.000993841	  -5.16298	    24.846	
  -5.23294	0.00100429	  -5.23325	0.000967851	  -5.22724	0.000964255	  -5.23114	0.000978799	  -5.23114	     24.47	
  -5.30107	0.000989412	  -5.30146	0.000952644	  -5.29497	0.000949046	  -5.29916	0.000963701	  -5.29916	   24.0925	
  -5.36903	0.00097446	   -5.3695	0.000937395	   -5.3626	0.000933738	  -5.36704	0.000948531	  -5.36704	   23.7133	
  -5.43672	0.000959434	  -5.43727	0.000922093	   -5.4299	0.00091832	  -5.43463	0.000933283	  -5.43463	   23.3321	
  -5.50419	0.000944329	  -5.50483	0.000906698	  -5.49692	0.000902811	  -5.50198	0.000917946	  -5.50198	   22.9486	
  -5.57148	0.000929145	  -5.57222	0.000891175	  -5.56385	0.00088723	  -5.56919	0.000902517	  -5.56919	   22.5629	
  -5.63838	0.000913891	  -5.63922	0.000875507	  -5.63046	0.000871595	  -5.63602	0.000886998	  -5.63602	   22.1749	
  -5.70495	0.000898573	  -5.70602	0.000859724	  -5.69681	0.000855905	  -5.70259	0.000871401	  -5.70259	    21.785	
  -5.77137	0.000883201	  -5.77267	0.000843867	  -5.76309	0.000840142	  -5.76904	0.000855737	  -5.76904	   21.3934	
  -5.83743	0.000867774	  -5.83894	0.000827976	  -5.82906	0.000824291	  -5.83514	0.000840014	  -5.83514	   21.0003	
  -5.90318	0.000852288	  -5.90504	0.000812064	  -5.89465	0.000808353	  -5.90096	0.000824235	  -5.90096	   20.6059	
  -5.96884	0.00083672	  -5.97102	0.000796107	  -5.96021	0.000792353	  -5.96669	0.000808393	  -5.96669	   20.2098	
  -6.03416	0.000821052	  -6.03664	0.000780036	  -6.02549	0.00077632	   -6.0321	0.00079247	   -6.0321	   19.8117	
  -6.09921	0.00080527	  -6.10197	0.00076385	  -6.09042	0.000760274	   -6.0972	0.000776465	   -6.0972	   19.4116	
  -6.16419	0.00078938	  -6.16722	0.000747562	   -6.1552	0.000744206	   -6.1622	0.000760383	   -6.1622	   19.0096	
  -6.22887	0.000773412	  -6.23214	0.000731243	  -6.21976	0.00072808	  -6.22692	0.000744245	  -6.22692	   18.6061	
  -6.29305	0.00075741	  -6.29654	0.000714942	  -6.28387	0.000711855	  -6.29115	0.000728069	  -6.29115	   18.2017	
  -6.35707	0.000741408	  -6.36063	0.000698668	  -6.34789	0.000695505	   -6.3552	0.000711861	   -6.3552	   17.7965	
  -6.42086	0.000725409	  -6.42448	0.000682358	  -6.41172	0.000679046	  -6.41902	0.000695604	  -6.41902	   17.3901	
   -6.4842	0.000709377	  -6.48816	0.000665919	  -6.47516	0.000662518	  -6.48251	0.000679271	  -6.48251	   16.9818	
  -6.54745	0.000693264	  -6.55157	0.000649304	  -6.53855	0.000645966	  -6.54586	0.000662845	  -6.54586	   16.5711	
  -6.61039	0.000677028	   -6.6148	0.00063254	  -6.60181	0.000629418	    -6.609	0.000646329	    -6.609	   16.1582	
  -6.67295	0.000660662	  -6.67762	0.000615748	  -6.66471	0.000612864	  -6.67176	0.000629758	  -6.67176	    15.744	
  -6.73521	0.000644204	  -6.74026	0.000599019	  -6.72734	0.000596263	  -6.73427	0.000613162	  -6.73427	   15.3291	
  -6.79739	0.000627708	  -6.80277	0.000582385	  -6.78989	0.000579573	  -6.79668	0.000596555	  -6.79668	   14.9139	
  -6.85926	0.000611221	  -6.86495	0.000565768	  -6.85215	0.000562746	  -6.85879	0.000579912	  -6.85879	   14.4978	
  -6.92063	0.000594753	  -6.92672	0.00054905	  -6.91407	0.000545797	  -6.92047	 0.0005632	  -6.92047	     14.08	
  -6.98172	0.000578269	  -6.98832	0.00053216	  -6.97597	0.000528781	    -6.982	0.000546403	    -6.982	   13.6601	
  -7.04262	0.000561717	  -7.04967	0.000515083	  -7.03766	0.000511775	  -7.04331	0.000529525	  -7.04331	   13.2381	
  -7.10312	0.000545051	   -7.1107	0.000497892	  -7.09891	0.000494821	  -7.10424	0.000512588	  -7.10424	   12.8147	
   -7.1633	0.000528272	  -7.17149	0.000480682	  -7.15982	0.000477902	  -7.16487	0.000495619	  -7.16487	   12.3905	
  -7.22326	0.00051142	  -7.23212	0.000463536	   -7.2206	0.000460964	  -7.22533	0.00047864	  -7.22533	    11.966	
  -7.28291	0.000494592	  -7.29238	0.000446457	  -7.28105	0.000443925	  -7.28545	0.000461658	  -7.28545	   11.5415	
  -7.34222	0.000477804	  -7.35209	0.000429377	  -7.34111	0.000426738	  -7.34514	0.00044464	  -7.34514	    11.116	
  -7.40113	0.000461037	  -7.41175	0.00041222	  -7.40088	0.000409411	  -7.40459	0.000427556	  -7.40459	   10.6889	
  -7.45988	0.000444192	  -7.47116	0.000394939	  -7.46042	0.000392002	  -7.46382	0.000410378	  -7.46382	   10.2594	
  -7.51772	0.000427192	  -7.53013	0.000377549	  -7.51955	0.000374605	  -7.52246	0.000393116	  -7.52246	   9.82789	
  -7.57492	0.000410007	  -7.58888	0.000360105	  -7.57823	0.000357279	  -7.58067	0.000375797	  -7.58067	   9.39492	
  -7.63147	0.000392682	  -7.64749	0.000342667	  -7.63682	0.000340023	  -7.63859	0.000358457	  -7.63859	   8.96143	
  -7.68818	0.000375345	  -7.70577	0.00032527	  -7.69512	0.000322776	  -7.69636	0.00034113	  -7.69636	   8.52826	
   -7.7447	0.000358104	  -7.76354	0.000307905	  -7.75295	0.000305445	  -7.75373	0.000323818	  -7.75373	   8.09544	
  -7.80137	0.000341016	  -7.82089	0.000290522	  -7.81041	0.000287969	  -7.81089	0.000306502	  -7.81089	   7.66256	
  -7.85866	0.00032403	  -7.87807	0.000273071	  -7.86773	0.00027035	  -7.86815	0.00028915	  -7.86815	   7.22876	
  -7.91631	0.000307018	  -7.93489	0.00025552	  -7.92471	0.000252665	  -7.92531	0.000271734	  -7.92531	   6.79336	
  -7.97368	0.00028986	  -7.99117	0.000237881	  -7.98133	0.000234994	  -7.98206	0.000254245	  -7.98206	   6.35613	
  -8.03072	0.000272479	  -8.04716	0.000220194	  -8.03766	0.000217399	  -8.03852	0.000236691	  -8.03852	   5.91727	
  -8.08725	0.000254921	  -8.10296	0.000202523	  -8.09382	0.000199871	  -8.09467	0.000219105	  -8.09467	   5.47763	
  -8.14324	0.000237307	  -8.15838	0.000184899	   -8.1496	0.00018234	   -8.1504	0.000201516	   -8.1504	   5.03789	
  -8.19853	0.000219772	  -8.21338	0.000167329	  -8.20498	0.000164728	  -8.20563	0.000183943	  -8.20563	   4.59857	
  -8.25354	0.000202395	  -8.26822	0.000149767	  -8.26006	0.000146975	  -8.26061	0.000166379	  -8.26061	   4.15948	
  -8.30795	0.000185145	  -8.32284	0.000132162	  -8.31494	0.000129109	  -8.31525	0.000148805	  -8.31525	   3.72013	
  -8.36217	0.000167896	  -8.37708	0.000114475	  -8.36944	0.000111194	  -8.36956	0.000131188	  -8.36956	    3.2797	
  -8.41613	0.000150526	  -8.43075	9.67139e-05	  -8.42353	9.3315e-05	  -8.42347	0.000113518	  -8.42347	   2.83795	
  -8.46996	0.000132954	  -8.48414	7.89237e-05	  -8.47733	7.55209e-05	  -8.47714	9.57995e-05	  -8.47714	   2.39499	
  -8.52346	0.00011522	  -8.53734	6.11565e-05	  -8.53094	5.77844e-05	  -8.53058	7.80537e-05	  -8.53058	   1.95134	
  -8.57674	9.74589e-05	  -8.59017	4.34396e-05	  -8.58417	4.00439e-05	  -8.58369	6.03141e-05	  -8.58369	   1.50785	
   -8.6295	7.9788e-05	  -8.64248	2.57648e-05	  -8.63688	2.22205e-05	  -8.63628	4.25911e-05	  -8.63628	   1.06478	
  -8.68199	6.2289e-05	  -8.69426	8.09343e-06	  -8.68918	4.27708e-06	  -8.68847	2.48865e-05	  -8.68847	  0.622163	
  -8.73391	4.48979e-05	  -8.74591	-9.62281e-06	  -8.74119	-1.37567e-05	  -8.74033	7.17282e-06	  -8.74033	   0.17932	
  -8.78553	2.7493e-05	  -8.79725	-2.7413e-05	  -8.79289	-3.18185e-05	  -8.79189	-1.05795e-05	  -8.79189	 -0.264487	
   -8.8367	9.92926e-06	  -8.84813	-4.52693e-05	  -8.84426	-4.98281e-05	  -8.84303	-2.83894e-05	  -8.84303	 -0.709734	
  -8.88766	-7.84685e-06	  -8.89867	-6.31476e-05	   -8.8954	-6.77505e-05	  -8.89391	-4.62483e-05	  -8.89391	  -1.15621	
  -8.93854	-2.5757e-05	    -8.949	-8.0994e-05	  -8.94629	-8.56118e-05	  -8.94461	-6.41209e-05	  -8.94461	  -1.60302	
  -8.98914	-4.36531e-05	  -8.99907	-9.87793e-05	   -8.9969	-0.000103468	  -8.99504	-8.19669e-05	  -8.99504	  -2.04917	
  -9.03932	-6.13947e-05	  -9.04875	-0.000116506	  -9.04707	-0.00012139	  -9.04504	-9.97634e-05	  -9.04504	  -2.49409	
  -9.08906	-7.89402e-05	  -9.09787	-0.000134216	  -9.09679	-0.000139398	  -9.09457	-0.000117518	  -9.09457	  -2.93795	
  -9.13822	-9.63718e-05	  -9.14671	-0.000151961	  -9.14607	-0.000157467	  -9.14367	-0.000135267	  -9.14367	  -3.38166	
  -9.18721	-0.000113833	  -9.19541	-0.000169774	  -9.19516	-0.000175532	  -9.19259	-0.000153046	  -9.19259	  -3.82616	
  -9.23588	-0.000131453	  -9.24379	-0.000187665	  -9.24391	-0.000193525	  -9.24119	-0.000170881	  -9.24119	  -4.27202	
  -9.28408	-0.000149243	   -9.2917	-0.0002056	  -9.29217	-0.000211424	  -9.28932	-0.000188756	  -9.28932	  -4.71889	
   -9.3318	-0.00016713	  -9.33929	-0.000223514	  -9.33981	-0.000229264	  -9.33697	-0.000206636	  -9.33697	   -5.1659	
  -9.37933	-0.000184975	  -9.38668	-0.000241344	  -9.38712	-0.000247117	  -9.38438	-0.000224478	  -9.38438	  -5.61196	
  -9.42665	-0.000202678	  -9.43372	-0.000259068	  -9.43422	-0.000265047	  -9.43153	-0.000242264	  -9.43153	   -6.0566	
   -9.4736	-0.000220212	  -9.48041	-0.000276713	  -9.48097	-0.000283064	  -9.47832	-0.000259996	  -9.47832	  -6.49991	
  -9.52004	-0.000237665	   -9.5266	-0.000294338	  -9.52722	-0.000301112	  -9.52462	-0.000277705	  -9.52462	  -6.94263	
  -9.56599	-0.000255147	  -9.57231	-0.000312012	  -9.57313	-0.000319108	  -9.57048	-0.000295422	  -9.57048	  -7.38556	
   -9.6116	-0.000272742	  -9.61769	-0.000329777	  -9.61882	-0.00033699	  -9.61603	-0.00031317	  -9.61603	  -7.82924	
    -9.657	-0.000290461	  -9.66273	-0.000347623	  -9.66429	-0.000354755	  -9.66134	-0.000330946	  -9.66134	  -8.27366	
  -9.70205	-0.000308219	  -9.70744	-0.00036549	   -9.7094	-0.000372456	   -9.7063	-0.000348721	   -9.7063	  -8.71804	
  -9.74661	-0.000325915	  -9.75183	-0.000383305	  -9.75401	-0.000390181	  -9.75081	-0.000366467	  -9.75081	  -9.16167	
  -9.79056	-0.000343475	  -9.79589	-0.000401014	    -9.798	-0.000407968	  -9.79482	-0.000384152	  -9.79482	  -9.60381	
  -9.83407	-0.000360892	  -9.83935	-0.000418615	  -9.84167	-0.000425816	  -9.83837	-0.000401775	  -9.83837	  -10.0444	
  -9.87743	-0.000378227	  -9.88267	-0.000436153	  -9.88517	-0.000443652	  -9.88176	-0.000419344	  -9.88176	  -10.4836	
  -9.92049	-0.000395564	  -9.92568	-0.000453691	  -9.92835	-0.000461397	  -9.92484	-0.000436884	  -9.92484	  -10.9221	
  -9.96313	-0.000412979	  -9.96827	-0.000471275	  -9.97109	-0.000478995	  -9.96749	-0.000454417	  -9.96749	  -11.3604	
  -10.0052	-0.000430504	  -10.0103	-0.000488903	  -10.0133	-0.000496451	  -10.0096	-0.000471953	  -10.0096	  -11.7988	
  -10.0469	-0.000448087	   -10.052	-0.000506521	   -10.055	-0.000513847	  -10.0513	-0.000489485	  -10.0513	  -12.2371	
  -10.0884	-0.000465633	  -10.0933	-0.000524075	  -10.0963	-0.000531272	  -10.0927	-0.000506993	  -10.0927	  -12.6748	
  -10.1295	-0.000483053	  -10.1344	-0.00054152	  -10.1368	-0.0005488	  -10.1336	-0.000524458	  -10.1336	  -13.1114	
  -10.1703	-0.00050031	  -10.1751	-0.000558863	  -10.1769	-0.000566439	  -10.1741	-0.000541871	  -10.1741	  -13.5468	
  -10.2107	-0.000517442	  -10.2154	-0.000576151	  -10.2159	-0.000584113	   -10.214	-0.000559235	   -10.214	  -13.9809	
  -10.2504	-0.000534529	  -10.2552	-0.000593437	  -10.2544	-0.000601708	  -10.2533	-0.000576558	  -10.2533	   -14.414	
  -10.2896	-0.00055167	  -10.2942	-0.00061075	  -10.2924	-0.000619117	  -10.2921	-0.000593846	  -10.2921	  -14.8461	
  -10.3285	-0.000568896	  -10.3332	-0.000628076	  -10.3305	-0.000636308	  -10.3307	-0.000611093	  -10.3307	  -15.2773	
  -10.3668	-0.000586173	  -10.3721	-0.000645366	  -10.3686	-0.000653342	  -10.3691	-0.000628294	  -10.3691	  -15.7073	
  -10.4048	-0.000603403	  -10.4106	-0.00066257	  -10.4068	-0.000670329	  -10.4074	-0.000645434	  -10.4074	  -16.1359	
  -10.4425	-0.0006205	  -10.4486	-0.000679662	  -10.4447	-0.000687383	  -10.4453	-0.000662515	  -10.4453	  -16.5629	
  -10.4797	-0.000637427	  -10.4862	-0.000696654	   -10.482	-0.000704554	  -10.4826	-0.000679545	  -10.4826	  -16.9886	
  -10.5162	-0.000654229	  -10.5231	-0.000713587	  -10.5188	-0.0007218	  -10.5194	-0.000696539	  -10.5194	  -17.4135	
  -10.5523	-0.000671006	  -10.5594	-0.000730506	  -10.5549	-0.000739026	  -10.5555	-0.000713513	  -10.5555	  -17.8378	
   -10.588	-0.000687838	  -10.5954	-0.000747437	  -10.5903	-0.000756112	  -10.5912	-0.000730462	  -10.5912	  -18.2616	
  -10.6236	-0.000704743	  -10.6311	-0.000764368	  -10.6251	-0.000772999	  -10.6266	-0.00074737	  -10.6266	  -18.6843	
  -10.6588	-0.000721664	  -10.6666	-0.000781254	  -10.6596	-0.000789701	  -10.6617	-0.000764206	  -10.6617	  -19.1052	
  -10.6937	-0.000738507	  -10.7016	-0.000798046	  -10.6937	-0.000806305	  -10.6963	-0.000780953	  -10.6963	  -19.5238	
  -10.7281	-0.000755203	  -10.7361	-0.000814723	  -10.7275	-0.000822928	  -10.7306	-0.000797618	  -10.7306	  -19.9405	
  -10.7619	-0.000771737	  -10.7701	-0.000831294	  -10.7608	-0.000839646	  -10.7643	-0.000814225	  -10.7643	  -20.3556	
  -10.7951	-0.000788159	  -10.8033	-0.000847793	  -10.7935	-0.00085645	  -10.7973	-0.000830801	  -10.7973	    -20.77	
  -10.8279	-0.000804557	  -10.8359	-0.000864255	  -10.8256	-0.000873254	  -10.8298	-0.000847355	  -10.8298	  -21.1839	
  -10.8603	-0.000820988	  -10.8679	-0.000880706	  -10.8574	-0.000889937	  -10.8618	-0.000863877	  -10.8618	  -21.5969	
  -10.8924	-0.000837464	  -10.8998	-0.000897146	  -10.8886	-0.0009064	  -10.8936	-0.000880337	  -10.8936	  -22.0084	
  -10.9244	-0.000853932	  -10.9313	-0.000913555	  -10.9197	-0.000922629	  -10.9251	-0.000896705	  -10.9251	  -22.4176	
  -10.9559	-0.000870313	  -10.9626	-0.000929919	  -10.9505	-0.000938713	  -10.9563	-0.000912982	  -10.9563	  -22.8245	
  -10.9869	-0.000886553	  -10.9933	-0.000946202	   -10.981	-0.000954794	  -10.9871	-0.000929183	  -10.9871	  -23.2296	
  -11.0175	-0.000902637	  -11.0236	-0.000962369	   -11.011	-0.000970974	  -11.0173	-0.000945327	  -11.0173	  -23.6332	
  -11.0474	-0.000918611	  -11.0533	-0.000978397	  -11.0405	-0.000987268	   -11.047	-0.000961425	   -11.047	  -24.0356	
  -11.0768	-0.000934537	  -11.0824	-0.000994291	  -11.0694	-0.00100358	  -11.0762	-0.000977468	  -11.0762	  -24.4367	
  -11.1055	-0.000950465	  -11.1109	-0.00101009	   -11.098	-0.00101975	  -11.1048	-0.000993433	  -11.1048	  -24.8358	
  -11.1336	-0.00096641	  -11.1391	-0.00102582	  -11.1261	-0.00103567	  -11.1329	-0.0010093	  -11.1329	  -25.2325	
  -11.1613	-0.000982329	  -11.1672	-0.00104155	  -11.1537	-0.00105133	  -11.1607	-0.00102507	  -11.1607	  -25.6267	
  -11.1886	-0.000998162	  -11.1949	-0.00105729	   -11.181	-0.00106686	  -11.1882	-0.00104077	  -11.1882	  -26.0192	
  -11.2156	-0.00101386	  -11.2223	-0.00107302	  -11.2082	-0.00108241	  -11.2154	-0.00105643	  -11.2154	  -26.4107	
  -11.2423	-0.00102941	  -11.2494	-0.00108869	   -11.235	-0.00109807	  -11.2422	-0.00107206	  -11.2422	  -26.8015	
  -11.2686	-0.00104484	   -11.276	-0.00110424	  -11.2614	-0.00111383	  -11.2687	-0.00108764	  -11.2687	   -27.191	
  -11.2945	-0.00106021	   -11.302	-0.00111964	  -11.2875	-0.00112956	  -11.2947	-0.00110314	  -11.2947	  -27.5784	
  -11.3198	-0.00107557	  -11.3276	-0.00113488	   -11.313	-0.0011451	  -11.3201	-0.00111852	  -11.3201	  -27.9629	
  -11.3445	-0.00109091	  -11.3525	-0.00115003	   -11.338	-0.00116037	   -11.345	-0.00113377	   -11.345	  -28.3442	
  -11.3689	-0.00110621	  -11.3768	-0.00116514	  -11.3624	-0.00117541	  -11.3694	-0.00114892	  -11.3694	   -28.723	
  -11.3928	-0.00112142	  -11.4005	-0.00118024	  -11.3861	-0.00119035	  -11.3932	 -0.001164	  -11.3932	     -29.1	
  -11.4161	-0.00113649	  -11.4237	-0.00119533	  -11.4094	-0.0012053	  -11.4164	-0.00117904	  -11.4164	  -29.4761	
  -11.4389	-0.00115142	  -11.4461	-0.00121036	  -11.4322	-0.00122034	  -11.4391	-0.00119404	  -11.4391	   -29.851	
  -11.4614	-0.00116626	   -11.468	-0.00122527	  -11.4547	-0.0012354	  -11.4614	-0.00120898	  -11.4614	  -30.2244	
  -11.4835	-0.00118106	  -11.4897	-0.00124002	  -11.4767	-0.00125038	  -11.4833	-0.00122382	  -11.4833	  -30.5955	
  -11.5052	-0.00119584	  -11.5111	-0.00125461	  -11.4984	-0.00126517	  -11.5049	-0.00123854	  -11.5049	  -30.9635	
  -11.5266	-0.00121057	  -11.5321	-0.00126909	  -11.5198	-0.00127972	  -11.5262	-0.00125313	  -11.5262	  -31.3282	
  -11.5477	-0.0012252	  -11.5526	-0.00128353	   -11.541	-0.00129409	  -11.5471	-0.0012676	  -11.5471	  -31.6901	
  -11.5685	-0.00123966	  -11.5729	-0.00129797	  -11.5618	-0.00130835	  -11.5677	 -0.001282	  -11.5677	  -32.0499	
  -11.5889	-0.00125395	  -11.5928	-0.0013124	  -11.5822	-0.00132263	   -11.588	-0.00129633	   -11.588	  -32.4082	
  -11.6088	-0.00126807	  -11.6123	-0.00132678	  -11.6022	-0.00133696	  -11.6078	-0.0013106	  -11.6078	  -32.7651	
  -11.6282	-0.00128213	  -11.6314	-0.00134103	  -11.6218	-0.00135128	  -11.6271	-0.00132481	  -11.6271	  -33.1203	
  -11.6472	-0.00129618	    -11.65	-0.0013551	  -11.6409	-0.00136553	   -11.646	-0.00133893	   -11.646	  -33.4734	
  -11.6656	-0.00131025	  -11.6681	 -0.001369	  -11.6595	-0.0013796	  -11.6644	-0.00135295	  -11.6644	  -33.8238	
  -11.6835	-0.0013243	  -11.6857	-0.00138278	  -11.6775	-0.00139348	  -11.6822	-0.00136686	  -11.6822	  -34.1714	
  -11.7008	-0.00133828	  -11.7027	-0.00139651	  -11.6951	-0.00140718	  -11.6995	-0.00138066	  -11.6995	  -34.5165	
  -11.7175	-0.0013521	  -11.7192	-0.00141024	  -11.7121	-0.00142076	  -11.7163	-0.00139437	  -11.7163	  -34.8593	
  -11.7337	-0.00136576	  -11.7352	-0.00142396	  -11.7284	-0.00143431	  -11.7324	-0.00140801	  -11.7324	  -35.2003	
  -11.7492	-0.00137927	  -11.7505	-0.00143761	  -11.7443	-0.00144781	   -11.748	-0.00142157	   -11.748	  -35.5392	
  -11.7641	-0.00139272	  -11.7653	-0.00145112	  -11.7595	-0.00146125	   -11.763	-0.00143503	   -11.763	  -35.8758	
  -11.7786	-0.00140612	  -11.7795	-0.00146445	  -11.7741	-0.00147458	  -11.7774	-0.00144838	  -11.7774	  -36.2096	
  -11.7925	-0.00141949	  -11.7932	-0.0014776	  -11.7881	-0.0014878	  -11.7913	-0.00146163	  -11.7913	  -36.5408	
  -11.8058	-0.00143278	  -11.8063	-0.00149064	  -11.8014	-0.00150091	  -11.8045	-0.00147478	  -11.8045	  -36.8694	
  -11.8186	-0.00144593	  -11.8189	-0.00150363	  -11.8131	-0.00151394	  -11.8169	-0.00148783	  -11.8169	  -37.1958	
  -11.8308	-0.00145891	  -11.8308	-0.00151663	  -11.8247	-0.00152691	  -11.8288	-0.00150082	  -11.8288	  -37.5204	
  -11.8424	-0.00147174	  -11.8422	-0.00152962	  -11.8348	-0.00153982	  -11.8398	-0.00151373	  -11.8398	  -37.8432	
  -11.8535	-0.00148449	  -11.8533	-0.00154254	  -11.8459	-0.0015526	  -11.8509	-0.00152654	  -11.8509	  -38.1636	
  -11.8642	-0.00149723	  -11.8639	-0.00155531	  -11.8562	-0.00156521	  -11.8614	-0.00153925	  -11.8614	  -38.4812	
  -11.8744	-0.00150998	   -11.874	-0.00156789	  -11.8674	-0.00157761	  -11.8719	-0.00155183	  -11.8719	  -38.7956	
  -11.8842	-0.00152271	  -11.8837	-0.00158029	  -11.8784	-0.00158984	  -11.8821	-0.00156428	  -11.8821	   -39.107	
  -11.8934	-0.00153534	  -11.8928	-0.00159256	  -11.8894	-0.00160197	  -11.8919	-0.00157662	  -11.8919	  -39.4156	
  -11.9022	-0.0015478	  -11.9014	-0.00160478	  -11.8996	-0.00161408	  -11.9011	-0.00158889	  -11.9011	  -39.7222	
  -11.9104	-0.00156005	  -11.9096	 -0.001617	  -11.9093	-0.00162618	  -11.9098	-0.00160108	  -11.9098	  -40.0269	
   -11.918	-0.00157212	  -11.9175	-0.00162922	  -11.9183	-0.00163825	  -11.9179	-0.0016132	  -11.9179	  -40.3299	
  -11.9251	-0.0015841	  -11.9248	-0.00164136	  -11.9264	-0.00165021	  -11.9255	-0.00162522	  -11.9255	  -40.6306	
  -11.9318	-0.00159606	  -11.9316	-0.00165338	   -11.934	-0.00166201	  -11.9325	-0.00163715	  -11.9325	  -40.9287	
   -11.938	-0.00160802	  -11.9378	-0.00166521	  -11.9413	-0.00167366	   -11.939	-0.00164896	   -11.939	  -41.2241	
  -11.9438	-0.00161996	  -11.9436	-0.00167688	  -11.9477	-0.00168516	   -11.945	-0.00166067	   -11.945	  -41.5167	
  -11.9491	-0.0016318	  -11.9489	-0.00168843	   -11.954	-0.00169657	  -11.9507	-0.00167227	  -11.9507	  -41.8067	
   -11.954	-0.00164347	  -11.9538	-0.00169993	  -11.9598	-0.00170794	  -11.9559	-0.00168378	  -11.9559	  -42.0945	
  -11.9584	-0.00165494	  -11.9582	-0.0017114	  -11.9656	-0.00171926	  -11.9607	-0.0016952	  -11.9607	    -42.38	
  -11.9624	-0.00166624	  -11.9622	-0.00172285	  -11.9708	-0.0017305	  -11.9652	-0.00170653	  -11.9652	  -42.6633	
   -11.966	-0.00167746	  -11.9659	-0.00173422	  -11.9757	-0.00174162	  -11.9692	-0.00171777	  -11.9692	  -42.9442	
  -11.9693	-0.00168868	  -11.9692	-0.00174544	    -11.98	-0.00175261	  -11.9728	-0.00172891	  -11.9728	  -43.2228	
  -11.9722	-0.0016999	  -11.9721	-0.00175649	  -11.9839	-0.00176345	   -11.976	-0.00173995	   -11.976	  -43.4987	
  -11.9747	-0.00171107	  -11.9747	-0.00176737	  -11.9873	-0.00177417	  -11.9789	-0.00175087	  -11.9789	  -43.7717	
  -11.9769	-0.00172207	   -11.977	-0.00177813	  -11.9903	-0.0017848	  -11.9814	-0.00176167	  -11.9814	  -44.0417	
  -11.9792	-0.00173284	   -11.979	-0.00178881	  -11.9929	-0.00179535	  -11.9837	-0.00177233	  -11.9837	  -44.3084	
  -11.9815	-0.00174341	  -11.9807	-0.00179946	  -11.9952	-0.00180582	  -11.9858	-0.00178289	  -11.9858	  -44.5724	
  -11.9833	-0.00175383	  -11.9822	-0.00181007	  -11.9971	-0.0018162	  -11.9875	-0.00179337	  -11.9875	  -44.8342	
  -11.9846	-0.00176422	  -11.9834	-0.0018206	  -11.9986	-0.00182649	  -11.9889	-0.00180377	  -11.9889	  -45.0942	
  -11.9851	-0.00177464	  -11.9844	-0.00183101	  -11.9998	-0.00183664	  -11.9898	-0.0018141	  -11.9898	  -45.3525	
  -11.9852	-0.00178506	  -11.9852	-0.00184127	  -12.0004	-0.00184666	  -11.9903	-0.00182433	  -11.9903	  -45.6082	
  -11.9847	-0.0017954	  -11.9858	-0.00185139	  -12.0003	-0.00185654	  -11.9903	-0.00183445	  -11.9903	  -45.8611	
  -11.9838	-0.00180558	  -11.9861	-0.0018614	  -12.0001	-0.00186631	    -11.99	-0.00184443	    -11.99	  -46.1107	
  -11.9825	-0.00181555	  -11.9857	-0.0018713	   -11.999	-0.00187599	  -11.9891	-0.00185428	  -11.9891	  -46.3571	
  -11.9803	-0.00182534	  -11.9848	-0.00188113	  -11.9975	-0.00188561	  -11.9875	-0.00186403	  -11.9875	  -46.6007	
   -11.978	-0.00183504	  -11.9831	-0.00189086	  -11.9952	-0.00189517	  -11.9855	-0.00187369	  -11.9855	  -46.8423	
  -11.9746	-0.00184473	   -11.981	-0.00190048	  -11.9923	-0.00190464	  -11.9826	-0.00188329	  -11.9826	  -47.0822	
  -11.9718	-0.00185442	  -11.9782	-0.00190998	  -11.9888	 -0.001914	  -11.9796	-0.0018928	  -11.9796	    -47.32	
  -11.9679	-0.00186404	  -11.9748	-0.00191936	  -11.9848	-0.00192322	  -11.9759	-0.00190221	  -11.9759	  -47.5552	
  -11.9646	-0.0018735	   -11.971	-0.00192863	  -11.9803	-0.00193232	   -11.972	-0.00191148	   -11.972	  -47.7871	
  -11.9599	-0.00188274	  -11.9668	-0.00193781	  -11.9755	-0.0019413	  -11.9674	-0.00192062	  -11.9674	  -48.0154	
  -11.9559	-0.00189174	  -11.9621	-0.00194691	  -11.9702	-0.00195021	  -11.9627	-0.00192962	  -11.9627	  -48.2405	
  -11.9499	-0.00190059	  -11.9572	-0.00195593	  -11.9647	-0.00195904	  -11.9573	-0.00193852	  -11.9573	   -48.463	
  -11.9447	-0.00190942	  -11.9518	-0.00196486	  -11.9589	-0.00196779	  -11.9518	-0.00194736	  -11.9518	   -48.684	
  -11.9381	-0.00191832	   -11.946	-0.00197368	  -11.9526	-0.00197645	  -11.9456	-0.00195615	  -11.9456	  -48.9038	
  -11.9318	-0.00192729	  -11.9397	-0.00198238	   -11.946	-0.00198499	  -11.9392	-0.00196488	  -11.9392	  -49.1221	
  -11.9243	-0.00193624	  -11.9327	-0.00199096	   -11.939	-0.0019934	   -11.932	-0.00197353	   -11.932	  -49.3383	
  -11.9172	-0.00194504	   -11.925	-0.00199943	  -11.9313	-0.00200171	  -11.9245	-0.00198206	  -11.9245	  -49.5515	
  -11.9089	-0.00195358	  -11.9167	-0.0020078	   -11.923	-0.00200992	  -11.9162	-0.00199044	  -11.9162	  -49.7609	
  -11.9007	-0.00196185	  -11.9078	-0.00201609	  -11.9141	-0.00201805	  -11.9075	-0.00199866	  -11.9075	  -49.9666	
  -11.8915	-0.00196992	  -11.8985	-0.0020243	  -11.9048	-0.00202609	  -11.8983	-0.00200677	  -11.8983	  -50.1692	
  -11.8824	-0.00197793	  -11.8888	-0.00203241	  -11.8951	-0.00203404	  -11.8887	-0.00201479	  -11.8887	  -50.3698	
  -11.8722	-0.00198598	  -11.8788	-0.00204042	   -11.885	-0.00204189	  -11.8786	-0.00202276	  -11.8786	   -50.569	
  -11.8619	-0.00199412	  -11.8683	-0.0020483	  -11.8747	-0.00204964	  -11.8683	-0.00203069	  -11.8683	  -50.7671	
  -11.8508	-0.00200227	  -11.8577	-0.00205606	  -11.8637	-0.00205729	  -11.8574	-0.00203854	  -11.8574	  -50.9635	
  -11.8395	-0.00201029	  -11.8466	-0.0020637	  -11.8524	-0.00206484	  -11.8461	-0.00204628	  -11.8461	  -51.1569	
  -11.8273	-0.0020181	  -11.8349	-0.00207125	  -11.8403	-0.00207228	  -11.8342	-0.00205387	  -11.8342	  -51.3468	
  -11.8149	-0.00202563	  -11.8225	-0.00207875	  -11.8276	-0.00207959	  -11.8217	-0.00206133	  -11.8217	  -51.5332	
  -11.8021	-0.00203298	  -11.8096	-0.00208622	  -11.8144	-0.0020868	  -11.8087	-0.00206866	  -11.8087	  -51.7166	
  -11.7888	-0.00204025	  -11.7963	-0.00209363	  -11.8008	-0.00209391	  -11.7953	-0.00207593	  -11.7953	  -51.8982	
  -11.7748	-0.00204755	  -11.7826	-0.00210092	  -11.7866	-0.00210093	  -11.7813	-0.00208313	  -11.7813	  -52.0784	
  -11.7607	-0.00205491	  -11.7687	-0.00210802	   -11.772	-0.00210788	  -11.7671	-0.00209027	  -11.7671	  -52.2568	
  -11.7458	-0.00206226	  -11.7544	-0.00211491	  -11.7569	-0.00211475	  -11.7524	-0.00209731	  -11.7524	  -52.4327	
  -11.7306	-0.00206949	  -11.7394	-0.00212161	  -11.7418	-0.00212153	  -11.7373	-0.00210421	  -11.7373	  -52.6053	
  -11.7147	-0.00207651	  -11.7237	-0.00212822	  -11.7262	-0.00212822	  -11.7215	-0.00211098	  -11.7215	  -52.7746	
  -11.6983	-0.0020833	  -11.7075	-0.00213483	  -11.7101	-0.00213481	  -11.7053	-0.00211765	  -11.7053	  -52.9412	
  -11.6815	-0.00208992	  -11.6908	-0.00214151	  -11.6932	-0.00214132	  -11.6885	-0.00212425	  -11.6885	  -53.1062	
  -11.6643	-0.00209647	  -11.6737	-0.00214821	  -11.6759	-0.00214773	  -11.6713	-0.0021308	  -11.6713	  -53.2701	
  -11.6466	-0.00210305	  -11.6562	-0.00215483	  -11.6577	-0.00215403	  -11.6535	-0.0021373	  -11.6535	  -53.4325	
  -11.6287	-0.00210965	  -11.6383	-0.00216127	  -11.6393	-0.00216021	  -11.6354	-0.00214371	  -11.6354	  -53.5927	
  -11.6101	-0.00211623	  -11.6196	-0.00216746	  -11.6202	-0.0021663	  -11.6166	  -0.00215	  -11.6166	  -53.7499	
   -11.591	-0.00212269	  -11.6003	-0.00217343	   -11.601	-0.0021723	  -11.5974	-0.00215614	  -11.5974	  -53.9035	
  -11.5715	-0.00212896	  -11.5804	-0.00217928	  -11.5809	-0.00217826	  -11.5776	-0.00216216	  -11.5776	  -54.0541	
  -11.5515	-0.00213501	  -11.5602	-0.00218512	  -11.5609	-0.00218415	  -11.5575	-0.00216809	  -11.5575	  -54.2024	
  -11.5313	-0.00214091	  -11.5397	-0.00219101	  -11.5395	-0.00218998	  -11.5368	-0.00217396	  -11.5368	  -54.3491	
  -11.5106	-0.00214673	   -11.519	-0.00219692	  -11.5181	-0.00219571	  -11.5159	-0.00217979	  -11.5159	  -54.4947	
  -11.4891	-0.00215256	  -11.4976	-0.00220277	  -11.4954	-0.00220132	  -11.4941	-0.00218555	  -11.4941	  -54.6387	
  -11.4671	-0.00215842	  -11.4755	-0.00220846	  -11.4731	-0.00220679	  -11.4719	-0.00219122	  -11.4719	  -54.7806	
  -11.4445	-0.00216425	  -11.4529	-0.00221395	    -11.45	-0.00221215	  -11.4492	-0.00219678	  -11.4492	  -54.9195	
  -11.4215	-0.00216998	    -11.43	-0.00221925	  -11.4268	-0.00221743	  -11.4261	-0.00220222	  -11.4261	  -55.0555	
  -11.3979	-0.00217553	  -11.4067	-0.00222445	  -11.4028	-0.00222268	  -11.4025	-0.00220756	  -11.4025	  -55.1889	
  -11.3738	-0.00218089	  -11.3831	-0.00222962	  -11.3784	-0.0022279	  -11.3784	-0.0022128	  -11.3784	  -55.3201	
  -11.3495	-0.0021861	  -11.3589	-0.00223481	  -11.3533	-0.00223305	  -11.3539	-0.00221799	  -11.3539	  -55.4497	
  -11.3246	-0.00219124	  -11.3341	-0.00223999	  -11.3279	-0.00223812	  -11.3289	-0.00222311	  -11.3289	  -55.5778	
  -11.2994	-0.00219638	  -11.3088	-0.00224509	  -11.3019	-0.00224305	  -11.3033	-0.00222817	  -11.3033	  -55.7044	
  -11.2738	-0.00220157	  -11.2833	-0.00225004	  -11.2757	-0.00224786	  -11.2776	-0.00223316	  -11.2776	  -55.8289	
  -11.2478	-0.00220676	  -11.2573	-0.00225481	  -11.2489	-0.00225257	  -11.2513	-0.00223805	  -11.2513	  -55.9511	
  -11.2212	-0.00221188	   -11.231	-0.00225943	  -11.2218	-0.00225721	  -11.2247	-0.00224284	  -11.2247	   -56.071	
   -11.194	-0.00221685	   -11.204	-0.00226397	  -11.1944	-0.00226181	  -11.1975	-0.00224754	  -11.1975	  -56.1886	
  -11.1664	-0.00222161	  -11.1766	-0.00226847	  -11.1666	-0.00226638	  -11.1699	-0.00225215	  -11.1699	  -56.3038	
  -11.1386	-0.00222619	  -11.1488	-0.00227298	  -11.1383	-0.00227087	  -11.1419	-0.00225668	  -11.1419	  -56.4171	
  -11.1104	-0.00223067	  -11.1208	-0.00227745	  -11.1095	-0.00227527	  -11.1136	-0.00226113	  -11.1136	  -56.5283	
  -11.0816	-0.00223514	  -11.0922	-0.00228183	  -11.0803	-0.00227955	  -11.0847	-0.0022655	  -11.0847	  -56.6376	
  -11.0524	-0.00223964	   -11.063	-0.00228607	  -11.0507	-0.00228371	  -11.0554	-0.00226981	  -11.0554	  -56.7451	
  -11.0228	-0.00224416	  -11.0334	-0.00229016	  -11.0208	-0.00228777	  -11.0257	-0.00227403	  -11.0257	  -56.8507	
  -10.9928	-0.00224863	  -11.0035	-0.00229412	  -10.9904	-0.00229178	  -10.9956	-0.00227818	  -10.9956	  -56.9544	
  -10.9621	-0.00225296	  -10.9734	-0.00229802	  -10.9596	-0.00229574	   -10.965	-0.00228224	   -10.965	   -57.056	
  -10.9308	-0.00225712	  -10.9427	-0.00230187	  -10.9286	-0.00229966	   -10.934	-0.00228621	   -10.934	  -57.1554	
  -10.8991	-0.0022611	  -10.9114	-0.00230568	  -10.8971	-0.0023035	  -10.9025	-0.0022901	  -10.9025	  -57.2524	
   -10.867	-0.00226498	  -10.8798	-0.00230944	  -10.8653	-0.00230725	  -10.8707	-0.00229389	  -10.8707	  -57.3473	
  -10.8346	-0.00226884	  -10.8477	-0.00231312	  -10.8331	-0.0023109	  -10.8385	-0.00229762	  -10.8385	  -57.4405	
  -10.8019	-0.00227271	  -10.8153	-0.00231671	  -10.8008	-0.00231443	   -10.806	-0.00230128	   -10.806	  -57.5321	
  -10.7686	-0.00227659	  -10.7822	-0.00232019	  -10.7679	-0.00231789	  -10.7729	-0.00230489	  -10.7729	  -57.6222	
  -10.7349	-0.00228042	  -10.7486	-0.00232358	  -10.7345	-0.00232128	  -10.7394	-0.00230843	  -10.7394	  -57.7107	
   -10.701	-0.00228412	  -10.7148	-0.00232688	  -10.7008	-0.00232463	  -10.7055	-0.00231188	  -10.7055	   -57.797	
  -10.6668	-0.00228767	  -10.6805	-0.00233011	  -10.6665	-0.00232793	  -10.6713	-0.00231524	  -10.6713	  -57.8809	
  -10.6319	-0.00229106	  -10.6457	-0.00233327	  -10.6316	-0.00233117	  -10.6364	-0.0023185	  -10.6364	  -57.9624	
  -10.5966	-0.00229434	  -10.6104	-0.00233637	  -10.5963	-0.00233432	  -10.6011	-0.00232168	  -10.6011	  -58.0419	
   -10.561	-0.00229756	  -10.5747	-0.00233941	  -10.5607	-0.00233737	  -10.5654	-0.00232478	  -10.5654	  -58.1195	
  -10.5251	-0.00230077	  -10.5387	-0.00234238	  -10.5248	-0.00234034	  -10.5295	-0.00232783	  -10.5295	  -58.1957	
  -10.4886	-0.00230396	  -10.5023	-0.00234524	  -10.4883	-0.00234323	  -10.4931	-0.00233081	  -10.4931	  -58.2703	
  -10.4517	-0.00230715	  -10.4654	 -0.002348	  -10.4513	-0.00234604	  -10.4561	-0.00233373	  -10.4561	  -58.3433	
  -10.4144	-0.00231029	  -10.4281	-0.00235066	   -10.414	-0.00234876	  -10.4188	-0.00233657	  -10.4188	  -58.4143	
  -10.3769	-0.00231335	  -10.3906	-0.00235326	  -10.3766	-0.0023514	  -10.3813	-0.00233933	  -10.3813	  -58.4834	
  -10.3386	-0.0023163	  -10.3529	-0.00235581	  -10.3385	-0.00235395	  -10.3433	-0.00234202	  -10.3433	  -58.5505	
  -10.2999	-0.00231911	  -10.3147	-0.00235833	  -10.2999	-0.00235642	  -10.3048	-0.00234462	  -10.3048	  -58.6156	
  -10.2609	-0.00232181	  -10.2761	-0.0023608	   -10.261	-0.00235884	   -10.266	-0.00234715	   -10.266	  -58.6787	
  -10.2214	-0.00232442	  -10.2371	-0.00236318	  -10.2219	-0.00236122	  -10.2268	-0.00234961	  -10.2268	  -58.7401	
  -10.1815	-0.00232696	  -10.1977	-0.00236546	  -10.1821	-0.00236356	  -10.1871	 -0.002352	  -10.1871	  -58.7999	
  -10.1411	-0.00232949	  -10.1577	-0.00236765	  -10.1419	-0.00236584	  -10.1469	-0.00235433	  -10.1469	  -58.8581	
  -10.1005	 -0.002332	  -10.1174	-0.00236974	  -10.1014	-0.00236802	  -10.1064	-0.00235659	  -10.1064	  -58.9147	
  -10.0596	-0.00233446	  -10.0766	-0.00237178	  -10.0604	-0.00237007	  -10.0655	-0.00235877	  -10.0655	  -58.9692	
  -10.0182	-0.00233684	  -10.0353	-0.00237378	  -10.0189	-0.00237199	  -10.0242	-0.00236087	  -10.0242	  -59.0217	
  -9.97643	-0.00233911	  -9.99358	-0.00237572	   -9.9771	-0.00237381	  -9.98237	-0.00236288	  -9.98237	   -59.072	
   -9.9344	-0.00234126	  -9.95153	-0.0023776	  -9.93504	-0.00237559	  -9.94032	-0.00236482	  -9.94032	  -59.1204	
  -9.89177	-0.00234332	  -9.90923	-0.00237939	  -9.89239	-0.00237738	   -9.8978	-0.0023667	   -9.8978	  -59.1674	
   -9.8486	-0.00234535	  -9.86631	-0.00238109	  -9.84936	-0.00237916	  -9.85476	-0.00236853	  -9.85476	  -59.2133	
  -9.80509	-0.00234737	  -9.82298	-0.0023827	  -9.80599	-0.00238088	  -9.81136	-0.00237032	  -9.81136	  -59.2579	
  -9.76143	-0.00234936	  -9.77944	-0.00238424	  -9.76248	-0.00238247	  -9.76778	-0.00237203	  -9.76778	  -59.3006	
  -9.71724	-0.00235131	   -9.7353	-0.00238573	  -9.71899	-0.00238389	  -9.72384	-0.00237364	  -9.72384	  -59.3411	
  -9.67259	-0.00235315	  -9.69065	-0.00238716	   -9.6754	-0.00238517	  -9.67955	-0.00237516	  -9.67955	   -59.379	
  -9.62768	-0.00235486	   -9.6457	-0.00238855	  -9.63148	-0.00238637	  -9.63495	-0.00237659	  -9.63495	  -59.4148	
  -9.58257	-0.00235642	  -9.60034	-0.00238987	  -9.58713	-0.00238756	  -9.59001	-0.00237795	  -9.59001	  -59.4488	
  -9.53701	-0.0023579	  -9.55466	-0.00239111	  -9.54173	-0.00238879	  -9.54447	-0.00237926	  -9.54447	  -59.4816	
  -9.49108	-0.00235933	  -9.50856	-0.00239225	  -9.49622	-0.00239001	  -9.49862	-0.00238053	  -9.49862	  -59.5133	
  -9.44498	-0.00236078	  -9.46212	-0.0023933	  -9.44996	-0.00239116	  -9.45235	-0.00238175	  -9.45235	  -59.5437	
  -9.39848	-0.00236222	  -9.41512	-0.0023943	  -9.40358	-0.00239217	  -9.40573	-0.00238289	  -9.40573	  -59.5724	
   -9.3515	-0.00236361	  -9.36765	-0.00239524	  -9.35686	-0.00239303	  -9.35867	-0.00238396	  -9.35867	   -59.599	
  -9.30427	-0.00236487	  -9.31991	-0.00239616	  -9.30999	-0.00239378	  -9.31139	-0.00238493	  -9.31139	  -59.6234	
  -9.25669	-0.00236598	  -9.27196	-0.00239701	  -9.26206	-0.0023945	  -9.26357	-0.00238583	  -9.26357	  -59.6457	
  -9.20869	-0.00236695	  -9.22345	-0.00239776	  -9.21403	-0.00239522	  -9.21539	-0.00238665	  -9.21539	  -59.6662	
  -9.16036	-0.00236787	  -9.17461	-0.0023984	  -9.16497	-0.00239595	  -9.16665	-0.00238741	  -9.16665	  -59.6852	
  -9.11188	-0.00236878	   -9.1255	-0.00239891	  -9.11638	-0.00239664	  -9.11792	-0.00238811	  -9.11792	  -59.7027	
  -9.06291	-0.00236971	   -9.0759	-0.00239936	  -9.06663	-0.00239722	  -9.06848	-0.00238876	  -9.06848	  -59.7191	
  -9.01353	-0.00237067	  -9.02592	-0.00239978	  -9.01749	-0.00239768	  -9.01898	-0.00238938	  -9.01898	  -59.7344	
   -8.9638	-0.00237158	  -8.97561	-0.0024002	  -8.96746	-0.00239799	  -8.96896	-0.00238992	  -8.96896	  -59.7481	
  -8.91368	-0.00237233	  -8.92479	-0.00240062	  -8.91719	-0.00239822	  -8.91855	-0.00239039	  -8.91855	  -59.7598	
   -8.8631	-0.00237286	  -8.87354	-0.00240099	  -8.86608	-0.00239842	  -8.86757	-0.00239076	  -8.86757	  -59.7689	
  -8.81229	-0.00237318	   -8.8221	-0.00240125	  -8.81505	-0.00239861	  -8.81648	-0.00239101	  -8.81648	  -59.7753	
  -8.76117	-0.0023734	  -8.77038	-0.00240136	  -8.76348	-0.00239879	  -8.76501	-0.00239118	  -8.76501	  -59.7795	
  -8.70968	-0.00237363	  -8.71819	-0.00240134	  -8.71199	-0.0023989	  -8.71329	-0.00239129	  -8.71329	  -59.7821	
  -8.65791	-0.00237396	  -8.66576	-0.00240123	  -8.65996	-0.0023989	  -8.66121	-0.00239136	  -8.66121	  -59.7841	
  -8.60579	-0.00237439	  -8.61302	-0.00240111	  -8.60775	-0.00239877	  -8.60885	-0.00239142	  -8.60885	  -59.7856	
   -8.5534	-0.00237484	  -8.55978	 -0.002401	  -8.55502	-0.00239852	  -8.55607	-0.00239145	  -8.55607	  -59.7864	
  -8.50069	-0.00237519	  -8.50628	-0.00240086	  -8.50215	-0.00239821	  -8.50304	-0.00239142	  -8.50304	  -59.7855	
  -8.44773	-0.00237534	   -8.4526	-0.00240065	  -8.44878	-0.00239786	   -8.4497	-0.00239128	   -8.4497	  -59.7821	
  -8.39447	-0.00237528	  -8.39853	-0.00240032	  -8.39489	-0.0023975	  -8.39596	-0.00239103	  -8.39596	  -59.7757	
  -8.34084	-0.00237505	  -8.34417	-0.00239987	  -8.34057	-0.00239709	  -8.34186	-0.00239067	  -8.34186	  -59.7668	
  -8.28694	-0.00237478	   -8.2896	-0.00239933	  -8.28607	-0.00239662	  -8.28753	-0.00239024	  -8.28753	  -59.7561	
  -8.23272	-0.00237454	  -8.23463	-0.00239871	  -8.23131	-0.00239603	  -8.23288	-0.00238976	  -8.23288	   -59.744	
  -8.17812	-0.00237437	  -8.17935	-0.00239806	  -8.17611	-0.00239532	  -8.17786	-0.00238925	  -8.17786	  -59.7313	
  -8.12324	-0.0023742	  -8.12386	-0.00239738	  -8.12043	-0.00239452	  -8.12251	-0.0023887	  -8.12251	  -59.7175	
  -8.06789	-0.00237396	  -8.06784	-0.0023967	  -8.06466	-0.00239367	   -8.0668	-0.00238811	   -8.0668	  -59.7028	
  -8.01218	-0.00237354	  -8.01056	-0.00239601	  -8.00859	-0.00239283	  -8.01044	-0.00238746	  -8.01044	  -59.6865	
  -7.95606	-0.00237294	  -7.95303	-0.00239527	  -7.95217	-0.00239201	  -7.95376	-0.00238674	  -7.95376	  -59.6685	
  -7.89964	-0.00237219	  -7.89439	-0.00239447	  -7.89524	-0.00239115	  -7.89642	-0.00238594	  -7.89642	  -59.6484	
  -7.84287	-0.00237138	  -7.83671	-0.00239354	  -7.83791	-0.0023902	  -7.83916	-0.00238504	  -7.83916	   -59.626	
  -7.78585	-0.00237059	  -7.77807	-0.00239249	  -7.78027	-0.0023891	   -7.7814	-0.00238406	   -7.7814	  -59.6015	
   -7.7284	-0.00236986	  -7.72028	-0.0023913	   -7.7223	-0.00238783	  -7.72366	 -0.002383	  -7.72366	   -59.575	
  -7.67063	-0.00236916	  -7.66237	-0.00239001	  -7.66408	-0.00238645	  -7.66569	-0.00238187	  -7.66569	  -59.5468	
  -7.61263	-0.00236841	  -7.60497	-0.00238866	  -7.60546	-0.00238502	  -7.60768	-0.0023807	  -7.60768	  -59.5174	
  -7.55409	-0.00236754	  -7.54675	-0.00238729	  -7.54639	-0.00238361	  -7.54908	-0.00237948	  -7.54908	  -59.4869	
  -7.49528	-0.00236649	  -7.48853	-0.00238594	  -7.48714	-0.00238223	  -7.49032	-0.00237822	  -7.49032	  -59.4555	
  -7.43628	-0.00236525	  -7.42944	-0.00238458	  -7.42765	-0.00238086	  -7.43112	-0.0023769	  -7.43112	  -59.4225	
  -7.37678	-0.0023639	  -7.37017	-0.00238318	  -7.36777	-0.00237942	  -7.37157	-0.0023755	  -7.37157	  -59.3874	
  -7.31705	-0.00236249	  -7.30986	-0.00238166	  -7.30772	-0.00237784	  -7.31154	 -0.002374	  -7.31154	  -59.3499	
  -7.25703	-0.00236112	   -7.2499	-0.00238002	  -7.24734	-0.00237609	  -7.25142	-0.00237241	  -7.25142	  -59.3103	
  -7.19658	-0.0023598	  -7.18926	-0.00237826	   -7.1866	-0.00237422	  -7.19081	-0.00237076	  -7.19081	   -59.269	
  -7.13593	-0.00235849	  -7.12875	-0.00237642	  -7.12562	-0.00237229	   -7.1301	-0.00236907	   -7.1301	  -59.2266	
  -7.07505	-0.00235709	  -7.06764	-0.00237456	  -7.06449	-0.00237036	  -7.06906	-0.00236734	  -7.06906	  -59.1834	
  -7.01378	-0.00235552	  -7.00646	-0.00237269	  -7.00304	-0.00236845	  -7.00776	-0.00236555	  -7.00776	  -59.1388	
  -6.95237	-0.00235376	   -6.9449	-0.0023708	  -6.94153	-0.00236653	  -6.94627	-0.0023637	  -6.94627	  -59.0924	
   -6.8905	-0.00235184	  -6.88321	-0.00236886	  -6.87977	-0.00236453	  -6.88449	-0.00236174	  -6.88449	  -59.0436	
  -6.82831	-0.00234988	  -6.82122	-0.00236683	  -6.81773	-0.00236239	  -6.82242	-0.0023597	  -6.82242	  -58.9925	
  -6.76605	-0.00234795	  -6.75918	-0.0023647	  -6.75566	-0.00236011	   -6.7603	-0.00235759	   -6.7603	  -58.9397	
  -6.70353	-0.00234608	  -6.69677	-0.00236245	  -6.69325	-0.00235772	  -6.69785	-0.00235542	  -6.69785	  -58.8855	
  -6.64074	-0.00234424	  -6.63412	-0.00236013	   -6.6306	-0.00235529	  -6.63515	-0.00235322	  -6.63515	  -58.8305	
  -6.57778	-0.0023423	  -6.57119	-0.00235777	  -6.56771	-0.00235287	  -6.57222	-0.00235098	  -6.57222	  -58.7745	
  -6.51449	-0.00234019	  -6.50823	-0.00235539	  -6.50439	-0.00235047	  -6.50904	-0.00234868	  -6.50904	  -58.7171	
  -6.45099	-0.00233789	  -6.44508	-0.00235301	  -6.44092	-0.00234803	  -6.44567	-0.00234631	  -6.44567	  -58.6578	
  -6.38739	-0.00233545	  -6.38197	-0.00235061	  -6.37728	-0.00234549	  -6.38221	-0.00234385	  -6.38221	  -58.5962	
  -6.32339	-0.00233297	  -6.31844	-0.00234814	  -6.31328	-0.00234279	  -6.31837	-0.0023413	  -6.31837	  -58.5325	
  -6.25924	-0.00233051	  -6.25477	-0.00234556	   -6.2492	-0.00233996	   -6.2544	-0.00233868	   -6.2544	   -58.467	
  -6.19479	-0.0023281	  -6.19064	-0.00234284	   -6.1846	-0.00233705	  -6.19001	 -0.002336	  -6.19001	  -58.3999	
  -6.13002	-0.00232568	  -6.12633	-0.00233999	  -6.11974	-0.00233411	  -6.12537	-0.00233326	  -6.12537	  -58.3316	
  -6.06506	-0.00232319	  -6.06182	-0.00233708	  -6.05476	-0.00233118	  -6.06055	-0.00233048	  -6.06055	  -58.2621	
  -5.99961	-0.00232054	  -5.99708	-0.00233416	  -5.98935	-0.00232825	  -5.99534	-0.00232765	  -5.99534	  -58.1912	
  -5.93408	-0.00231771	  -5.93209	-0.00233127	  -5.92378	-0.00232526	  -5.92998	-0.00232475	  -5.92998	  -58.1186	
  -5.86832	-0.00231477	  -5.86683	-0.00232838	  -5.85803	-0.00232216	  -5.86439	-0.00232177	  -5.86439	  -58.0442	
   -5.8023	-0.00231178	  -5.80117	-0.00232542	  -5.79195	-0.00231894	  -5.79847	-0.00231871	  -5.79847	  -57.9678	
  -5.73615	-0.00230881	  -5.73536	-0.00232233	   -5.7258	-0.00231561	  -5.73243	-0.00231558	  -5.73243	  -57.8896	
  -5.66971	-0.00230587	  -5.66952	-0.00231909	  -5.65928	-0.0023122	  -5.66617	-0.00231239	  -5.66617	  -57.8097	
  -5.60297	-0.00230293	  -5.60334	-0.00231575	  -5.59253	-0.00230878	  -5.59961	-0.00230915	  -5.59961	  -57.7288	
   -5.5362	-0.0022999	  -5.53696	-0.00231241	  -5.52566	-0.00230534	  -5.53294	-0.00230588	  -5.53294	   -57.647	
   -5.4691	-0.00229673	  -5.47023	-0.00230909	  -5.45854	-0.00230187	  -5.46595	-0.00230256	  -5.46595	  -57.5641	
   -5.4018	-0.00229341	  -5.40328	-0.00230578	  -5.39127	-0.00229834	  -5.39878	-0.00229918	  -5.39878	  -57.4794	
  -5.33457	-0.00228998	   -5.3361	-0.0023024	  -5.32358	-0.00229471	  -5.33142	-0.00229569	  -5.33142	  -57.3924	
  -5.26696	-0.0022865	  -5.26854	-0.00229887	  -5.25561	-0.00229097	   -5.2637	-0.00229211	   -5.2637	  -57.3028	
  -5.19924	-0.00228302	  -5.20088	-0.00229514	  -5.18762	-0.00228713	  -5.19591	-0.00228843	  -5.19591	  -57.2108	
  -5.13126	-0.00227955	  -5.13311	-0.00229127	  -5.11918	-0.00228323	  -5.12785	-0.00228468	  -5.12785	  -57.1171	
  -5.06302	-0.00227605	  -5.06505	-0.00228734	  -5.05059	-0.0022793	  -5.05955	-0.0022809	  -5.05955	  -57.0224	
  -4.99464	-0.00227247	  -4.99699	-0.00228346	  -4.98195	-0.00227534	  -4.99119	-0.00227709	  -4.99119	  -56.9272	
  -4.92611	-0.00226876	  -4.92849	-0.00227965	  -4.91298	-0.00227135	  -4.92253	-0.00227325	  -4.92253	  -56.8313	
  -4.85743	-0.00226494	  -4.85984	-0.00227586	  -4.84382	-0.00226729	   -4.8537	-0.00226936	   -4.8537	  -56.7341	
  -4.78857	-0.00226102	  -4.79088	 -0.002272	  -4.77433	-0.00226313	  -4.78459	-0.00226538	  -4.78459	  -56.6346	
   -4.7194	-0.00225704	  -4.72162	-0.00226796	  -4.70465	-0.00225888	  -4.71522	-0.00226129	  -4.71522	  -56.5323	
  -4.65006	-0.00225305	  -4.65234	-0.00226371	  -4.63505	-0.00225453	  -4.64581	-0.0022571	  -4.64581	  -56.4274	
  -4.58039	-0.00224905	  -4.58274	-0.00225929	  -4.56522	-0.00225013	  -4.57612	-0.00225282	  -4.57612	  -56.3206	
  -4.51056	-0.00224504	  -4.51296	-0.00225478	  -4.49517	-0.00224569	  -4.50623	-0.00224851	  -4.50623	  -56.2126	
  -4.44067	-0.00224095	  -4.44314	-0.0022503	  -4.42517	-0.00224123	  -4.43633	-0.00224416	  -4.43633	   -56.104	
  -4.37059	-0.00223676	  -4.37299	-0.00224586	  -4.35506	-0.00223673	  -4.36621	-0.00223978	  -4.36621	  -55.9946	
  -4.30045	-0.00223244	  -4.30264	-0.00224144	  -4.28496	-0.00223215	  -4.29602	-0.00223534	  -4.29602	  -55.8836	
  -4.22995	-0.00222801	  -4.23184	-0.00223695	  -4.21459	-0.00222747	  -4.22546	-0.00223081	  -4.22546	  -55.7703	
  -4.15926	-0.0022235	  -4.16086	-0.00223233	  -4.14407	-0.00222269	  -4.15473	-0.00222618	  -4.15473	  -55.6544	
  -4.08836	-0.00221895	  -4.08985	-0.00222753	  -4.07355	-0.00221783	  -4.08392	-0.00222144	  -4.08392	   -55.536	
  -4.01712	-0.0022144	  -4.01865	-0.00222259	  -4.00273	-0.00221291	  -4.01284	-0.00221663	  -4.01284	  -55.4158	
  -3.94584	-0.00220983	  -3.94741	-0.00221756	   -3.9319	-0.00220794	  -3.94172	-0.00221178	  -3.94172	  -55.2944	
  -3.87435	-0.0022052	  -3.87584	-0.00221253	  -3.86091	-0.00220294	  -3.87037	-0.00220689	  -3.87037	  -55.1723	
  -3.80267	-0.00220048	  -3.80396	-0.00220753	  -3.78974	-0.00219789	  -3.79879	-0.00220197	  -3.79879	  -55.0492	
  -3.73094	-0.00219564	  -3.73204	-0.00220253	  -3.71854	-0.00219276	  -3.72717	-0.00219698	  -3.72717	  -54.9244	
    -3.659	-0.00219067	  -3.65981	-0.00219747	  -3.64702	-0.00218753	  -3.65528	-0.00219189	  -3.65528	  -54.7972	
    -3.587	-0.00218562	  -3.58756	-0.00219226	  -3.57533	-0.0021822	   -3.5833	-0.0021867	   -3.5833	  -54.6674	
   -3.5148	-0.00218053	  -3.51527	-0.00218689	  -3.50348	-0.0021768	  -3.51118	-0.00218141	  -3.51118	  -54.5352	
   -3.4424	-0.00217544	  -3.44281	-0.00218138	  -3.43145	-0.00217135	  -3.43888	-0.00217606	  -3.43888	  -54.4014	
  -3.37008	-0.00217033	   -3.3703	-0.0021758	  -3.35939	-0.00216586	  -3.36659	-0.00217066	  -3.36659	  -54.2666	
  -3.29754	-0.00216516	  -3.29748	-0.00217021	   -3.2873	-0.00216035	  -3.29411	-0.00216524	  -3.29411	   -54.131	
  -3.22495	-0.00215987	  -3.22463	-0.00216464	  -3.21516	-0.0021548	  -3.22158	-0.00215977	  -3.22158	  -53.9943	
  -3.15214	-0.00215444	  -3.15161	-0.00215905	  -3.14296	-0.00214917	   -3.1489	-0.00215422	   -3.1489	  -53.8555	
  -3.07927	-0.00214887	  -3.07856	-0.00215338	  -3.07057	-0.00214344	  -3.07613	-0.00214856	  -3.07613	  -53.7141	
  -3.00634	-0.00214321	  -3.00561	-0.00214758	  -2.99812	-0.0021376	  -3.00336	-0.00214279	  -3.00336	  -53.5698	
  -2.93347	-0.00213753	  -2.93247	-0.0021416	  -2.92548	-0.00213167	  -2.93047	-0.00213693	  -2.93047	  -53.4234	
  -2.86051	-0.00213188	  -2.85929	-0.0021355	  -2.85263	-0.00212568	  -2.85748	-0.00213102	  -2.85748	  -53.2755	
  -2.78747	-0.00212626	  -2.78592	-0.00212933	  -2.77961	-0.00211964	  -2.78433	-0.00212508	  -2.78433	  -53.1269	
  -2.71421	-0.00212061	  -2.71237	-0.00212316	   -2.7064	-0.00211353	  -2.71099	-0.0021191	  -2.71099	  -52.9775	
  -2.64072	-0.00211485	  -2.63865	-0.00211699	  -2.63316	-0.00210733	  -2.63751	-0.00211306	  -2.63751	  -52.8264	
  -2.56691	-0.00210892	  -2.56464	-0.00211079	  -2.55974	-0.00210103	  -2.56376	-0.00210691	  -2.56376	  -52.6728	
  -2.49305	-0.00210282	  -2.49062	-0.00210451	  -2.48629	-0.00209464	  -2.48999	-0.00210066	  -2.48999	  -52.5164	
  -2.41928	-0.0020966	   -2.4166	-0.00209809	  -2.41281	-0.00208821	  -2.41623	-0.0020943	  -2.41623	  -52.3575	
  -2.34532	-0.00209034	  -2.34242	-0.00209152	  -2.33916	-0.00208177	   -2.3423	-0.00208788	   -2.3423	  -52.1969	
  -2.27131	-0.00208408	  -2.26824	-0.00208483	   -2.2656	-0.0020753	  -2.26838	-0.0020814	  -2.26838	  -52.0351	
  -2.19711	-0.00207784	  -2.19392	-0.00207807	  -2.19173	-0.00206875	  -2.19425	-0.00207489	  -2.19425	  -51.8722	
  -2.12288	-0.00207156	  -2.11959	-0.00207129	  -2.11784	-0.00206207	   -2.1201	-0.00206831	   -2.1201	  -51.7077	
   -2.0486	-0.00206519	  -2.04512	-0.00206451	  -2.04364	-0.00205523	  -2.04579	-0.00206165	  -2.04579	  -51.5411	
  -1.97415	-0.00205857	  -1.97052	-0.00205768	  -1.96929	-0.00204812	  -1.97132	-0.00205479	  -1.97132	  -51.3697	
  -1.89981	-0.00205184	  -1.89592	-0.00205075	  -1.89495	-0.00204101	  -1.89689	-0.00204787	  -1.89689	  -51.1966	
  -1.82516	-0.00204497	  -1.82107	-0.00204369	  -1.82046	-0.00203396	  -1.82223	-0.00204087	  -1.82223	  -51.0218	
  -1.75049	-0.00203801	  -1.74624	-0.0020365	  -1.74598	-0.00202697	  -1.74757	-0.00203383	  -1.74757	  -50.8457	
