# User: ACHyster
# File name: C:/ACHYSTER/ACHyster SENS/SHAMS/CoFe2O4-1gl-water-Zero Glycerol- Sens-07-03-2023/CoFe2O4-1gl-water-100-300kHz- 24 kAm -Advance-14-03-20230009#1~CoFe2O4-1gl-water-zero Glycerol- 10_100F- 24kAm -Sens-07-03-20230007#1.txt~.txt
# Saved at: ma. mar. 14 18:26:18 2023
# Hyster Loop (3 iterations). Intensity: 24.0 kA/m; Tuned frequency: 198.9 kHz
# Units x axis: H (kA/m)
# Units y axis: "Repeats y" & "Average y" M (10^(-3)Am^2); "Mass avg y" normalized mass M (Am^2/kg)
# Magnetic mass: 4e-05 g
# Parameter      	Repeat   1	Repeat   2	Repeat   3	Average   	Sigma     
# H_C (kA/m)     	      22.8	      22.1	      22.8	      22.6	       0.3
# M_R (Am^2/kg)  	      38.6	      37.1	      39.0	      38.2	       0.8
# M_max (Am^2/kg)	      39.7	      39.0	      40.0	      39.6	       0.4
# Area (mJ/kg)   	    3588.4	    3468.6	    3634.4	    3563.8	      69.9
# SAR (W/g)      	     713.9	     690.1	     723.1	     709.0	      13.9
#Repeat 1 x	Repeat 1 y	Repeat 2 x	Repeat 2 y	Repeat 3 x	Repeat 3 y	Average x 	Average y 	Mass avg x 	Mass avg y 
   -3.3748	-0.00157684	  -3.52575	-0.00154528	  -3.54115	-0.00158725	  -3.48057	-0.00156979	  -3.48057	  -39.2447	
  -3.06667	-0.00157493	  -3.21536	-0.0015424	  -3.23074	-0.00158527	  -3.17092	-0.00156753	  -3.17092	  -39.1883	
  -2.75808	-0.00157277	  -2.90864	-0.00153939	  -2.92255	 -0.001583	  -2.86309	-0.00156506	  -2.86309	  -39.1264	
  -2.45316	-0.00157043	  -2.60332	-0.00153615	   -2.6127	-0.00158081	  -2.55639	-0.00156246	  -2.55639	  -39.0616	
  -2.14583	-0.00156775	  -2.29561	-0.00153267	  -2.30171	-0.00157849	  -2.24772	-0.00155964	  -2.24772	  -38.9909	
  -1.83861	-0.00156489	  -1.98898	 -0.001529	  -1.99101	-0.00157595	  -1.93953	-0.00155661	  -1.93953	  -38.9152	
  -1.53175	-0.00156177	  -1.68063	-0.00152496	  -1.68179	-0.00157308	  -1.63139	-0.00155327	  -1.63139	  -38.8318	
  -1.22447	-0.00155829	    -1.373	-0.00152049	  -1.37501	-0.0015697	  -1.32416	-0.00154949	  -1.32416	  -38.7373	
 -0.919917	-0.00155434	  -1.06432	-0.00151553	  -1.06958	-0.00156583	  -1.01794	-0.00154523	  -1.01794	  -38.6308	
 -0.617856	-0.00154988	 -0.758797	-0.00150989	 -0.763603	-0.00156179	 -0.713419	-0.00154052	 -0.713419	  -38.5129	
 -0.315206	-0.00154491	 -0.454248	-0.00150366	 -0.457366	-0.00155725	  -0.40894	-0.00153527	  -0.40894	  -38.3818	
-0.0131958	-0.0015396	 -0.150718	-0.00149716	 -0.149239	-0.00155235	 -0.104384	-0.0015297	 -0.104384	  -38.2426	
  0.290008	-0.00153422	  0.151762	-0.0014906	  0.158316	-0.00154755	  0.200029	-0.00152412	  0.200029	   -38.103	
  0.593071	-0.00152893	  0.456015	-0.0014844	  0.465145	-0.00154268	  0.504744	-0.00151867	  0.504744	  -37.9667	
  0.894899	-0.00152392	  0.760622	-0.00147864	  0.771129	-0.0015383	  0.808883	-0.00151362	  0.808883	  -37.8406	
   1.19457	-0.00151922	   1.06437	-0.00147322	   1.07998	-0.00153455	   1.11297	 -0.001509	   1.11297	   -37.725	
   1.49514	-0.00151464	   1.36814	-0.00146786	    1.3872	-0.00153099	   1.41683	-0.0015045	   1.41683	  -37.6124	
    1.8001	-0.00150988	   1.67365	-0.00146211	    1.6947	-0.00152745	   1.72282	-0.00149981	   1.72282	  -37.4954	
   2.10474	-0.00150459	    1.9804	-0.00145574	   2.00124	-0.00152354	   2.02879	-0.00149462	   2.02879	  -37.3656	
    2.4108	-0.00149849	   2.28416	-0.00144856	   2.30768	-0.00151882	   2.33421	-0.00148862	   2.33421	  -37.2156	
   2.71688	-0.00149153	   2.58995	-0.00144058	   2.61382	-0.00151335	   2.64022	-0.00148182	   2.64022	  -37.0455	
   3.01992	-0.00148384	   2.89249	-0.00143192	   2.91758	-0.00150712	   2.94333	-0.00147429	   2.94333	  -36.8573	
   3.32591	-0.00147563	   3.19403	-0.00142267	   3.21916	-0.00150017	   3.24637	-0.00146616	   3.24637	  -36.6539	
   3.63131	-0.00146714	   3.50024	-0.00141295	   3.52349	-0.00149274	   3.55168	-0.00145761	   3.55168	  -36.4402	
   3.93315	-0.00145845	    3.8007	-0.00140294	   3.82706	-0.00148491	   3.85364	-0.00144877	   3.85364	  -36.2192	
   4.23563	-0.00144957	   4.10375	-0.00139277	   4.12793	-0.00147671	   4.15577	-0.00143968	   4.15577	  -35.9921	
   4.53847	-0.00144056	   4.40687	-0.0013826	   4.43015	-0.00146832	    4.4585	-0.00143049	    4.4585	  -35.7624	
   4.83955	-0.00143154	   4.70609	-0.00137259	   4.72954	-0.00145983	   4.75839	-0.00142132	   4.75839	   -35.533	
   5.13804	-0.0014226	   5.00759	-0.00136277	   5.02645	-0.00145133	   5.05736	-0.00141223	   5.05736	  -35.3059	
   5.43705	-0.0014138	   5.30894	-0.0013532	   5.32304	-0.00144295	   5.35635	-0.00140332	   5.35635	  -35.0829	
   5.73167	-0.00140499	   5.60718	-0.00134355	   5.61551	-0.00143461	   5.65146	-0.00139438	   5.65146	  -34.8596	
   6.02535	-0.00139593	   5.90362	-0.00133369	   5.91014	-0.00142609	   5.94637	-0.00138524	   5.94637	   -34.631	
   6.32199	-0.00138636	   6.20224	-0.00132337	   6.20461	-0.00141723	   6.24295	-0.00137565	   6.24295	  -34.3913	
   6.61436	-0.00137635	   6.50068	-0.00131228	   6.49793	-0.00140774	   6.53766	-0.00136545	   6.53766	  -34.1364	
   6.90597	-0.0013657	   6.79886	-0.00130061	   6.79118	-0.00139749	     6.832	-0.0013546	     6.832	   -33.865	
   7.19502	-0.00135455	   7.09763	-0.00128836	   7.08148	-0.00138659	   7.12471	-0.00134317	   7.12471	  -33.5791	
   7.48001	-0.00134313	   7.39204	-0.00127545	   7.37023	-0.00137502	   7.41409	-0.0013312	   7.41409	  -33.2799	
   7.76164	-0.0013314	    7.6865	-0.00126218	   7.65956	-0.00136285	   7.70257	-0.00131881	   7.70257	  -32.9702	
    8.0453	-0.00131954	   7.97905	-0.0012485	    7.9494	-0.0013504	   7.99125	-0.00130615	   7.99125	  -32.6538	
   8.32788	-0.00130767	   8.26994	-0.00123466	   8.23774	-0.00133767	   8.27852	-0.00129333	   8.27852	  -32.3333	
   8.60964	-0.0012957	   8.55941	-0.00122075	   8.52486	-0.00132469	   8.56464	-0.00128038	   8.56464	  -32.0095	
   8.89366	-0.0012837	   8.85054	-0.00120675	   8.80719	-0.00131162	   8.85046	-0.00126736	   8.85046	  -31.6839	
   9.17491	-0.00127175	   9.14396	-0.00119264	   9.09125	-0.00129835	    9.1367	-0.00125425	    9.1367	  -31.3562	
   9.45392	-0.00125972	   9.43357	-0.00117822	   9.38062	-0.00128501	   9.42271	-0.00124098	   9.42271	  -31.0246	
   9.73308	-0.00124759	   9.72377	-0.00116365	   9.66687	-0.00127168	   9.70791	-0.00122764	   9.70791	   -30.691	
   10.0106	-0.00123524	   10.0145	-0.00114897	   9.95432	-0.00125826	   9.99313	-0.00121416	   9.99313	  -30.3539	
   10.2869	-0.00122244	   10.3017	-0.00113419	   10.2438	-0.00124467	   10.2775	-0.00120043	   10.2775	  -30.0109	
   10.5605	-0.00120907	   10.5862	-0.00111918	   10.5301	-0.00123081	   10.5589	-0.00118635	   10.5589	  -29.6588	
   10.8348	-0.00119505	   10.8664	-0.00110363	   10.8111	-0.00121649	   10.8374	-0.00117172	   10.8374	  -29.2931	
   11.1052	-0.00118036	   11.1414	-0.00108731	   11.0886	-0.00120166	   11.1117	-0.00115644	   11.1117	   -28.911	
   11.3763	-0.00116518	   11.4158	-0.00107018	   11.3614	-0.00118637	   11.3845	-0.00114058	   11.3845	  -28.5144	
   11.6435	-0.00114967	   11.6882	-0.00105243	   11.6344	-0.00117065	   11.6554	-0.00112425	   11.6554	  -28.1063	
   11.9088	 -0.001134	    11.959	-0.00103437	   11.9039	-0.00115476	   11.9239	-0.00110771	   11.9239	  -27.6927	
   12.1697	-0.00111823	   12.2268	-0.00101625	   12.1726	-0.00113843	   12.1897	-0.00109097	   12.1897	  -27.2743	
   12.4285	-0.00110232	   12.4925	-0.00099805	   12.4352	-0.00112175	   12.4521	-0.00107404	   12.4521	   -26.851	
   12.6858	-0.00108621	   12.7566	-0.000979645	   12.6988	-0.00110493	   12.7137	-0.00105693	   12.7137	  -26.4232	
   12.9414	-0.00106989	   13.0169	-0.000961027	   12.9578	-0.00108777	    12.972	-0.00103956	    12.972	  -25.9891	
   13.1968	-0.00105338	   13.2716	-0.000942278	   13.2153	-0.00107055	   13.2279	-0.00102207	   13.2279	  -25.5518	
    13.447	-0.00103682	   13.5229	-0.000923631	    13.471	-0.0010532	   13.4803	-0.00100455	   13.4803	  -25.1137	
   13.6951	-0.00102019	   13.7729	-0.00090519	   13.7246	-0.00103559	   13.7308	-0.000986991	   13.7308	  -24.6748	
   13.9439	-0.00100343	   14.0222	-0.00088686	   13.9751	-0.00101779	   13.9804	-0.000969359	   13.9804	   -24.234	
   14.1872	-0.000986284	   14.2677	-0.000868395	   14.2234	-0.00099968	   14.2261	-0.000951453	   14.2261	  -23.7863	
   14.4312	-0.000968627	   14.5125	-0.000849562	   14.4686	-0.000981201	   14.4708	-0.00093313	   14.4708	  -23.3282	
   14.6754	-0.000950487	   14.7592	-0.000830263	   14.7146	-0.00096246	   14.7164	-0.000914403	   14.7164	  -22.8601	
   14.9157	-0.000931958	   15.0005	-0.000810522	   14.9552	-0.000943487	   14.9571	-0.000895322	   14.9571	  -22.3831	
   15.1571	-0.000913282	   15.2397	-0.000790403	   15.1938	-0.000924251	   15.1969	-0.000875978	   15.1969	  -21.8995	
   15.3982	-0.000894566	   15.4806	-0.00076998	   15.4332	-0.000904857	   15.4373	-0.000856468	   15.4373	  -21.4117	
   15.6358	-0.000875766	   15.7151	-0.000749306	   15.6684	-0.000885296	   15.6731	-0.000836789	   15.6731	  -20.9197	
   15.8712	-0.000856833	   15.9469	-0.000728455	   15.9025	-0.000865535	   15.9069	-0.000816941	   15.9069	  -20.4235	
   16.1064	-0.000837727	    16.178	-0.000707522	   16.1346	-0.000845651	   16.1397	-0.000796967	   16.1397	  -19.9242	
   16.3393	-0.000818486	   16.4047	-0.000686665	   16.3601	-0.000825632	    16.368	-0.000776927	    16.368	  -19.4232	
    16.572	-0.000799194	   16.6284	-0.000665965	   16.5874	-0.000805429	   16.5959	-0.000756863	   16.5959	  -18.9216	
   16.8023	-0.000779787	   16.8542	-0.000645394	   16.8125	-0.000785096	    16.823	-0.000736759	    16.823	   -18.419	
   17.0296	-0.000760513	   17.0771	-0.000624899	   17.0307	-0.000764599	   17.0458	-0.00071667	   17.0458	  -17.9168	
   17.2514	-0.000741127	   17.2973	-0.000604431	   17.2461	-0.00074387	   17.2649	-0.000696476	   17.2649	  -17.4119	
   17.4693	-0.000721454	   17.5172	-0.00058393	   17.4619	-0.000723018	   17.4828	-0.000676134	   17.4828	  -16.9033	
   17.6804	-0.000701806	   17.7348	-0.00056335	   17.6752	-0.000702053	   17.6968	-0.000655736	   17.6968	  -16.3934	
   17.8894	-0.000681769	   17.9486	-0.000542603	   17.8837	-0.000680898	   17.9072	-0.00063509	   17.9072	  -15.8773	
   18.0959	-0.000661667	   18.1603	-0.000521586	   18.0911	-0.000659646	   18.1158	-0.0006143	   18.1158	  -15.3575	
   18.2976	-0.000641757	   18.3683	-0.000500227	   18.2948	-0.000638269	   18.3202	-0.000593418	   18.3202	  -14.8354	
   18.4965	-0.000621806	   18.5714	-0.000478544	   18.4985	-0.000616638	   18.5221	-0.000572329	   18.5221	  -14.3082	
   18.6922	-0.000601949	   18.7726	-0.000456646	   18.6966	-0.000594846	   18.7204	-0.000551147	   18.7204	  -13.7787	
   18.8865	-0.00058194	   18.9723	-0.000434672	   18.8941	-0.000573064	   18.9176	-0.000529892	   18.9176	  -13.2473	
   19.0771	-0.000561563	   19.1682	-0.000412712	   19.0904	-0.000551193	   19.1119	-0.000508489	   19.1119	  -12.7122	
   19.2668	-0.000540934	   19.3583	-0.000390797	   19.2831	-0.000529508	   19.3027	-0.00048708	   19.3027	   -12.177	
   19.4542	-0.000520129	   19.5448	-0.000368902	   19.4721	-0.000507962	   19.4904	-0.000465664	   19.4904	  -11.6416	
   19.6391	-0.000499137	   19.7278	-0.000347006	   19.6594	-0.000486312	   19.6754	-0.000444152	   19.6754	  -11.1038	
   19.8233	-0.000478163	   19.9073	-0.000325161	    19.839	-0.000464606	   19.8565	-0.000422643	   19.8565	  -10.5661	
   20.0045	-0.000457232	   20.0853	-0.000303453	   20.0154	-0.000442685	   20.0351	-0.000401123	   20.0351	  -10.0281	
   20.1798	-0.000436171	   20.2598	-0.000281916	   20.1935	-0.000420478	    20.211	-0.000379522	    20.211	  -9.48805	
   20.3508	-0.000415068	    20.429	-0.000260515	   20.3659	-0.000398211	   20.3819	-0.000357931	   20.3819	  -8.94828	
   20.5178	-0.000393867	   20.5934	-0.000239066	   20.5333	-0.000375976	   20.5482	-0.000336303	   20.5482	  -8.40757	
    20.683	-0.000372507	   20.7555	-0.00021741	   20.6998	-0.00035364	   20.7128	-0.000314519	   20.7128	  -7.86298	
   20.8427	-0.000351084	   20.9116	-0.000195479	   20.8617	-0.000331472	    20.872	-0.000292678	    20.872	  -7.31696	
   21.0004	-0.000329557	   21.0625	-0.000173295	   21.0193	-0.000309392	   21.0274	-0.000270748	   21.0274	   -6.7687	
   21.1534	-0.000307879	   21.2109	-0.000150975	   21.1732	-0.000287328	   21.1792	-0.000248728	   21.1792	  -6.21819	
   21.3024	-0.000286095	   21.3553	-0.00012862	   21.3239	-0.000265464	   21.3272	-0.000226727	   21.3272	  -5.66817	
   21.4479	-0.00026419	    21.499	-0.000106321	   21.4718	-0.00024357	   21.4729	-0.000204694	   21.4729	  -5.11734	
   21.5867	-0.000242163	   21.6376	-8.4114e-05	   21.6135	-0.000221745	   21.6126	-0.000182674	   21.6126	  -4.56685	
     21.72	-0.000220137	     21.77	-6.19616e-05	   21.7502	-0.000200055	   21.7467	-0.000160718	   21.7467	  -4.01795	
   21.8488	-0.000198127	   21.8992	-3.98536e-05	   21.8807	-0.000178428	   21.8762	-0.000138803	   21.8762	  -3.47007	
   21.9721	-0.00017614	   22.0261	-1.78263e-05	   22.0063	-0.000156848	   22.0015	-0.000116938	   22.0015	  -2.92345	
    22.093	-0.000154222	   22.1464	4.10843e-06	   22.1271	-0.000135379	   22.1222	-9.5164e-05	   22.1222	   -2.3791	
   22.2122	-0.000132343	   22.2643	2.59385e-05	    22.245	-0.000113864	   22.2405	-7.3423e-05	   22.2405	  -1.83557	
   22.3266	-0.000110547	   22.3769	4.76453e-05	   22.3563	-9.22546e-05	   22.3532	-5.17189e-05	   22.3532	  -1.29297	
   22.4372	-8.89042e-05	   22.4854	6.92916e-05	    22.467	-7.06965e-05	   22.4632	-3.0103e-05	   22.4632	 -0.752575	
   22.5451	-6.73982e-05	   22.5908	9.09962e-05	   22.5759	-4.91066e-05	   22.5706	-8.50288e-06	   22.5706	 -0.212572	
   22.6484	-4.59253e-05	   22.6915	0.000112771	   22.6809	-2.74347e-05	   22.6736	1.3137e-05	   22.6736	  0.328425	
   22.7475	-2.43719e-05	   22.7859	0.000134588	   22.7859	-5.81404e-06	   22.7731	3.48006e-05	   22.7731	  0.870016	
   22.8465	-2.60601e-06	   22.8775	0.000156531	   22.8848	1.58939e-05	   22.8696	5.66064e-05	   22.8696	   1.41516	
   22.9411	1.93477e-05	   22.9656	0.000178391	   22.9764	3.77213e-05	   22.9611	7.84867e-05	   22.9611	   1.96217	
   23.0329	4.13639e-05	   23.0516	0.000200197	   23.0664	5.95786e-05	   23.0503	0.00010038	   23.0503	   2.50949	
    23.122	6.34867e-05	   23.1326	0.000221867	   23.1547	8.15107e-05	   23.1365	0.000122288	   23.1365	   3.05721	
   23.2029	8.5389e-05	   23.2105	0.000243198	   23.2358	0.000103463	   23.2164	0.000144017	   23.2164	   3.60042	
   23.2778	0.000107175	   23.2855	0.000264315	   23.3145	0.000125319	   23.2926	0.000165603	   23.2926	   4.14008	
   23.3505	0.000129104	   23.3601	0.000285213	   23.3891	0.000147088	   23.3666	0.000187135	   23.3666	   4.67837	
   23.4184	0.000150841	   23.4276	0.000305924	   23.4595	0.000168786	   23.4352	0.000208517	   23.4352	   5.21293	
   23.4796	0.000172667	    23.494	0.00032653	    23.529	0.000190418	   23.5009	0.000229872	   23.5009	   5.74679	
     23.54	0.000194421	   23.5586	0.000347077	   23.5933	0.000212062	    23.564	0.000251187	    23.564	   6.27966	
   23.5914	0.000215756	   23.6151	0.000367485	   23.6503	0.000233732	   23.6189	0.000272324	   23.6189	   6.80811	
   23.6393	0.000236847	   23.6699	0.00038787	   23.7033	0.000255352	   23.6708	0.000293357	   23.6708	   7.33391	
   23.6846	0.000257733	   23.7242	0.000408287	   23.7533	0.000276879	   23.7207	 0.0003143	   23.7207	    7.8575	
   23.7233	0.000278483	   23.7729	0.000428658	   23.7992	0.00029826	   23.7651	0.000335133	   23.7651	   8.37834	
   23.7579	0.000299295	    23.817	0.000449094	   23.8399	0.000319475	   23.8049	0.000355954	   23.8049	   8.89886	
   23.7905	0.000320214	   23.8568	0.000469438	   23.8778	0.000340617	   23.8417	0.000376756	   23.8417	    9.4189	
   23.8171	0.000341137	   23.8886	0.000489642	   23.9119	0.000361647	   23.8725	0.000397476	   23.8725	   9.93689	
   23.8385	0.000362072	   23.9153	0.000509696	   23.9394	0.000382696	   23.8977	0.000418155	   23.8977	   10.4539	
   23.8608	0.000382932	    23.941	0.000529464	   23.9611	0.000403692	   23.9209	0.000438696	   23.9209	   10.9674	
   23.8779	0.000403615	   23.9618	0.000549042	   23.9795	0.000424488	   23.9397	0.000459048	   23.9397	   11.4762	
   23.8924	0.000424169	   23.9782	0.000568446	   23.9949	0.000445131	   23.9552	0.000479249	   23.9552	   11.9812	
   23.9025	0.000444535	   23.9917	0.000587503	   24.0058	0.000465606	   23.9666	0.000499215	   23.9666	   12.4804	
   23.9089	0.000464646	   24.0015	0.00060633	   24.0107	0.000485853	   23.9737	0.000518943	   23.9737	   12.9736	
   23.9092	0.000484579	   24.0064	0.000625141	   24.0125	0.00050627	    23.976	0.000538663	    23.976	   13.4666	
   23.9053	0.000504236	    24.007	0.000643937	   24.0098	0.000526621	    23.974	0.000558265	    23.974	   13.9566	
    23.898	0.000523652	    24.002	0.000662816	   24.0014	0.00054667	   23.9671	0.000577713	   23.9671	   14.4428	
    23.887	0.000542888	   23.9973	0.000681743	   23.9865	0.000566636	   23.9569	0.000597089	   23.9569	   14.9272	
   23.8701	0.000561949	    23.988	0.000700447	   23.9682	0.000586242	   23.9421	0.000616213	   23.9421	   15.4053	
   23.8514	0.000580904	   23.9799	0.000718804	   23.9511	0.000605613	   23.9275	0.000635107	   23.9275	   15.8777	
   23.8287	0.000599797	   23.9679	0.000737061	   23.9295	0.00062505	   23.9087	0.000653969	   23.9087	   16.3492	
   23.8008	0.000618648	   23.9511	0.000755236	   23.9026	0.000644479	   23.8848	0.000672788	   23.8848	   16.8197	
    23.771	0.000637446	   23.9258	0.000773568	   23.8734	0.000663795	   23.8567	0.000691603	   23.8567	   17.2901	
   23.7342	0.000656194	   23.8964	0.000792034	    23.839	0.000682927	   23.8232	0.000710385	   23.8232	   17.7596	
    23.692	0.000674809	   23.8583	0.000810085	   23.7967	0.000701669	   23.7824	0.000728854	   23.7824	   18.2214	
   23.6459	0.000693306	   23.8163	0.000827621	   23.7533	0.00072001	   23.7385	0.000746979	   23.7385	   18.6745	
   23.5953	0.000711671	   23.7687	0.000844516	   23.7028	 0.0007382	   23.6889	0.000764796	   23.6889	   19.1199	
   23.5433	0.000729887	   23.7171	0.000860965	   23.6479	0.000756287	   23.6361	0.00078238	   23.6361	   19.5595	
   23.4872	0.000747974	   23.6608	0.000877556	   23.5911	0.00077433	   23.5797	0.000799954	   23.5797	   19.9988	
   23.4245	0.00076565	   23.6014	0.000894387	   23.5296	0.00079234	   23.5185	0.000817459	   23.5185	   20.4365	
    23.359	0.000782941	   23.5307	0.000911275	    23.465	0.000810102	   23.4516	0.000834772	   23.4516	   20.8693	
   23.2883	0.000799987	    23.457	0.000927911	   23.3967	0.000827546	   23.3807	0.000851815	   23.3807	   21.2954	
   23.2121	0.00081684	   23.3791	0.000944007	   23.3224	0.000844799	   23.3046	0.000868549	   23.3046	   21.7137	
   23.1325	0.000833804	   23.2976	0.000959558	   23.2441	0.000861845	   23.2247	0.000885069	   23.2247	   22.1267	
   23.0509	0.000850775	   23.2142	0.000974996	   23.1615	0.000878801	   23.1422	0.000901524	   23.1422	   22.5381	
   22.9632	0.000867582	   23.1256	0.00099061	   23.0755	0.00089565	   23.0548	0.000917947	   23.0548	   22.9487	
   22.8732	0.00088423	   23.0328	0.00100633	   22.9849	0.000912269	   22.9636	0.000934278	   22.9636	   23.3569	
   22.7808	0.000900747	   22.9387	0.00102205	   22.8916	0.000928636	   22.8703	0.000950479	   22.8703	    23.762	
   22.6817	0.000917148	   22.8399	0.00103747	   22.7936	0.00094463	   22.7717	0.000966417	   22.7717	   24.1604	
   22.5822	0.000933619	   22.7385	0.00105235	   22.6909	0.000960264	   22.6705	0.000982076	   22.6705	   24.5519	
   22.4826	0.000950139	   22.6354	0.00106681	   22.5828	0.00097574	   22.5669	0.000997564	   22.5669	   24.9391	
   22.3778	0.00096647	   22.5255	0.00108108	   22.4688	0.000991023	   22.4573	0.00101286	   22.4573	   25.3215	
   22.2708	0.000982589	    22.418	0.00109524	   22.3541	0.00100628	   22.3476	0.00102803	   22.3476	   25.7009	
   22.1586	0.000998306	   22.3092	0.00110934	   22.2357	0.00102146	   22.2345	0.00104304	   22.2345	   26.0759	
   22.0379	0.00101352	   22.1912	0.00112322	   22.1119	0.00103637	   22.1137	0.00105771	   22.1137	   26.4426	
   21.9164	0.00102849	     22.07	0.00113678	    21.988	0.00105098	   21.9915	0.00107208	   21.9915	   26.8021	
    21.793	0.00104335	   21.9466	0.00114998	   21.8647	0.00106526	   21.8681	 0.0010862	   21.8681	   27.1549	
   21.6638	0.00105797	   21.8183	0.00116282	   21.7388	0.00107931	   21.7403	0.00110003	   21.7403	   27.5008	
   21.5297	0.00107246	   21.6848	 0.0011755	   21.6114	0.00109319	   21.6086	0.00111372	   21.6086	    27.843	
   21.3931	0.00108674	   21.5504	0.00118804	   21.4807	0.00110686	   21.4748	0.00112721	   21.4748	   28.1803	
   21.2497	0.00110069	   21.4068	0.00120052	   21.3451	0.00112063	   21.3339	0.00114061	   21.3339	   28.5154	
   21.1015	 0.0011145	    21.262	0.00121297	   21.2034	0.00113432	    21.189	0.00115393	    21.189	   28.8482	
   20.9531	0.00112826	   21.1144	0.00122528	   21.0566	0.00114775	   21.0413	 0.0011671	   21.0413	   29.1774	
   20.7998	0.00114194	   20.9596	0.00123716	   20.9016	0.00116108	    20.887	0.00118006	    20.887	   29.5015	
   20.6416	0.00115558	   20.8018	0.00124878	    20.742	0.00117407	   20.7284	0.00119281	   20.7284	   29.8203	
   20.4813	0.00116912	   20.6426	0.00126012	   20.5804	0.00118695	   20.5681	 0.0012054	   20.5681	   30.1349	
   20.3196	0.00118228	   20.4816	0.00127108	   20.4156	0.00120003	   20.4056	 0.0012178	   20.4056	   30.4449	
    20.153	0.00119512	   20.3172	0.00128193	   20.2483	0.00121322	   20.2395	0.00123009	   20.2395	   30.7523	
   19.9864	0.00120759	   20.1503	0.00129249	   20.0783	0.00122642	   20.0717	0.00124216	   20.0717	   31.0541	
   19.8183	0.00121972	   19.9779	0.00130275	   19.9073	0.00123942	   19.9011	0.00125396	   19.9011	    31.349	
   19.6492	0.00123171	   19.8002	0.00131274	   19.7329	0.00125197	   19.7274	0.00126547	   19.7274	   31.6368	
   19.4757	0.00124361	   19.6195	0.00132236	   19.5571	  0.001264	   19.5508	0.00127666	   19.5508	   31.9164	
   19.2972	0.00125538	   19.4348	0.00133169	   19.3805	0.00127579	   19.3708	0.00128762	   19.3708	   32.1905	
   19.1147	  0.001267	   19.2482	0.00134096	   19.2056	0.00128743	   19.1895	0.00129847	   19.1895	   32.4616	
   18.9276	0.00127846	   19.0559	0.00135023	   19.0248	0.00129903	   19.0028	0.00130924	   19.0028	    32.731	
   18.7344	0.00128972	   18.8622	0.00135948	   18.8424	0.00131057	    18.813	0.00131992	    18.813	   32.9981	
   18.5376	0.00130089	   18.6634	0.00136873	   18.6546	0.00132187	   18.6185	 0.0013305	   18.6185	   33.2624	
   18.3365	0.00131204	    18.459	0.00137776	   18.4588	0.00133289	   18.4181	0.00134089	   18.4181	   33.5224	
   18.1336	0.00132313	   18.2516	0.00138645	     18.26	0.00134366	   18.2151	0.00135108	   18.2151	    33.777	
   17.9252	 0.0013341	   18.0417	 0.0013949	   18.0564	0.00135432	   18.0078	0.00136111	   18.0078	   34.0277	
    17.713	 0.0013448	   17.8296	0.00140307	   17.8478	0.00136494	   17.7968	0.00137094	   17.7968	   34.2734	
   17.4966	0.00135508	   17.6192	0.00141102	   17.6377	0.00137549	   17.5845	0.00138053	   17.5845	   34.5132	
   17.2795	0.00136491	   17.4037	0.00141883	   17.4252	0.00138581	   17.3695	0.00138985	   17.3695	   34.7463	
   17.0599	0.00137441	   17.1867	0.00142642	   17.2089	 0.0013957	   17.1518	0.00139885	   17.1518	   34.9711	
   16.8383	0.00138369	   16.9675	0.00143373	   16.9911	0.00140521	   16.9323	0.00140754	   16.9323	   35.1886	
   16.6123	0.00139284	   16.7417	0.00144084	   16.7676	0.00141428	   16.7072	0.00141598	   16.7072	   35.3996	
   16.3855	0.00140192	   16.5153	0.00144773	    16.542	0.00142299	   16.4809	0.00142422	   16.4809	   35.6054	
   16.1572	0.00141082	   16.2894	0.00145449	    16.312	0.00143155	   16.2529	0.00143229	   16.2529	   35.8073	
   15.9231	0.00141949	   16.0584	0.00146121	   16.0757	0.00143985	    16.019	0.00144018	    16.019	   36.0046	
    15.689	0.00142793	   15.8233	0.00146783	    15.839	0.00144796	   15.7838	0.00144791	   15.7838	   36.1977	
   15.4505	0.00143617	    15.584	0.00147432	   15.6014	0.00145601	   15.5453	 0.0014555	   15.5453	   36.3875	
   15.2085	0.00144429	   15.3368	0.00148064	   15.3594	0.00146379	   15.3016	0.00146291	   15.3016	   36.5727	
   14.9621	0.00145231	   15.0899	0.00148676	   15.1141	0.00147133	   15.0554	0.00147013	   15.0554	   36.7533	
   14.7143	0.00146017	   14.8457	0.00149265	   14.8692	0.00147873	   14.8097	0.00147718	   14.8097	   36.9296	
   14.4638	0.00146778	   14.5965	0.00149835	   14.6185	0.00148592	   14.5596	0.00148402	   14.5596	   37.1004	
   14.2104	0.00147506	   14.3463	0.00150385	    14.368	0.00149299	   14.3082	0.00149064	   14.3082	   37.2659	
   13.9581	0.00148194	   14.0919	0.00150917	   14.1143	0.00149995	   14.0548	0.00149702	   14.0548	   37.4255	
   13.7024	0.00148847	   13.8346	0.00151412	   13.8566	0.00150662	   13.7979	0.00150307	   13.7979	   37.5768	
   13.4461	0.00149474	   13.5753	0.00151893	    13.598	0.00151297	   13.5398	0.00150888	   13.5398	   37.7219	
   13.1862	0.00150084	   13.3168	0.00152343	   13.3391	0.00151902	   13.2807	0.00151443	   13.2807	   37.8608	
   12.9247	0.00150684	   13.0548	0.00152759	   13.0777	0.00152476	   13.0191	0.00151973	   13.0191	   37.9933	
   12.6625	0.00151274	   12.7904	0.00153163	   12.8119	0.00153031	    12.755	0.00152489	    12.755	   38.1224	
   12.4003	0.00151849	   12.5247	0.00153532	   12.5478	0.00153575	    12.491	0.00152985	    12.491	   38.2463	
    12.133	0.00152401	   12.2557	0.00153878	   12.2811	0.00154097	   12.2233	0.00153459	   12.2233	   38.3647	
   11.8621	0.00152932	   11.9854	 0.0015423	   12.0119	0.00154601	   11.9531	0.00153921	   11.9531	   38.4802	
   11.5899	0.00153447	   11.7159	0.00154553	   11.7402	0.00155087	    11.682	0.00154362	    11.682	   38.5906	
   11.3134	 0.0015395	   11.4428	0.00154837	   11.4692	0.00155551	   11.4085	 0.0015478	   11.4085	   38.6949	
    11.036	0.00154442	   11.1666	  0.001551	   11.1938	0.00156001	   11.1321	0.00155181	   11.1321	   38.7952	
   10.7568	0.00154912	   10.8896	0.00155295	   10.9182	0.00156438	   10.8549	0.00155549	   10.8549	   38.8872	
   10.4769	0.00155351	   10.6097	0.00155451	   10.6385	0.00156857	    10.575	0.00155887	    10.575	   38.9716	
   10.1963	0.00155756	   10.3292	  0.001556	   10.3553	0.00157253	   10.2936	0.00156203	   10.2936	   39.0507	
   9.91404	0.00156121	   10.0453	 0.0015572	   10.0728	0.00157621	   10.0107	0.00156487	   10.0107	   39.1218	
   9.63125	0.00156465	   9.75946	0.00155822	    9.7909	 0.0015796	    9.7272	0.00156749	    9.7272	   39.1873	
   9.34793	0.00156797	   9.46996	0.00155898	   9.50365	0.00158277	   9.44051	0.00156991	   9.44051	   39.2477	
   9.06031	0.00157114	   9.18122	0.00155938	   9.21475	 0.0015858	   9.15209	0.00157211	   9.15209	   39.3027	
   8.77096	0.00157407	   8.89123	0.00155961	    8.9235	0.00158865	    8.8619	0.00157411	    8.8619	   39.3527	
   8.48018	0.00157678	   8.60397	0.00155984	   8.63033	0.00159135	   8.57149	0.00157599	   8.57149	   39.3997	
    8.1901	0.00157915	   8.31331	0.00156002	    8.3356	0.00159383	   8.27967	0.00157767	   8.27967	   39.4416	
   7.89682	0.00158137	   8.02172	0.00156012	   8.03964	0.00159608	   7.98606	0.00157919	   7.98606	   39.4798	
   7.60282	 0.0015836	   7.72463	0.00156008	   7.74274	0.00159808	   7.69006	0.00158059	   7.69006	   39.5146	
   7.30638	0.00158561	   7.42777	0.00155957	   7.44327	0.00159984	   7.39247	0.00158167	   7.39247	   39.5418	
   7.00895	 0.0015874	   7.12838	0.00155867	   7.14271	0.00160141	   7.09335	 0.0015825	   7.09335	   39.5624	
   6.71175	0.00158882	   6.82796	0.00155747	   6.84237	0.00160281	   6.79403	0.00158303	   6.79403	   39.5758	
   6.41295	0.00158979	   6.52681	0.00155593	   6.53854	0.00160399	   6.49277	0.00158324	   6.49277	   39.5809	
   6.11104	0.00159042	    6.2271	0.00155423	   6.23483	0.00160498	   6.19099	0.00158321	   6.19099	   39.5802	
   5.80858	 0.0015909	   5.92873	0.00155235	   5.93045	0.00160573	   5.88925	0.00158299	   5.88925	   39.5748	
   5.50583	0.00159118	   5.62783	0.00155015	   5.62572	0.00160618	   5.58646	0.00158251	   5.58646	   39.5626	
   5.20491	0.00159128	   5.32683	0.00154779	   5.31901	0.00160636	   5.28358	0.00158181	   5.28358	   39.5453	
   4.90379	 0.0015911	   5.02405	0.00154533	   5.01086	0.00160627	   4.97957	 0.0015809	   4.97957	   39.5225	
   4.60268	0.00159053	   4.72277	0.00154291	   4.70081	0.00160597	   4.67542	 0.0015798	   4.67542	   39.4951	
    4.3017	0.00158968	    4.4182	 0.0015405	    4.3904	0.00160559	    4.3701	0.00157859	    4.3701	   39.4647	
   3.99439	0.00158874	   4.11199	0.00153805	    4.0809	0.00160486	   4.06243	0.00157721	   4.06243	   39.4304	
   3.68484	0.00158771	   3.80559	0.00153538	   3.77339	 0.0016039	   3.75461	0.00157566	   3.75461	   39.3915	
   3.37558	0.00158652	   3.49738	0.00153242	   3.46591	 0.0016028	   3.44629	0.00157391	   3.44629	   39.3479	
   3.06497	0.00158509	   3.19169	0.00152923	   3.15966	0.00160126	   3.13877	0.00157186	   3.13877	   39.2964	
   2.75349	0.00158321	   2.88458	0.00152575	   2.85561	0.00159956	   2.83123	0.00156951	   2.83123	   39.2377	
   2.44065	0.00158092	   2.57649	0.00152203	    2.5517	0.00159744	   2.52295	 0.0015668	   2.52295	   39.1699	
   2.13171	0.00157832	   2.26784	0.00151795	   2.24812	0.00159494	   2.21589	0.00156374	   2.21589	   39.0934	
   1.82249	0.00157542	   1.96085	 0.0015134	   1.94311	0.00159219	   1.90882	0.00156034	   1.90882	   39.0084	
   1.51522	0.00157224	    1.6536	0.00150835	   1.63898	0.00158911	    1.6026	0.00155656	    1.6026	   38.9141	
   1.20982	0.00156864	   1.34828	0.00150287	   1.33391	0.00158573	   1.29734	0.00155241	   1.29734	   38.8103	
  0.904313	0.00156458	   1.04478	0.00149715	   1.02828	0.00158198	  0.992455	 0.0015479	  0.992455	   38.6976	
  0.597975	0.00156015	  0.741102	0.00149141	  0.724265	 0.0015778	  0.687781	0.00154312	  0.687781	    38.578	
  0.290223	0.00155554	  0.437477	 0.0014858	  0.419913	0.00157321	  0.382538	0.00153818	  0.382538	   38.4546	
-0.0128026	0.00155106	  0.133135	0.00148034	  0.113577	0.00156851	 0.0779697	 0.0015333	 0.0779697	   38.3325	
  -0.31546	0.00154666	 -0.170673	0.00147494	 -0.192291	0.00156392	 -0.226141	0.00152851	 -0.226141	   38.2126	
 -0.617628	0.00154226	 -0.477599	0.00146949	 -0.497541	0.00155957	 -0.530922	0.00152377	 -0.530922	   38.0943	
 -0.918256	0.00153764	 -0.786923	0.00146383	 -0.803959	0.00155531	 -0.836379	0.00151893	 -0.836379	   37.9731	
  -1.21839	0.00153261	  -1.09609	0.00145788	  -1.10922	 0.0015508	  -1.14123	0.00151376	  -1.14123	   37.8441	
  -1.52367	 0.0015272	  -1.40487	0.00145157	  -1.41616	0.00154587	  -1.44823	0.00150822	  -1.44823	   37.7054	
  -1.82926	0.00152151	  -1.71497	0.00144484	  -1.72142	0.00154033	  -1.75522	0.00150223	  -1.75522	   37.5556	
  -2.13488	0.00151559	  -2.02212	0.00143765	  -2.02507	0.00153437	  -2.06069	0.00149587	  -2.06069	   37.3968	
  -2.44124	0.00150933	  -2.32843	0.00142998	     -2.33	0.00152814	  -2.36656	0.00148915	  -2.36656	   37.2288	
  -2.74707	0.00150277	   -2.6338	0.00142184	  -2.63674	0.00152158	  -2.67254	0.00148206	  -2.67254	   37.0515	
  -3.05128	0.00149565	  -2.93629	0.00141329	  -2.94194	0.00151465	   -2.9765	0.00147453	   -2.9765	   36.8632	
  -3.35488	0.00148796	  -3.23809	0.00140444	  -3.24657	0.00150706	  -3.27985	0.00146649	  -3.27985	   36.6622	
  -3.66155	0.00147992	  -3.54293	0.00139538	  -3.54865	0.00149889	  -3.58437	0.00145806	  -3.58437	   36.4516	
  -3.96585	0.00147158	  -3.84726	 0.0013862	  -3.85218	0.00149016	  -3.88843	0.00144931	  -3.88843	   36.2328	
   -4.2708	0.00146319	  -4.15001	0.00137689	  -4.15675	0.00148116	  -4.19252	0.00144041	  -4.19252	   36.0103	
  -4.57419	0.00145491	  -4.45316	0.00136751	  -4.45725	0.00147223	  -4.49487	0.00143155	  -4.49487	   35.7887	
  -4.87419	0.00144664	  -4.75646	0.00135806	  -4.75512	0.00146328	  -4.79526	0.00142266	  -4.79526	   35.5665	
  -5.17499	0.00143826	   -5.0578	0.00134845	  -5.05258	0.00145431	  -5.09513	0.00141367	  -5.09513	   35.3418	
  -5.47727	 0.0014296	  -5.35925	 0.0013386	  -5.35243	0.00144513	  -5.39632	0.00140444	  -5.39632	   35.1111	
  -5.77775	 0.0014205	  -5.65872	0.00132841	  -5.65319	 0.0014355	  -5.69655	 0.0013948	  -5.69655	     34.87	
  -6.07752	0.00141091	  -5.95922	0.00131779	   -5.9536	 0.0014255	  -5.99678	0.00138473	  -5.99678	   34.6183	
  -6.36993	0.00140091	  -6.25949	0.00130674	  -6.25074	 0.0014151	  -6.29339	0.00137425	  -6.29339	   34.3562	
  -6.65803	0.00139056	  -6.55753	0.00129524	  -6.54692	0.00140426	  -6.58749	0.00136336	  -6.58749	   34.0839	
  -6.95009	0.00137985	  -6.85359	0.00128334	  -6.84033	0.00139299	  -6.88134	0.00135206	  -6.88134	   33.8015	
  -7.23976	 0.0013687	  -7.14789	0.00127108	  -7.13323	0.00138123	  -7.17363	0.00134034	  -7.17363	   33.5084	
  -7.52929	0.00135715	  -7.44253	0.00125847	  -7.42376	  0.001369	   -7.4652	0.00132821	   -7.4652	   33.2051	
  -7.81683	0.00134514	  -7.73833	0.00124557	  -7.71512	0.00135646	  -7.75676	0.00131572	  -7.75676	   32.8931	
   -8.1046	0.00133273	  -8.03408	0.00123246	  -8.00622	0.00134364	   -8.0483	0.00130294	   -8.0483	   32.5736	
  -8.39163	0.00132035	  -8.32591	0.00121916	   -8.2961	0.00133061	  -8.33788	0.00129004	  -8.33788	    32.251	
  -8.67333	0.00130786	  -8.61251	0.00120572	  -8.58403	0.00131734	  -8.62329	0.00127697	  -8.62329	   31.9242	
  -8.95636	 0.0012951	  -8.89665	0.00119215	   -8.8722	0.00130389	   -8.9084	0.00126371	   -8.9084	   31.5928	
   -9.2368	0.00128224	  -9.18165	0.00117839	  -9.15966	0.00129036	   -9.1927	0.00125033	   -9.1927	   31.2583	
  -9.51705	0.00126888	  -9.46457	0.00116449	   -9.4456	0.00127671	  -9.47574	0.00123669	  -9.47574	   30.9173	
  -9.79064	0.00125513	  -9.74961	0.00115031	  -9.72933	0.00126296	  -9.75653	 0.0012228	  -9.75653	     30.57	
  -10.0617	0.00124121	  -10.0308	0.00113578	  -10.0084	0.00124893	  -10.0336	0.00120864	  -10.0336	    30.216	
  -10.3327	0.00122693	  -10.3089	0.00112088	  -10.2857	 0.0012345	  -10.3091	 0.0011941	  -10.3091	   29.8525	
  -10.6021	 0.0012123	  -10.5873	0.00110554	  -10.5597	 0.0012196	   -10.583	0.00117914	   -10.583	   29.4786	
  -10.8703	0.00119733	  -10.8596	0.00108984	  -10.8312	0.00120424	  -10.8537	 0.0011638	  -10.8537	    29.095	
  -11.1331	0.00118191	  -11.1288	0.00107392	  -11.0989	 0.0011887	  -11.1203	0.00114818	  -11.1203	   28.7044	
  -11.3946	0.00116619	  -11.3995	0.00105781	  -11.3674	  0.001173	  -11.3872	0.00113233	  -11.3872	   28.3083	
  -11.6572	0.00115032	  -11.6678	0.00104148	  -11.6332	0.00115711	  -11.6527	0.00111631	  -11.6527	   27.9076	
  -11.9192	0.00113415	  -11.9317	0.00102488	  -11.8969	0.00114105	  -11.9159	0.00110003	  -11.9159	   27.5007	
   -12.181	0.00111773	   -12.195	0.00100794	  -12.1612	0.00112478	   -12.179	0.00108348	   -12.179	    27.087	
   -12.444	0.00110111	   -12.459	0.000990733	  -12.4196	0.00110834	  -12.4408	0.00106673	  -12.4408	   26.6681	
  -12.7073	0.00108432	  -12.7212	0.000973436	  -12.6782	0.00109185	  -12.7022	0.00104987	  -12.7022	   26.2467	
  -12.9676	 0.0010676	  -12.9821	0.000956096	  -12.9374	0.00107529	  -12.9624	0.00103299	  -12.9624	   25.8248	
  -13.2275	0.00105095	  -13.2424	0.000938663	  -13.1956	0.00105858	  -13.2218	0.00101606	  -13.2218	   25.4016	
  -13.4837	0.00103425	  -13.4988	0.000921083	  -13.4514	0.00104172	   -13.478	0.000999017	   -13.478	   24.9754	
  -13.7372	0.00101724	  -13.7542	0.000903152	  -13.7076	0.00102467	   -13.733	0.000981687	   -13.733	   24.5422	
  -13.9899	0.000999864	  -14.0082	0.000884859	  -13.9646	0.00100738	  -13.9875	0.000964035	  -13.9875	   24.1009	
  -14.2357	0.000982215	  -14.2549	0.00086625	  -14.2149	0.000989915	  -14.2352	0.000946127	  -14.2352	   23.6532	
  -14.4839	0.000964504	  -14.5037	0.000847364	   -14.466	0.000972156	  -14.4845	0.000928008	  -14.4845	   23.2002	
   -14.729	0.000946856	  -14.7489	0.000828277	  -14.7145	0.000954075	  -14.7308	0.000909736	  -14.7308	   22.7434	
  -14.9682	0.000929148	    -14.99	0.000808979	  -14.9555	0.00093575	  -14.9712	0.000891292	  -14.9712	   22.2823	
  -15.2042	0.000911164	  -15.2301	0.000789482	  -15.2003	0.000917129	  -15.2115	0.000872592	  -15.2115	   21.8148	
  -15.4371	0.000892685	   -15.468	0.000769767	  -15.4415	0.000898293	  -15.4489	0.000853582	  -15.4489	   21.3395	
  -15.6701	0.000873756	   -15.702	0.000749837	  -15.6801	0.000879267	  -15.6841	0.000834286	  -15.6841	   20.8572	
  -15.9021	0.000854603	  -15.9325	0.000729814	  -15.9154	0.000860011	  -15.9166	0.000814809	  -15.9166	   20.3702	
  -16.1319	0.000835491	  -16.1607	0.000709636	  -16.1467	0.000840518	  -16.1464	0.000795215	  -16.1464	   19.8804	
   -16.359	0.000816578	  -16.3861	0.000689396	  -16.3735	0.000820845	  -16.3728	0.000775606	  -16.3728	   19.3902	
  -16.5845	0.000797682	  -16.6117	0.000669085	  -16.5973	0.000801054	  -16.5978	0.00075594	  -16.5978	   18.8985	
  -16.8047	0.00077858	  -16.8374	0.000648693	  -16.8177	0.000781182	  -16.8199	0.000736151	  -16.8199	   18.4038	
  -17.0206	0.000759137	  -17.0592	0.000628176	   -17.036	0.000761292	  -17.0386	0.000716202	  -17.0386	    17.905	
  -17.2356	0.000739473	  -17.2807	0.000607413	  -17.2498	0.000741299	  -17.2553	0.000696062	  -17.2553	   17.4015	
   -17.447	0.000719619	  -17.4999	0.000586404	  -17.4616	0.000721067	  -17.4695	0.000675697	  -17.4695	   16.8924	
  -17.6566	0.00069975	  -17.7133	0.000565108	   -17.672	0.000700575	  -17.6806	0.000655144	  -17.6806	   16.3786	
  -17.8608	0.000679875	  -17.9256	0.000543645	  -17.8811	0.000679747	  -17.8892	0.000634422	  -17.8892	   15.8606	
  -18.0644	0.000659807	  -18.1334	0.000522134	  -18.0893	0.000658713	  -18.0957	0.000613551	  -18.0957	   15.3388	
  -18.2669	0.000639432	  -18.3385	0.000500612	   -18.294	0.000637555	  -18.2998	0.000592533	  -18.2998	   14.8133	
  -18.4686	0.000618736	  -18.5385	0.000479052	  -18.4988	0.000616204	   -18.502	0.000571331	   -18.502	   14.2833	
  -18.6659	0.000597777	  -18.7336	0.000457401	  -18.6991	0.000594691	  -18.6996	0.000549956	  -18.6996	   13.7489	
  -18.8609	0.000576722	  -18.9259	0.000435629	  -18.8949	0.000572978	  -18.8939	0.000528443	  -18.8939	   13.2111	
  -19.0532	0.000555656	   -19.115	0.000413751	  -19.0881	0.000550932	  -19.0854	0.00050678	  -19.0854	   12.6695	
  -19.2426	0.000534541	   -19.301	0.000391888	  -19.2823	0.000528872	  -19.2753	0.000485101	  -19.2753	   12.1275	
  -19.4291	0.000513389	  -19.4839	0.000370109	  -19.4682	0.000506823	  -19.4604	0.000463441	  -19.4604	    11.586	
  -19.6125	0.00049221	  -19.6617	0.000348392	  -19.6493	0.000484848	  -19.6412	0.000441817	  -19.6412	   11.0454	
  -19.7948	0.000470978	  -19.8386	0.000326677	   -19.828	0.000462975	  -19.8204	0.00042021	  -19.8204	   10.5053	
  -19.9736	0.00044973	  -20.0124	0.000304881	   -20.005	0.000440858	   -19.997	0.00039849	   -19.997	   9.96224	
  -20.1511	0.000428544	  -20.1813	0.000282942	  -20.1793	0.000418385	  -20.1706	0.000376623	  -20.1706	   9.41559	
  -20.3269	0.000407226	  -20.3497	0.000260858	  -20.3509	0.000395611	  -20.3425	0.000354565	  -20.3425	   8.86412	
  -20.4973	0.000385802	  -20.5153	0.000238682	   -20.518	0.000372664	  -20.5102	0.000332383	  -20.5102	   8.30957	
  -20.6664	0.000364242	  -20.6803	0.000216467	  -20.6792	0.000349748	  -20.6753	0.000310152	  -20.6753	   7.75381	
  -20.8285	0.000342432	  -20.8416	 0.0001943	  -20.8389	0.000327006	  -20.8364	0.000287913	  -20.8364	   7.19782	
  -20.9845	0.000320345	  -21.0006	0.000172197	  -20.9954	0.00030435	  -20.9935	0.000265631	  -20.9935	   6.64077	
  -21.1343	0.000298032	  -21.1555	0.000150192	   -21.147	0.000281688	  -21.1456	0.000243304	  -21.1456	   6.08259	
  -21.2779	0.000275514	  -21.3051	0.000128328	  -21.2945	0.000258986	  -21.2925	0.000220943	  -21.2925	   5.52356	
  -21.4219	0.000252982	    -21.45	0.000106579	  -21.4367	0.000236197	  -21.4362	0.000198586	  -21.4362	   4.96465	
  -21.5588	0.000230512	  -21.5929	8.49613e-05	   -21.579	0.000213481	  -21.5769	0.000176318	  -21.5769	   4.40795	
  -21.6916	0.000208152	  -21.7323	6.34326e-05	  -21.7169	0.00019095	  -21.7136	0.000154178	  -21.7136	   3.85445	
  -21.8213	0.00018576	  -21.8669	4.19568e-05	  -21.8549	0.000168454	  -21.8477	0.000132057	  -21.8477	   3.30142	
  -21.9484	0.000163112	  -21.9976	2.05305e-05	  -21.9873	0.000146056	  -21.9778	 0.0001099	  -21.9778	   2.74749	
  -22.0736	0.000140409	  -22.1253	-8.82239e-07	  -22.1172	0.000123654	  -22.1054	8.77271e-05	  -22.1054	   2.19318	
  -22.1976	0.000117708	  -22.2477	-2.23382e-05	  -22.2432	0.000101179	  -22.2295	6.55164e-05	  -22.2295	   1.63791	
  -22.3188	9.51036e-05	  -22.3651	-4.38706e-05	  -22.3624	7.88149e-05	  -22.3488	4.33493e-05	  -22.3488	   1.08373	
  -22.4361	7.26785e-05	  -22.4758	-6.55416e-05	  -22.4791	5.66642e-05	  -22.4637	2.1267e-05	  -22.4637	  0.531675	
  -22.5505	5.0112e-05	   -22.586	-8.73578e-05	  -22.5912	3.46783e-05	  -22.5759	-8.55825e-07	  -22.5759	-0.0213956	
   -22.659	2.72204e-05	  -22.6907	-0.000109225	  -22.6961	1.28179e-05	  -22.6819	-2.30622e-05	  -22.6819	 -0.576556	
  -22.7641	4.13624e-06	  -22.7921	-0.000131065	  -22.7964	-9.02712e-06	  -22.7842	-4.53185e-05	  -22.7842	  -1.13296	
   -22.864	-1.88854e-05	  -22.8904	-0.000152776	  -22.8906	-3.09245e-05	  -22.8817	-6.75285e-05	  -22.8817	  -1.68821	
  -22.9601	-4.14987e-05	  -22.9849	-0.000174319	  -22.9803	-5.26945e-05	  -22.9751	-8.95042e-05	  -22.9751	  -2.23761	
  -23.0507	-6.35407e-05	  -23.0795	-0.000195765	  -23.0671	-7.42331e-05	  -23.0658	-0.00011118	  -23.0658	  -2.77949	
  -23.1404	-8.5308e-05	  -23.1722	-0.000217056	  -23.1501	-9.55935e-05	  -23.1543	-0.000132653	  -23.1543	  -3.31631	
  -23.2206	-0.000107109	  -23.2573	-0.000238262	   -23.229	-0.00011684	  -23.2356	-0.00015407	  -23.2356	  -3.85176	
  -23.2954	-0.000129119	  -23.3358	-0.0002594	  -23.3053	-0.000138147	  -23.3122	-0.000175555	  -23.3122	  -4.38889	
  -23.3686	-0.000151239	  -23.4097	-0.000280448	  -23.3783	-0.00015963	  -23.3855	-0.000197106	  -23.3855	  -4.92765	
  -23.4347	-0.000173171	  -23.4788	-0.000301436	  -23.4487	-0.000181149	  -23.4541	-0.000218585	  -23.4541	  -5.46463	
  -23.4969	-0.000194768	  -23.5448	-0.000322359	   -23.513	-0.000202624	  -23.5182	-0.000239917	  -23.5182	  -5.99792	
   -23.555	-0.000215997	  -23.6054	-0.000343189	  -23.5743	-0.000223941	  -23.5782	-0.000261042	  -23.5782	  -6.52606	
  -23.6108	-0.000237138	  -23.6608	-0.000363941	  -23.6274	-0.000245106	   -23.633	-0.000282062	   -23.633	  -7.05155	
   -23.662	-0.000258434	  -23.7129	-0.000384651	  -23.6788	-0.000266321	  -23.6846	-0.000303136	  -23.6846	  -7.57839	
  -23.7115	-0.00027975	  -23.7625	-0.000405297	  -23.7242	-0.000287643	  -23.7327	-0.00032423	  -23.7327	  -8.10576	
  -23.7524	-0.00030088	  -23.8066	-0.000425922	  -23.7659	-0.000309075	  -23.7749	-0.000345292	  -23.7749	  -8.63231	
   -23.792	-0.000321714	  -23.8511	-0.000446481	  -23.8077	-0.000330443	  -23.8169	-0.000366213	  -23.8169	  -9.15532	
  -23.8254	-0.000342166	  -23.8879	-0.000466883	  -23.8471	-0.000351563	  -23.8535	-0.000386871	  -23.8535	  -9.67177	
  -23.8551	-0.000362355	  -23.9195	-0.000487133	  -23.8804	-0.00037245	   -23.885	-0.000407313	   -23.885	  -10.1828	
   -23.884	-0.000382396	  -23.9436	-0.000507171	  -23.9107	-0.000393172	  -23.9128	-0.000427579	  -23.9128	  -10.6895	
  -23.9072	-0.000402295	  -23.9676	-0.000526953	  -23.9373	-0.000413826	  -23.9374	-0.000447691	  -23.9374	  -11.1923	
  -23.9272	-0.000422009	  -23.9847	-0.0005466	  -23.9614	-0.00043448	  -23.9578	-0.000467696	  -23.9578	  -11.6924	
  -23.9423	-0.000441542	  -23.9986	-0.000566116	  -23.9783	-0.000455068	  -23.9731	-0.000487575	  -23.9731	  -12.1894	
  -23.9494	-0.000460919	  -24.0096	-0.000585493	  -23.9909	-0.000475522	  -23.9833	-0.000507311	  -23.9833	  -12.6828	
  -23.9526	-0.000480325	  -24.0152	-0.000604751	  -23.9997	-0.000495731	  -23.9891	-0.000526936	  -23.9891	  -13.1734	
  -23.9532	-0.000499711	   -24.019	-0.000623875	  -24.0032	-0.000515733	  -23.9918	-0.00054644	  -23.9918	   -13.661	
  -23.9508	-0.000519096	  -24.0185	-0.000642893	  -23.9986	-0.000535579	  -23.9893	-0.000565856	  -23.9893	  -14.1464	
  -23.9412	-0.000538268	  -24.0115	-0.000661854	   -23.989	-0.000555299	  -23.9806	-0.00058514	  -23.9806	  -14.6285	
  -23.9257	-0.000557416	  -23.9991	-0.000680603	  -23.9736	-0.00057496	  -23.9661	-0.000604326	  -23.9661	  -15.1082	
  -23.9073	-0.000576628	  -23.9823	-0.000699437	  -23.9562	-0.000594532	  -23.9486	-0.000623533	  -23.9486	  -15.5883	
   -23.881	-0.00059569	  -23.9622	-0.00071809	  -23.9346	-0.00061399	  -23.9259	-0.00064259	  -23.9259	  -16.0647	
  -23.8504	-0.000614661	  -23.9357	-0.000736367	  -23.9079	-0.000633269	   -23.898	-0.000661432	   -23.898	  -16.5358	
  -23.8147	-0.000633226	   -23.908	-0.000754378	   -23.882	-0.000652332	  -23.8682	-0.000679979	  -23.8682	  -16.9995	
  -23.7751	-0.000651217	  -23.8796	-0.00077188	  -23.8523	-0.000671208	  -23.8356	-0.000698102	  -23.8356	  -17.4525	
    -23.73	-0.000668766	  -23.8453	-0.000789076	  -23.8189	-0.00068985	  -23.7981	-0.000715898	  -23.7981	  -17.8974	
  -23.6856	-0.000686048	  -23.8104	-0.000806138	  -23.7819	-0.00070833	  -23.7593	-0.000733505	  -23.7593	  -18.3376	
  -23.6347	-0.000703316	  -23.7735	-0.000823016	  -23.7424	-0.000726657	  -23.7168	-0.000750996	  -23.7168	  -18.7749	
  -23.5791	-0.000720799	  -23.7306	-0.000839698	  -23.6994	-0.000744735	  -23.6697	-0.000768411	  -23.6697	  -19.2103	
  -23.5222	-0.000738414	  -23.6843	-0.000856141	  -23.6502	-0.000762599	  -23.6189	-0.000785718	  -23.6189	   -19.643	
  -23.4659	-0.000755948	  -23.6375	-0.000872231	  -23.5974	-0.000780175	  -23.5669	-0.000802785	  -23.5669	  -20.0696	
   -23.406	-0.000773323	  -23.5854	-0.00088797	  -23.5376	-0.000797457	  -23.5097	-0.000819583	  -23.5097	  -20.4896	
  -23.3421	-0.000790401	  -23.5275	-0.000903528	  -23.4746	-0.000814561	  -23.4481	-0.000836163	  -23.4481	  -20.9041	
  -23.2765	-0.000807213	  -23.4675	-0.000918904	   -23.404	-0.000831613	  -23.3827	-0.000852577	  -23.3827	  -21.3144	
  -23.2076	-0.000823921	  -23.4007	-0.000934149	   -23.328	-0.000848584	  -23.3121	-0.000868885	  -23.3121	  -21.7221	
   -23.134	-0.000840548	  -23.3292	-0.000949354	  -23.2513	-0.000865554	  -23.2382	-0.000885152	  -23.2382	  -22.1288	
  -23.0564	-0.000857087	  -23.2508	-0.000964375	  -23.1702	-0.000882299	  -23.1591	-0.000901254	  -23.1591	  -22.5313	
  -22.9746	-0.000873445	  -23.1659	-0.000979145	  -23.0866	-0.000898679	  -23.0757	-0.000917089	  -23.0757	  -22.9272	
  -22.8903	-0.000889565	  -23.0765	-0.000993729	  -23.0009	-0.000914778	  -22.9892	-0.000932691	  -22.9892	  -23.3173	
  -22.8051	-0.000905334	  -22.9845	-0.00100811	  -22.9119	-0.000930522	  -22.9005	-0.000947989	  -22.9005	  -23.6997	
  -22.7117	-0.000920874	   -22.886	-0.00102236	  -22.8184	-0.000946124	  -22.8054	-0.000963119	  -22.8054	   -24.078	
  -22.6117	-0.00093626	  -22.7832	-0.00103661	  -22.7213	-0.000961802	  -22.7054	-0.000978225	  -22.7054	  -24.4556	
  -22.5094	-0.000951513	  -22.6745	-0.00105075	  -22.6207	-0.000977445	  -22.6015	-0.000993236	  -22.6015	  -24.8309	
  -22.4027	-0.000966807	  -22.5602	-0.00106472	  -22.5155	-0.000992947	  -22.4928	-0.00100816	  -22.4928	   -25.204	
  -22.2918	-0.000982032	  -22.4409	-0.00107846	  -22.4052	-0.00100817	  -22.3793	-0.00102289	  -22.3793	  -25.5722	
  -22.1779	-0.000997207	  -22.3209	-0.00109194	  -22.2918	-0.00102292	  -22.2635	-0.00103736	  -22.2635	  -25.9339	
  -22.0601	-0.00101226	  -22.1999	-0.00110527	  -22.1737	-0.00103725	  -22.1446	-0.00105159	  -22.1446	  -26.2898	
  -21.9369	-0.00102703	  -22.0759	-0.00111847	  -22.0512	-0.00105142	  -22.0213	-0.00106564	  -22.0213	   -26.641	
  -21.8115	-0.00104154	  -21.9511	-0.00113159	  -21.9239	-0.00106548	  -21.8955	-0.00107954	  -21.8955	  -26.9885	
  -21.6833	-0.00105583	  -21.8214	-0.00114462	  -21.7912	-0.00107954	  -21.7653	-0.00109333	  -21.7653	  -27.3333	
  -21.5486	-0.00107003	  -21.6875	-0.00115747	  -21.6559	-0.00109351	  -21.6307	 -0.001107	  -21.6307	  -27.6751	
  -21.4103	-0.00108413	  -21.5481	-0.00117017	  -21.5173	-0.00110722	  -21.4919	-0.00112051	  -21.4919	  -28.0127	
   -21.267	-0.00109815	  -21.4058	-0.00118269	  -21.3729	-0.00112067	  -21.3486	-0.00113384	  -21.3486	  -28.3459	
  -21.1223	-0.00111198	  -21.2573	-0.00119507	  -21.2276	-0.00113385	  -21.2024	-0.00114696	  -21.2024	  -28.6741	
  -20.9717	-0.0011255	  -21.1037	-0.00120722	  -21.0796	-0.00114696	  -21.0517	-0.00115989	  -21.0517	  -28.9973	
  -20.8181	-0.00113879	  -20.9477	-0.00121917	  -20.9312	-0.00115999	   -20.899	-0.00117265	   -20.899	  -29.3163	
  -20.6593	-0.00115185	  -20.7881	-0.00123098	  -20.7769	-0.00117295	  -20.7414	-0.00118526	  -20.7414	  -29.6314	
  -20.4935	-0.00116476	  -20.6237	-0.00124266	  -20.6197	-0.00118576	   -20.579	-0.00119773	   -20.579	  -29.9432	
  -20.3258	-0.00117762	  -20.4556	-0.0012543	  -20.4564	-0.00119823	  -20.4126	-0.00121005	  -20.4126	  -30.2513	
   -20.155	-0.0011904	  -20.2846	-0.00126579	  -20.2882	-0.00121039	  -20.2426	-0.00122219	  -20.2426	  -30.5549	
  -19.9782	-0.00120303	  -20.1097	-0.00127697	  -20.1162	-0.00122226	   -20.068	-0.00123409	   -20.068	  -30.8521	
  -19.7967	-0.00121549	   -19.931	-0.0012877	  -19.9415	-0.00123399	  -19.8897	-0.00124572	  -19.8897	  -31.1431	
  -19.6137	-0.00122773	  -19.7523	-0.00129809	   -19.761	-0.00124574	   -19.709	-0.00125719	   -19.709	  -31.4296	
  -19.4261	-0.00123978	  -19.5694	-0.00130831	   -19.581	-0.00125753	  -19.5255	-0.00126854	  -19.5255	  -31.7135	
  -19.2353	-0.00125171	  -19.3844	-0.00131848	  -19.3988	-0.00126937	  -19.3395	-0.00127985	  -19.3395	  -31.9964	
  -19.0442	-0.0012635	  -19.1982	-0.00132866	  -19.2079	-0.00128109	  -19.1501	-0.00129108	  -19.1501	  -32.2771	
  -18.8516	-0.00127508	  -19.0077	-0.00133861	   -19.015	-0.00129259	  -18.9581	-0.0013021	  -18.9581	  -32.5524	
  -18.6603	-0.00128639	  -18.8161	-0.00134816	  -18.8181	-0.00130386	  -18.7648	-0.00131281	  -18.7648	  -32.8201	
  -18.4641	-0.00129742	  -18.6205	-0.00135729	  -18.6196	-0.00131489	   -18.568	-0.0013232	   -18.568	    -33.08	
  -18.2653	-0.00130814	  -18.4221	-0.00136606	  -18.4213	-0.00132584	  -18.3696	-0.00133335	  -18.3696	  -33.3337	
  -18.0614	-0.00131863	  -18.2202	-0.00137478	  -18.2221	-0.0013367	  -18.1679	-0.00134337	  -18.1679	  -33.5843	
  -17.8567	-0.00132899	  -18.0152	-0.00138357	  -18.0181	-0.00134741	  -17.9633	-0.00135332	  -17.9633	  -33.8331	
  -17.6475	-0.00133919	  -17.8093	-0.00139238	  -17.8098	-0.00135787	  -17.7555	-0.00136315	  -17.7555	  -34.0787	
  -17.4352	-0.00134927	  -17.5978	 -0.001401	   -17.597	-0.00136796	  -17.5433	-0.00137274	  -17.5433	  -34.3186	
  -17.2176	-0.00135913	  -17.3815	-0.00140931	  -17.3812	-0.00137769	  -17.3268	-0.00138204	  -17.3268	   -34.551	
  -16.9983	-0.00136874	  -17.1669	-0.00141722	  -17.1657	-0.00138713	  -17.1103	-0.00139103	  -17.1103	  -34.7758	
  -16.7805	-0.00137807	  -16.9479	-0.00142479	  -16.9477	-0.00139638	  -16.8921	-0.00139975	  -16.8921	  -34.9937	
  -16.5574	-0.00138712	  -16.7254	-0.00143226	  -16.7266	-0.00140546	  -16.6698	-0.00140828	  -16.6698	   -35.207	
  -16.3326	-0.00139596	  -16.5009	-0.00143964	  -16.5039	-0.00141443	  -16.4458	-0.00141668	  -16.4458	  -35.4169	
  -16.1047	-0.00140456	   -16.271	-0.00144689	    -16.28	-0.0014232	  -16.2186	-0.00142489	  -16.2186	  -35.6222	
  -15.8724	 -0.001413	  -16.0406	-0.00145394	  -16.0476	-0.00143173	  -15.9868	-0.00143289	  -15.9868	  -35.8223	
  -15.6413	-0.00142123	  -15.8061	-0.00146063	  -15.8101	-0.00143996	  -15.7525	-0.00144061	  -15.7525	  -36.0151	
  -15.4088	-0.00142923	  -15.5703	-0.00146698	  -15.5686	-0.00144794	  -15.5159	-0.00144805	  -15.5159	  -36.2013	
  -15.1703	-0.00143703	  -15.3309	-0.00147309	   -15.325	-0.00145575	  -15.2754	-0.00145529	  -15.2754	  -36.3823	
   -14.932	-0.00144463	  -15.0868	-0.00147901	  -15.0791	-0.0014634	  -15.0326	-0.00146235	  -15.0326	  -36.5586	
  -14.6911	-0.00145204	  -14.8392	-0.00148485	  -14.8307	-0.00147091	   -14.787	-0.00146927	   -14.787	  -36.7317	
  -14.4457	-0.00145932	   -14.589	-0.00149055	  -14.5816	-0.00147825	  -14.5388	-0.00147604	  -14.5388	  -36.9009	
  -14.1978	-0.0014665	  -14.3351	-0.00149603	  -14.3294	-0.00148525	  -14.2874	-0.0014826	  -14.2874	  -37.0649	
  -13.9491	-0.0014735	  -14.0835	-0.00150124	  -14.0742	-0.00149195	  -14.0356	-0.0014889	  -14.0356	  -37.2225	
  -13.6954	-0.00148029	  -13.8256	-0.00150612	   -13.815	-0.00149834	  -13.7787	-0.00149492	  -13.7787	  -37.3729	
  -13.4371	-0.0014868	  -13.5659	-0.00151076	  -13.5532	-0.00150448	  -13.5187	-0.00150068	  -13.5187	  -37.5171	
  -13.1736	-0.00149301	  -13.3052	-0.00151524	  -13.2896	-0.00151049	  -13.2561	-0.00150624	  -13.2561	  -37.6561	
  -12.9082	-0.00149897	  -13.0442	-0.00151953	  -13.0251	-0.00151637	  -12.9925	-0.00151162	  -12.9925	  -37.7906	
  -12.6409	-0.00150474	  -12.7808	-0.00152379	  -12.7578	-0.0015221	  -12.7265	-0.00151688	  -12.7265	   -37.922	
  -12.3746	-0.00151036	  -12.5159	-0.00152805	  -12.4916	-0.00152761	  -12.4607	-0.00152201	  -12.4607	  -38.0502	
   -12.104	-0.00151583	  -12.2504	-0.00153201	   -12.224	-0.00153282	  -12.1928	-0.00152689	  -12.1928	  -38.1722	
  -11.8335	-0.00152106	  -11.9822	-0.00153577	  -11.9533	-0.00153771	   -11.923	-0.00153151	   -11.923	  -38.2878	
  -11.5609	-0.00152602	  -11.7153	-0.00153915	  -11.6814	-0.00154236	  -11.6525	-0.00153584	  -11.6525	  -38.3961	
  -11.2863	-0.00153072	  -11.4453	-0.0015422	  -11.4065	-0.00154683	  -11.3793	-0.00153992	  -11.3793	  -38.4979	
  -11.0117	-0.00153521	  -11.1725	-0.00154532	  -11.1289	-0.00155122	  -11.1043	-0.00154392	  -11.1043	  -38.5979	
  -10.7331	-0.00153957	  -10.8972	-0.00154828	  -10.8507	-0.00155551	   -10.827	-0.00154779	   -10.827	  -38.6947	
  -10.4511	-0.00154382	  -10.6177	-0.00155111	  -10.5719	-0.00155964	  -10.5469	-0.00155152	  -10.5469	  -38.7881	
  -10.1698	-0.00154792	  -10.3392	-0.00155374	  -10.2906	-0.00156348	  -10.2666	-0.00155505	  -10.2666	  -38.8762	
  -9.88729	-0.00155179	  -10.0606	-0.00155594	  -10.0071	-0.00156698	  -9.98499	-0.00155824	  -9.98499	  -38.9559	
  -9.59881	-0.00155537	  -9.77879	-0.00155766	  -9.72072	-0.00157017	  -9.69944	-0.00156107	  -9.69944	  -39.0266	
  -9.30818	-0.00155865	  -9.49903	-0.00155905	   -9.4347	-0.00157317	  -9.41397	-0.00156362	  -9.41397	  -39.0906	
  -9.01767	-0.00156167	  -9.21325	-0.00156016	  -9.14518	-0.00157601	  -9.12537	-0.00156594	  -9.12537	  -39.1486	
  -8.72541	-0.00156451	  -8.92524	-0.0015611	  -8.85368	-0.00157866	  -8.83478	-0.00156809	  -8.83478	  -39.2023	
   -8.4317	-0.00156715	  -8.63439	-0.00156201	  -8.56151	 -0.001581	  -8.54254	-0.00157005	  -8.54254	  -39.2513	
  -8.13589	-0.0015696	  -8.34403	-0.00156276	  -8.27261	-0.00158296	  -8.25085	-0.00157177	  -8.25085	  -39.2943	
  -7.83937	-0.00157187	  -8.04745	-0.00156327	  -7.98456	-0.00158458	  -7.95712	-0.00157324	  -7.95712	  -39.3311	
  -7.54044	-0.00157408	  -7.74765	-0.00156356	  -7.69529	-0.00158598	  -7.66113	-0.00157454	  -7.66113	  -39.3635	
  -7.24058	-0.00157592	  -7.44719	-0.00156361	  -7.40594	-0.00158727	  -7.36457	-0.0015756	  -7.36457	    -39.39	
  -6.94101	-0.00157775	  -7.14255	-0.00156349	  -7.11561	-0.00158848	  -7.06639	-0.00157657	  -7.06639	  -39.4143	
  -6.64279	-0.00157936	   -6.8403	-0.0015633	  -6.82162	-0.00158956	  -6.76824	-0.00157741	  -6.76824	  -39.4352	
  -6.34486	-0.00158066	  -6.53833	 -0.001563	  -6.52746	-0.00159041	  -6.47021	-0.00157802	  -6.47021	  -39.4506	
   -6.0454	-0.00158176	  -6.23295	-0.00156246	  -6.23132	 -0.001591	  -6.16989	-0.00157841	  -6.16989	  -39.4602	
  -5.74479	-0.00158233	  -5.92777	-0.00156165	  -5.92985	-0.00159139	  -5.86747	-0.00157846	  -5.86747	  -39.4614	
  -5.44337	-0.00158259	  -5.62202	-0.00156045	  -5.62784	-0.00159157	  -5.56441	-0.0015782	  -5.56441	  -39.4551	
  -5.14619	-0.0015826	  -5.31887	-0.00155892	  -5.32368	-0.0015916	  -5.26291	-0.0015777	  -5.26291	  -39.4426	
  -4.84223	-0.00158228	  -5.01336	-0.00155711	  -5.01789	-0.00159144	  -4.95783	-0.00157694	  -4.95783	  -39.4236	
  -4.53846	-0.00158174	  -4.70605	-0.00155508	  -4.71287	-0.00159119	  -4.65246	 -0.001576	  -4.65246	  -39.4001	
  -4.23695	-0.00158097	  -4.39939	-0.00155288	  -4.40681	-0.00159083	  -4.34772	-0.00157489	  -4.34772	  -39.3723	
  -3.93372	-0.00157984	  -4.08971	-0.00155043	  -4.10006	-0.00159008	  -4.04116	-0.00157345	  -4.04116	  -39.3362	
  -3.62923	-0.0015784	  -3.78154	-0.00154794	  -3.79299	-0.00158878	  -3.73459	-0.00157171	  -3.73459	  -39.2928	
