# User: ACHyster
# File name: C:/ACHYSTER/ACHyster SENS/SHAMS/CoFe2O4-1gl-water-Zero Glycerol- Sens-07-03-2023/CoFe2O4-1gl-water-Zero Glycerol- 10_100F- 12kAm -Sens-07-03-20230002#1
# Saved at: ma. mar. 7 14:13:51 2023
# Hyster Loop (3 iterations). Intensity: 12.0 kA/m; Tuned frequency: 29.5 kHz
# Units x axis: (kA/m)
# Units y axis: "Repeats y" & "Average y" (10^(-3)Am^2); "Mass avg y" (Am^2/kg)
# Magnetic mass: 4e-05 g
# Parameter      	Repeat   1	Repeat   2	Repeat   3	Average   	Sigma     
# H_C (kA/m)     	       6.5	       6.7	       6.7	       6.6	       0.1
# M_R (Am^2/kg)  	      42.6	      43.0	      42.9	      42.8	       0.2
# M_max (Am^2/kg)	      63.7	      62.4	      62.0	      62.7	       0.7
# Area (mJ/kg)   	    1784.2	    1815.5	    1810.2	    1803.3	      13.7
# SAR (W/g)      	      52.6	      53.6	      53.4	      53.2	       0.4
#Repeat 1 x	Repeat 1 y	Repeat 2 x	Repeat 2 y	Repeat 3 x	Repeat 3 y	Average x 	Average y 	Mass avg x 	Mass avg y 
  -1.73232	-0.00198008	  -1.71636	-0.00199077	  -1.72498	-0.0019924	  -1.72455	-0.00198775	  -1.72455	  -49.6937	
  -1.65726	-0.00196918	  -1.64148	-0.00198011	  -1.64992	-0.00198173	  -1.64955	-0.00197701	  -1.64955	  -49.4251	
  -1.58224	-0.0019582	  -1.56668	-0.00196941	   -1.5749	-0.00197105	   -1.5746	-0.00196622	   -1.5746	  -49.1555	
  -1.50708	-0.00194707	  -1.49176	-0.0019587	  -1.49989	-0.00196031	  -1.49958	-0.00195536	  -1.49958	  -48.8841	
  -1.43192	-0.00193581	  -1.41686	-0.00194788	  -1.42496	-0.0019494	  -1.42458	-0.00194437	  -1.42458	  -48.6091	
  -1.35685	-0.00192449	  -1.34209	-0.00193687	   -1.3499	-0.00193832	  -1.34961	-0.00193322	  -1.34961	  -48.3306	
  -1.28172	-0.0019131	  -1.26718	-0.00192572	  -1.27461	-0.00192717	   -1.2745	 -0.001922	   -1.2745	  -48.0499	
  -1.20662	-0.0019016	  -1.19241	-0.00191453	  -1.19923	-0.00191602	  -1.19942	-0.00191072	  -1.19942	  -47.7679	
   -1.1314	-0.00188995	  -1.11752	-0.00190325	  -1.12385	-0.00190476	  -1.12426	-0.00189932	  -1.12426	  -47.4829	
  -1.05617	-0.00187815	  -1.04264	-0.00189181	  -1.04847	-0.00189328	  -1.04909	-0.00188775	  -1.04909	  -47.1936	
 -0.980855	-0.00186625	 -0.967682	-0.00188023	 -0.973186	-0.00188165	 -0.973908	-0.00187604	 -0.973908	  -46.9011	
 -0.905473	-0.0018543	 -0.892593	-0.00186858	 -0.897773	-0.00187001	 -0.898613	-0.0018643	 -0.898613	  -46.6074	
 -0.830215	-0.00184227	  -0.81756	-0.00185688	 -0.822496	-0.00185834	 -0.823424	-0.0018525	 -0.823424	  -46.3124	
 -0.754754	-0.0018301	 -0.742267	-0.00184503	 -0.747097	-0.0018465	 -0.748039	-0.00184054	 -0.748039	  -46.0135	
  -0.67929	-0.00181776	 -0.666993	-0.00183298	   -0.6717	-0.00183444	 -0.672661	-0.00182839	 -0.672661	  -45.7098	
 -0.603795	-0.00180529	 -0.591708	-0.00182081	 -0.596275	-0.00182228	 -0.597259	-0.00181613	 -0.597259	  -45.4032	
  -0.52817	-0.00179278	 -0.516308	-0.00180861	 -0.520721	-0.00181012	 -0.521733	-0.00180384	 -0.521733	  -45.0959	
 -0.452684	-0.00178019	   -0.4409	-0.00179635	 -0.445309	-0.00179787	 -0.446297	-0.00179147	 -0.446297	  -44.7868	
 -0.377152	-0.00176745	 -0.365473	-0.00178391	 -0.369852	-0.00178544	 -0.370826	-0.00177893	 -0.370826	  -44.4733	
  -0.30162	-0.0017545	 -0.289989	-0.0017713	 -0.294396	-0.00177283	 -0.295335	-0.00176621	 -0.295335	  -44.1552	
 -0.226205	-0.00174144	 -0.214578	-0.00175859	 -0.218985	-0.00176011	 -0.219923	-0.00175338	 -0.219923	  -43.8345	
 -0.150652	-0.00172835	  -0.13906	-0.00174584	 -0.143441	-0.00174733	 -0.144384	-0.00174051	 -0.144384	  -43.5127	
-0.0752296	-0.00171518	-0.0637023	-0.00173298	-0.0680351	-0.00173443	 -0.068989	-0.00172753	 -0.068989	  -43.1883	
0.000217589	-0.00170186	 0.0117344	-0.00171993	0.00755232	-0.00172139	0.00650145	-0.00171439	0.00650145	  -42.8598	
 0.0756743	-0.00168834	 0.0871494	-0.00170675	 0.0831303	-0.00170821	 0.0819847	-0.0017011	 0.0819847	  -42.5275	
  0.151043	-0.00167468	  0.162609	-0.00169354	  0.158845	-0.00169492	  0.157499	-0.00168771	  0.157499	  -42.1928	
  0.226486	-0.00166095	  0.238178	-0.00168023	  0.234523	-0.00168151	  0.233062	-0.00167423	  0.233062	  -41.8558	
  0.301893	-0.00164716	  0.313587	-0.00166674	  0.310137	-0.00166797	  0.308539	-0.00166062	  0.308539	  -41.5155	
  0.377505	-0.00163321	  0.389167	-0.00165307	   0.38571	-0.00165432	  0.384127	-0.00164687	  0.384127	  -41.1717	
  0.453118	-0.00161909	  0.464718	-0.0016393	  0.461276	-0.00164058	  0.459704	-0.00163299	  0.459704	  -40.8247	
  0.528687	-0.00160482	  0.540198	-0.00162547	  0.536864	-0.0016267	  0.535249	 -0.001619	  0.535249	  -40.4749	
  0.604389	-0.00159048	  0.615706	-0.00161149	  0.612572	-0.00161267	  0.610889	-0.00160488	  0.610889	   -40.122	
  0.679954	-0.00157605	  0.691132	-0.00159735	  0.688133	-0.00159854	  0.686406	-0.00159064	  0.686406	  -39.7661	
  0.755618	-0.00156147	  0.766557	-0.00158307	  0.763702	-0.00158433	  0.761959	-0.00157629	  0.761959	  -39.4071	
  0.831279	-0.00154671	  0.841969	-0.0015687	  0.839193	-0.00156997	   0.83748	-0.00156179	   0.83748	  -39.0448	
   0.90684	-0.00153182	   0.91719	-0.00155423	  0.914587	-0.00155543	  0.912872	-0.00154716	  0.912872	   -38.679	
  0.982536	-0.00151684	  0.992464	-0.00153962	  0.990039	-0.00154076	  0.988346	-0.00153241	  0.988346	  -38.3102	
    1.0581	-0.00150176	   1.06761	-0.00152486	   1.06537	-0.00152602	   1.06369	-0.00151755	   1.06369	  -37.9387	
   1.13352	-0.00148653	   1.14287	-0.00150998	   1.14065	-0.00151118	   1.13901	-0.00150256	   1.13901	   -37.564	
   1.20896	-0.00147113	   1.21821	-0.00149501	   1.21596	-0.00149616	   1.21437	-0.00148743	   1.21437	  -37.1859	
   1.28424	-0.00145562	   1.29353	-0.00147994	   1.29103	-0.00148099	    1.2896	-0.00147218	    1.2896	  -36.8045	
   1.35946	-0.00144001	    1.3687	-0.00146472	    1.3662	-0.00146572	   1.36479	-0.00145682	   1.36479	  -36.4204	
    1.4346	-0.00142428	   1.44376	-0.00144935	   1.44128	-0.00145038	   1.43988	-0.00144134	   1.43988	  -36.0334	
    1.5096	-0.0014084	    1.5186	-0.00143391	   1.51623	-0.00143491	   1.51481	-0.00142574	   1.51481	  -35.6435	
   1.58467	-0.00139238	   1.59349	-0.00141835	   1.59124	-0.00141926	    1.5898	  -0.00141	    1.5898	  -35.2499	
   1.65953	-0.00137624	   1.66782	-0.00140261	   1.66612	-0.00140345	   1.66449	-0.0013941	   1.66449	  -34.8525	
   1.73444	  -0.00136	   1.74188	-0.00138673	   1.74095	-0.00138756	   1.73909	-0.0013781	   1.73909	  -34.4524	
   1.80923	-0.00134361	    1.8163	-0.00137078	   1.81574	-0.00137163	   1.81376	-0.00136201	   1.81376	  -34.0502	
   1.88395	-0.00132708	   1.89085	-0.00135475	   1.89038	-0.00135558	   1.88839	-0.0013458	   1.88839	  -33.6451	
   1.95863	-0.00131046	   1.96527	-0.00133855	   1.96513	-0.00133933	   1.96301	-0.00132945	   1.96301	  -33.2362	
   2.03316	-0.00129376	   2.03954	-0.00132218	   2.03971	-0.00132292	   2.03747	-0.00131295	   2.03747	  -32.8238	
   2.10764	-0.00127691	   2.11371	-0.00130574	   2.11417	-0.00130644	   2.11184	-0.00129636	   2.11184	   -32.409	
   2.18213	-0.00125986	   2.18765	-0.00128924	   2.18863	-0.00128991	   2.18614	-0.00127967	   2.18614	  -31.9918	
   2.25651	-0.00124271	   2.26158	-0.0012726	    2.2629	-0.00127325	   2.26033	-0.00126285	   2.26033	  -31.5713	
    2.3307	-0.00122549	   2.33561	-0.00125578	   2.33708	-0.00125641	   2.33446	-0.00124589	   2.33446	  -31.1473	
   2.40481	-0.00120814	    2.4099	-0.00123883	   2.41116	-0.00123942	   2.40862	-0.0012288	   2.40862	    -30.72	
   2.47865	-0.00119058	   2.48375	-0.00122183	   2.48506	-0.00122237	   2.48249	-0.00121159	   2.48249	  -30.2898	
   2.55257	-0.00117288	   2.55727	-0.00120473	   2.55895	-0.00120525	   2.55626	-0.00119429	   2.55626	  -29.8572	
   2.62639	-0.00115514	   2.63055	-0.00118748	   2.63266	-0.00118798	   2.62986	-0.00117687	   2.62986	  -29.4217	
    2.7001	-0.00113732	   2.70393	-0.00117007	   2.70627	-0.00117055	   2.70343	-0.00115931	   2.70343	  -28.9828	
   2.77379	-0.00111931	   2.77724	-0.00115256	   2.77986	 -0.001153	   2.77696	-0.00114162	   2.77696	  -28.5406	
   2.84721	-0.00110114	   2.85062	-0.00113498	   2.85327	-0.00113538	   2.85037	-0.00112383	   2.85037	  -28.0958	
    2.9207	-0.0010829	   2.92393	-0.00111726	   2.92668	-0.00111767	   2.92377	-0.00110594	   2.92377	  -27.6486	
   2.99408	-0.00106461	   2.99706	-0.00109937	   2.99998	-0.00109984	   2.99704	-0.00108794	   2.99704	  -27.1985	
   3.06732	-0.00104618	   3.07007	-0.00108141	     3.073	-0.00108182	   3.07013	-0.0010698	   3.07013	  -26.7451	
   3.14046	-0.00102757	   3.14283	-0.00106339	   3.14601	-0.00106366	    3.1431	-0.00105154	    3.1431	  -26.2885	
   3.21347	-0.00100884	   3.21543	-0.00104524	   3.21885	-0.00104542	   3.21592	-0.00103317	   3.21592	  -25.8292	
   3.28639	-0.00099005	   3.28796	-0.00102689	   3.29143	-0.00102712	   3.28859	-0.00101469	   3.28859	  -25.3672	
   3.35928	-0.000971173	   3.36044	-0.00100839	   3.36402	-0.00100871	   3.36125	-0.000996091	   3.36125	  -24.9023	
   3.43191	-0.000952126	   3.43276	-0.000989844	   3.43637	-0.000990146	   3.43368	-0.000977372	   3.43368	  -24.4343	
   3.50448	-0.000932914	   3.50491	-0.000971223	   3.50862	-0.00097146	     3.506	-0.000958532	     3.506	  -23.9633	
   3.57696	-0.000913614	   3.57702	-0.000952482	    3.5808	-0.000952657	   3.57826	-0.000939584	   3.57826	  -23.4896	
   3.64925	-0.000894251	   3.64882	-0.000933581	   3.65268	-0.000933734	   3.65025	-0.000920522	   3.65025	  -23.0131	
   3.72146	-0.000874766	   3.72069	-0.000914561	   3.72445	-0.000914714	    3.7222	-0.000901347	    3.7222	  -22.5337	
   3.79351	-0.000855125	   3.79243	-0.000895474	    3.7961	-0.000895607	   3.79402	-0.000882068	   3.79402	  -22.0517	
    3.8655	-0.000835367	   3.86399	-0.000876316	   3.86748	-0.000876372	   3.86566	-0.000862685	   3.86566	  -21.5671	
   3.93751	-0.000815525	   3.93561	-0.000857046	    3.9387	-0.00085697	   3.93727	-0.00084318	   3.93727	  -21.0795	
   4.00929	-0.000795572	   4.00704	-0.000837637	   4.00977	-0.000837436	    4.0087	-0.000823549	    4.0087	  -20.5887	
   4.08077	-0.000775495	    4.0783	-0.000818096	   4.08045	-0.000817847	   4.07984	-0.000803813	   4.07984	  -20.0953	
   4.15222	-0.000755307	    4.1495	-0.000798446	   4.15112	-0.000798204	   4.15095	-0.000783986	   4.15095	  -19.5996	
    4.2234	-0.000735023	   4.22046	-0.000778729	    4.2216	-0.000778424	   4.22182	-0.000764059	   4.22182	  -19.1015	
    4.2943	-0.000714667	   4.29132	-0.000758955	   4.29181	-0.000758473	   4.29248	-0.000744032	   4.29248	  -18.6008	
   4.36505	-0.000694243	   4.36198	-0.000739072	   4.36205	-0.000738424	   4.36302	-0.000723913	   4.36302	  -18.0978	
   4.43551	-0.00067371	   4.43243	-0.00071904	   4.43206	-0.000718348	   4.43333	-0.000703699	   4.43333	  -17.5925	
    4.5057	-0.000653044	   4.50256	-0.000698868	   4.50186	-0.000698224	   4.50338	-0.000683379	   4.50338	  -17.0845	
   4.57581	-0.00063229	   4.57241	-0.000678624	   4.57158	-0.000677978	   4.57327	-0.000662964	   4.57327	  -16.5741	
    4.6456	-0.000611496	   4.64231	-0.000658329	   4.64104	-0.000657591	   4.64298	-0.000642472	   4.64298	  -16.0618	
   4.71536	-0.000590639	   4.71211	-0.000637943	   4.71039	-0.000637105	   4.71262	-0.000621895	   4.71262	  -15.5474	
   4.78501	-0.000569658	   4.78166	-0.000617419	    4.7797	-0.000616564	   4.78212	-0.000601214	   4.78212	  -15.0303	
   4.85431	-0.000548557	   4.85095	-0.000596779	   4.84872	-0.000595985	   4.85133	-0.00058044	   4.85133	   -14.511	
   4.92354	-0.000527391	   4.91995	-0.000576088	   4.91757	-0.000575336	   4.92035	-0.000559605	   4.92035	  -13.9901	
   4.99263	-0.000506189	   4.98885	-0.000555354	   4.98635	-0.000554581	   4.98928	-0.000538708	   4.98928	  -13.4677	
   5.06144	-0.000484903	   5.05759	-0.0005345	   5.05483	-0.000533727	   5.05795	-0.00051771	   5.05795	  -12.9428	
   5.13011	-0.000463489	   5.12621	-0.000513472	   5.12324	-0.000512808	   5.12652	-0.000496589	   5.12652	  -12.4147	
   5.19862	-0.000441977	   5.19462	-0.000492345	   5.19156	-0.000491838	   5.19494	-0.000475387	   5.19494	  -11.8847	
   5.26693	-0.000420427	   5.26285	-0.000471222	   5.25957	-0.000470774	   5.26312	-0.000454141	   5.26312	  -11.3535	
   5.33508	-0.000398844	   5.33074	-0.000450071	   5.32727	-0.000449601	   5.33103	-0.000432839	   5.33103	   -10.821	
   5.40306	-0.000377166	    5.3985	-0.000428785	   5.39489	-0.000428364	   5.39882	-0.000411438	   5.39882	   -10.286	
   5.47081	-0.000355372	   5.46593	-0.000407342	    5.4622	-0.000407112	   5.46631	-0.000389942	   5.46631	  -9.74855	
   5.53836	-0.000333552	   5.53305	-0.000385848	   5.52933	-0.000385824	   5.53358	-0.000368408	   5.53358	   -9.2102	
   5.60576	-0.000311716	   5.60007	-0.000364372	   5.59637	-0.000364412	   5.60073	-0.000346833	   5.60073	  -8.67083	
   5.67277	-0.000289762	   5.66677	-0.000342852	   5.66312	-0.000342853	   5.66755	-0.000325156	   5.66755	  -8.12889	
   5.73978	-0.000267658	   5.73316	-0.000321199	   5.72958	-0.000321265	   5.73417	-0.000303374	   5.73417	  -7.58435	
   5.80664	-0.000245512	   5.79948	-0.000299437	   5.79597	-0.000299721	    5.8007	-0.000281556	    5.8007	  -7.03891	
   5.87312	-0.000223419	    5.8655	-0.00027766	   5.86209	-0.000278137	    5.8669	-0.000259739	    5.8669	  -6.49347	
   5.93935	-0.000201318	    5.9311	-0.000255893	    5.9278	-0.000256415	   5.93275	-0.000237875	   5.93275	  -5.94688	
   6.00539	-0.000179083	   5.99651	-0.00023406	   5.99341	-0.0002346	   5.99844	-0.000215914	   5.99844	  -5.39785	
   6.07108	-0.000156714	   6.06167	-0.000212112	   6.05878	-0.000212797	   6.06384	-0.000193874	   6.06384	  -4.84686	
   6.13645	-0.000134336	   6.12653	-0.000190108	    6.1237	-0.000191004	   6.12889	-0.000171816	   6.12889	   -4.2954	
   6.20174	-0.000111993	   6.19122	-0.000168114	   6.18855	-0.000169127	   6.19384	-0.000149745	   6.19384	  -3.74362	
   6.26673	-8.96126e-05	   6.25563	-0.000146108	   6.25319	-0.000147141	   6.25852	-0.00012762	   6.25852	  -3.19051	
   6.33145	-6.71151e-05	   6.31979	-0.000124021	   6.31743	-0.000125127	   6.32289	-0.000105421	   6.32289	  -2.63552	
   6.39598	-4.45379e-05	   6.38363	-0.000101843	   6.38151	-0.000103131	   6.38704	-8.31708e-05	   6.38704	  -2.07927	
   6.46025	-2.19695e-05	   6.44732	-7.96337e-05	   6.44543	-8.11114e-05	     6.451	-6.09049e-05	     6.451	  -1.52262	
   6.52421	5.79046e-07	   6.51066	-5.74289e-05	     6.509	-5.90082e-05	   6.51462	-3.86193e-05	   6.51462	 -0.965484	
   6.58801	2.31782e-05	   6.57378	-3.51907e-05	   6.57218	-3.6837e-05	   6.57799	-1.62832e-05	   6.57799	  -0.40708	
    6.6516	4.5861e-05	    6.6368	-1.28758e-05	   6.63528	-1.46484e-05	   6.64123	6.11226e-06	   6.64123	  0.152806	
   6.71478	6.85781e-05	   6.69952	9.4947e-06	   6.69808	7.54276e-06	   6.70413	2.85385e-05	   6.70413	  0.713463	
   6.77778	9.12628e-05	   6.76184	3.18671e-05	   6.76065	2.97051e-05	   6.76676	5.0945e-05	   6.76676	   1.27363	
   6.84064	0.000113927	   6.82384	5.42615e-05	   6.82355	5.18523e-05	   6.82934	7.3347e-05	   6.82934	   1.83367	
   6.90316	0.000136641	   6.88563	7.67046e-05	   6.88658	7.40065e-05	   6.89179	9.57839e-05	   6.89179	    2.3946	
   6.96528	0.000159419	   6.94702	9.91697e-05	   6.94918	9.6219e-05	   6.95383	0.000118269	   6.95383	   2.95673	
   7.02702	0.000182198	   7.00799	0.000121613	   7.01078	0.000118495	   7.01526	0.000140769	   7.01526	   3.51922	
   7.08852	0.000204934	   7.06885	0.000144043	   7.07179	0.000140781	   7.07638	0.000163253	   7.07638	   4.08132	
   7.14958	0.000227689	    7.1294	0.000166528	   7.13256	0.000163016	   7.13718	0.000185744	   7.13718	   4.64361	
   7.21039	0.000250488	   7.18976	0.000189074	   7.19325	0.000185214	    7.1978	0.000208259	    7.1978	   5.20647	
   7.27105	0.000273267	      7.25	0.000211604	   7.25372	0.000207444	   7.25826	0.000230772	   7.25826	    5.7693	
   7.33137	0.00029597	   7.31001	0.000234063	   7.31409	0.000229741	   7.31849	0.000253258	   7.31849	   6.33145	
   7.39125	0.000318652	   7.36961	 0.0002565	   7.37408	0.000252044	   7.37831	0.000275732	   7.37831	   6.89331	
   7.45095	0.000341405	   7.42898	0.000278984	   7.43382	0.000274282	   7.43791	0.000298223	   7.43791	   7.45558	
   7.51041	0.000364207	   7.48823	0.000301501	   7.49323	0.000296502	   7.49729	0.000320736	   7.49729	   8.01841	
   7.56946	0.000386949	   7.54717	0.000323976	   7.55231	0.000318807	   7.55631	0.000343244	   7.55631	    8.5811	
   7.62825	0.000409589	    7.6057	0.000346378	   7.61113	0.000341181	   7.61503	0.000365716	   7.61503	    9.1429	
   7.68693	0.000432214	     7.664	0.000368761	   7.66968	0.000363489	   7.67354	0.000388154	   7.67354	   9.70386	
    7.7453	0.000454894	   7.72212	0.000391176	   7.72802	0.000385661	   7.73182	0.000410577	   7.73182	   10.2644	
    7.8032	0.000477579	   7.77987	0.00041359	   7.78596	 0.0004078	   7.78967	0.00043299	   7.78967	   10.8247	
   7.86074	0.000500181	   7.83729	0.000435931	   7.84348	0.00043002	   7.84717	0.000455377	   7.84717	   11.3844	
   7.91803	0.000522701	   7.89456	0.000458197	   7.90059	0.000452283	   7.90439	0.000477727	   7.90439	   11.9432	
   7.97499	0.000545217	   7.95159	0.000480448	   7.95745	0.000474466	   7.96135	0.000500044	   7.96135	   12.5011	
   8.03145	0.000567762	    8.0082	0.000502715	    8.0139	0.000496539	   8.01785	0.000522338	   8.01785	   13.0585	
   8.08761	0.000590273	   8.06437	0.000524952	   8.06991	0.000518588	   8.07397	0.000544604	   8.07397	   13.6151	
    8.1436	0.000612682	   8.12021	0.000547109	   8.12576	0.000540676	   8.12986	0.000566822	   8.12986	   14.1706	
   8.19923	0.000635016	   8.17579	0.000569201	   8.18135	0.000562758	   8.18546	0.000588992	   8.18546	   14.7248	
   8.25443	0.000657355	   8.23096	0.000591277	    8.2365	0.00058476	   8.24063	0.000611131	   8.24063	   15.2783	
   8.30932	0.000679705	   8.28569	0.000613339	   8.29122	0.000606686	   8.29541	0.000633243	   8.29541	   15.8311	
   8.36395	0.000701989	   8.34026	0.000635346	   8.34576	0.000628591	   8.34999	0.000655309	   8.34999	   16.3827	
   8.41823	0.000724161	   8.39457	0.000657278	   8.40005	0.000650506	   8.40428	0.000677315	   8.40428	   16.9329	
   8.47209	0.000746272	   8.44847	0.000679171	   8.45391	0.00067238	   8.45816	0.000699274	   8.45816	   17.4819	
   8.52551	0.000768381	   8.50194	0.000701038	   8.50727	0.00069417	   8.51157	0.000721196	   8.51157	   18.0299	
    8.5787	0.000790462	   8.55527	0.00072284	    8.5604	0.00071591	   8.56479	0.000743071	   8.56479	   18.5768	
   8.63157	0.000812442	   8.60835	0.000744557	    8.6133	0.00073764	   8.61774	0.00076488	   8.61774	    19.122	
   8.68397	0.000834313	   8.66104	0.000766217	   8.66581	0.000759331	   8.67028	0.00078662	   8.67028	   19.6655	
   8.73605	0.000856136	   8.71325	0.000787833	   8.71778	0.000780942	   8.72236	0.000808304	   8.72236	   20.2076	
   8.78785	0.000877952	   8.76526	0.00080939	   8.76941	0.000802472	   8.77417	0.000829938	   8.77417	   20.7484	
   8.83939	0.000899708	   8.81707	0.000830875	   8.82086	0.000823944	   8.82577	0.000851509	   8.82577	   21.2877	
    8.8905	0.000921316	   8.86851	 0.0008523	   8.87197	0.000845358	   8.87699	0.000872991	   8.87699	   21.8248	
   8.94112	0.000942798	   8.91945	0.000873669	    8.9226	0.000866686	   8.92772	0.000894384	   8.92772	   22.3596	
   8.99141	0.000964252	   8.96996	0.000894958	   8.97283	0.000887925	   8.97806	0.000915712	   8.97806	   22.8928	
   9.04134	0.000985692	   9.02017	0.000916163	   9.02287	0.000909087	   9.02813	0.000936981	   9.02813	   23.4245	
   9.09093	0.00100702	   9.07011	0.00093731	   9.07264	0.000930176	   9.07789	0.000958167	   9.07789	   23.9542	
   9.14013	0.00102818	   9.11962	 0.0009584	   9.12201	0.000951183	   9.12725	0.000979256	   9.12725	   24.4814	
   9.18894	0.00104927	   9.16857	0.000979398	   9.17083	0.000972095	   9.17611	0.00100026	   9.17611	   25.0064	
   9.23756	0.00107034	   9.21716	0.00100029	   9.21914	0.000992902	   9.22462	0.00102118	   9.22462	   25.5294	
   9.28593	0.00109133	   9.26543	0.00102109	   9.26709	 0.0010136	   9.27282	0.00104201	   9.27282	   26.0503	
    9.3339	0.00111219	    9.3134	0.00104183	   9.31476	0.00103423	   9.32069	0.00106275	   9.32069	   26.5688	
   9.38142	0.00113292	   9.36091	0.00106249	   9.36202	0.00105479	   9.36812	 0.0010834	   9.36812	   27.0849	
   9.42862	0.00115357	   9.40786	0.00108303	   9.40889	0.00107525	   9.41512	0.00110395	   9.41512	   27.5988	
    9.4756	0.00117419	   9.45447	0.00110345	   9.45552	0.00109559	   9.46186	0.00112441	   9.46186	   28.1102	
    9.5223	 0.0011947	   9.50075	 0.0011238	    9.5019	 0.0011158	   9.50832	0.00114477	   9.50832	   28.6192	
   9.56858	0.00121505	   9.54673	0.00114412	   9.54798	0.00113594	   9.55443	0.00116504	   9.55443	    29.126	
    9.6144	0.00123527	   9.59228	0.00116434	   9.59362	  0.001156	    9.6001	 0.0011852	    9.6001	   29.6301	
   9.65978	0.00125542	   9.63734	0.00118437	    9.6387	0.00117594	   9.64527	0.00120524	   9.64527	   30.1311	
   9.70502	0.00127551	   9.68205	0.00120423	   9.68353	0.00119574	    9.6902	0.00122516	    9.6902	    30.629	
   9.74999	0.00129548	   9.72648	0.00122404	    9.7282	0.00121545	   9.73489	0.00124499	   9.73489	   31.1248	
   9.79455	0.00131531	   9.77062	0.00124386	    9.7725	0.00123507	   9.77922	0.00126475	   9.77922	   31.6187	
   9.83882	0.00133498	   9.81437	0.00126358	   9.81639	0.00125458	   9.82319	0.00128438	   9.82319	   32.1095	
   9.88324	0.00135453	   9.85759	0.00128308	   9.85975	0.00127398	   9.86686	0.00130387	   9.86686	   32.5966	
    9.9274	0.00137396	   9.90027	0.00130243	   9.90263	0.00129327	    9.9101	0.00132322	    9.9101	   33.0805	
   9.97097	0.00139326	   9.94266	0.00132174	   9.94528	0.00131244	   9.95297	0.00134248	   9.95297	    33.562	
   10.0136	0.00141246	   9.98468	  0.001341	   9.98771	 0.0013315	   9.99532	0.00136166	   9.99532	   34.0414	
   10.0556	0.00143155	   10.0264	 0.0013601	   10.0298	0.00135045	   10.0373	 0.0013807	   10.0373	   34.5175	
   10.0973	0.00145045	   10.0677	0.00137899	   10.0714	0.00136927	   10.0788	0.00139957	   10.0788	   34.9892	
   10.1387	0.00146915	   10.1084	0.00139775	   10.1126	0.00138795	   10.1199	0.00141828	   10.1199	   35.4571	
   10.1797	0.00148774	   10.1488	0.00141644	   10.1533	0.00140651	   10.1606	 0.0014369	   10.1606	   35.9225	
   10.2201	0.00150628	   10.1888	0.00143504	   10.1937	0.00142498	   10.2008	0.00145543	   10.2008	   36.3858	
     10.26	0.00152469	   10.2285	0.00145344	   10.2338	0.00144334	   10.2408	0.00147382	   10.2408	   36.8455	
   10.2995	0.00154288	    10.268	0.00147163	   10.2735	0.00146155	   10.2803	0.00149202	   10.2803	   37.3005	
   10.3386	0.00156087	   10.3071	 0.0014897	   10.3129	0.00147961	   10.3195	0.00151006	   10.3195	   37.7516	
   10.3771	0.00157877	   10.3456	 0.0015077	   10.3516	0.00149756	   10.3581	0.00152801	   10.3581	   38.2002	
   10.4154	0.00159661	   10.3835	0.00152558	   10.3898	0.00151541	   10.3962	0.00154586	   10.3962	   38.6466	
   10.4533	0.00161428	    10.421	0.00154326	   10.4275	0.00153313	   10.4339	0.00156356	   10.4339	   39.0889	
    10.491	0.00163172	   10.4584	0.00156071	    10.465	 0.0015507	   10.4714	0.00158104	   10.4714	   39.5261	
   10.5282	0.00164898	   10.4956	0.00157798	    10.502	 0.0015681	   10.5086	0.00159835	   10.5086	   39.9588	
   10.5649	0.00166617	   10.5324	0.00159514	   10.5388	0.00158539	   10.5454	0.00161557	   10.5454	   40.3892	
   10.6011	0.00168327	   10.5685	0.00161221	    10.575	0.00160259	   10.5816	0.00163269	   10.5816	   40.8173	
   10.6366	0.00170018	   10.6038	0.00162917	   10.6108	0.00161963	   10.6171	0.00164966	   10.6171	   41.2415	
   10.6718	0.00171686	   10.6386	0.00164591	   10.6461	0.00163649	   10.6522	0.00166642	   10.6522	   41.6605	
   10.7067	0.00173339	   10.6733	0.00166243	   10.6809	0.00165318	    10.687	  0.001683	    10.687	    42.075	
   10.7412	0.00174984	   10.7079	0.00167884	    10.715	0.00166979	   10.7214	0.00169949	   10.7214	   42.4873	
   10.7754	0.00176616	    10.742	 0.0016952	   10.7484	0.00168632	   10.7553	0.00171589	   10.7553	   42.8973	
   10.8092	0.00178225	   10.7756	0.00171141	   10.7814	0.00170266	   10.7887	0.00173211	   10.7887	   43.3028	
   10.8424	0.00179814	   10.8087	0.00172736	   10.8141	0.00171878	   10.8218	0.00174809	   10.8218	   43.7023	
   10.8751	 0.0018139	   10.8414	0.00174308	   10.8468	0.00173476	   10.8544	0.00176391	   10.8544	   44.0978	
   10.9072	0.00182956	   10.8737	0.00175873	   10.8791	0.00175065	   10.8866	0.00177964	   10.8866	   44.4911	
   10.9386	0.00184507	   10.9054	0.00177435	   10.9114	0.00176639	   10.9184	0.00179527	   10.9184	   44.8818	
   10.9698	0.00186038	   10.9366	 0.0017898	   10.9434	0.00178192	   10.9499	 0.0018107	   10.9499	   45.2675	
   11.0008	0.00187545	   10.9672	0.00180496	   10.9748	 0.0017973	   10.9809	 0.0018259	   10.9809	   45.6476	
   11.0314	0.00189035	   10.9975	0.00181992	   11.0054	0.00181259	   11.0114	0.00184095	   11.0114	   46.0239	
   11.0616	0.00190519	   11.0274	0.00183483	   11.0354	0.00182777	   11.0415	0.00185593	   11.0415	   46.3982	
   11.0907	0.00191994	    11.057	0.00184969	   11.0647	0.00184272	   11.0708	0.00187079	   11.0708	   46.7696	
   11.1192	0.00193449	   11.0862	0.00186434	   11.0938	0.00185746	   11.0997	0.00188543	   11.0997	   47.1358	
   11.1475	0.00194875	    11.115	0.00187871	   11.1226	0.00187209	   11.1284	0.00189985	   11.1284	   47.4962	
   11.1757	 0.0019628	   11.1433	0.00189292	    11.151	0.00188665	   11.1567	0.00191412	   11.1567	   47.8531	
   11.2036	 0.0019768	    11.171	0.00190708	   11.1789	0.00190105	   11.1845	0.00192831	   11.1845	   48.2078	
   11.2309	0.00199073	   11.1981	0.00192114	   11.2062	0.00191523	   11.2118	0.00194237	   11.2118	   48.5591	
   11.2577	0.00200443	   11.2248	0.00193499	   11.2329	0.00192925	   11.2385	0.00195622	   11.2385	   48.9055	
   11.2842	0.00201786	    11.251	0.00194859	   11.2592	0.00194316	   11.2648	0.00196987	   11.2648	   49.2468	
   11.3102	0.00203114	   11.2767	0.00196208	   11.2851	0.00195691	   11.2907	0.00198338	   11.2907	   49.5844	
   11.3359	0.00204435	   11.3022	 0.0019755	   11.3107	0.00197046	   11.3163	0.00199677	   11.3163	   49.9193	
   11.3613	0.00205745	   11.3274	 0.0019888	   11.3359	0.00198388	   11.3415	0.00201004	   11.3415	    50.251	
   11.3863	0.00207031	   11.3521	0.00200186	   11.3607	0.00199722	   11.3664	0.00202313	   11.3664	   50.5782	
   11.4109	0.00208294	   11.3766	0.00201473	   11.3852	0.00201043	   11.3909	0.00203603	   11.3909	   50.9008	
   11.4349	0.00209545	   11.4006	 0.0020275	   11.4092	0.00202342	   11.4149	0.00204879	   11.4149	   51.2197	
   11.4585	0.00210788	   11.4242	0.00204019	   11.4328	0.00203618	   11.4385	0.00206142	   11.4385	   51.5354	
   11.4815	0.00212015	   11.4474	0.00205272	   11.4559	0.00204884	   11.4616	 0.0020739	   11.4616	   51.8475	
   11.5041	0.00213219	     11.47	0.00206503	   11.4784	0.00206144	   11.4842	0.00208622	   11.4842	   52.1555	
   11.5264	0.00214405	    11.492	 0.0020772	   11.5004	0.00207389	   11.5063	0.00209838	   11.5063	   52.4595	
   11.5484	0.00215582	   11.5136	0.00208928	   11.5219	0.00208611	   11.5279	 0.0021104	   11.5279	   52.7601	
     11.57	0.00216748	   11.5346	0.00210125	   11.5428	0.00209812	   11.5491	0.00212228	   11.5491	   53.0571	
   11.5912	0.00217895	    11.555	0.00211303	   11.5632	0.00211003	   11.5698	  0.002134	   11.5698	   53.3501	
    11.612	0.00219023	   11.5749	0.00212462	   11.5831	0.00212186	     11.59	0.00214557	     11.59	   53.6392	
   11.6323	0.00220135	   11.5943	 0.0021361	   11.6024	0.00213351	   11.6097	0.00215699	   11.6097	   53.9247	
   11.6523	0.00221237	   11.6133	 0.0021475	   11.6213	0.00214494	    11.629	0.00216827	    11.629	   54.2068	
   11.6718	0.00222327	   11.6319	0.00215877	   11.6398	0.00215619	   11.6479	0.00217941	   11.6479	   54.4853	
   11.6909	0.00223402	   11.6502	0.00216985	    11.658	0.00216736	   11.6664	0.00219041	   11.6664	   54.7602	
   11.7095	0.00224461	   11.6682	0.00218077	    11.676	0.00217842	   11.6846	0.00220127	   11.6846	   55.0317	
   11.7278	0.00225505	   11.6859	0.00219158	   11.6937	 0.0021893	   11.7024	0.00221198	   11.7024	   55.2994	
   11.7455	0.00226533	   11.7032	 0.0022023	   11.7111	0.00219996	     11.72	0.00222253	     11.72	   55.5633	
   11.7629	0.00227547	   11.7202	0.00221288	   11.7282	0.00221048	   11.7371	0.00223294	   11.7371	   55.8236	
   11.7797	0.00228547	   11.7368	0.00222328	    11.745	 0.0022209	   11.7539	0.00224322	   11.7539	   56.0804	
   11.7961	0.00229534	   11.7531	0.00223353	   11.7615	0.00223119	   11.7702	0.00225335	   11.7702	   56.3338	
   11.8118	0.00230506	    11.769	0.00224368	   11.7775	0.00224129	   11.7861	0.00226334	   11.7861	   56.5835	
   11.8271	0.00231462	   11.7846	0.00225372	   11.7932	 0.0022512	   11.8016	0.00227318	   11.8016	   56.8295	
   11.8418	0.00232405	   11.7997	0.00226358	   11.8083	0.00226097	   11.8166	0.00228287	   11.8166	   57.0716	
    11.856	0.00233334	   11.8144	0.00227324	    11.823	0.00227063	   11.8311	 0.0022924	   11.8311	     57.31	
   11.8696	0.00234249	   11.8287	0.00228282	   11.8373	0.00228015	   11.8452	0.00230182	   11.8452	   57.5455	
   11.8827	0.00235152	   11.8426	0.00229239	   11.8511	0.00228953	   11.8588	0.00231114	   11.8588	   57.7786	
   11.8953	 0.0023604	    11.856	0.00230187	   11.8644	0.00229876	   11.8719	0.00232034	   11.8719	   58.0085	
   11.9073	0.00236914	   11.8689	 0.0023111	   11.8772	0.00230783	   11.8845	0.00232936	   11.8845	   58.2339	
   11.9188	0.00237773	   11.8814	0.00232008	   11.8896	0.00231676	   11.8966	0.00233819	   11.8966	   58.4548	
   11.9298	 0.0023862	   11.8932	0.00232895	   11.9015	0.00232555	   11.9082	 0.0023469	   11.9082	   58.6725	
   11.9404	0.00239453	   11.9047	0.00233781	   11.9128	0.00233422	   11.9193	0.00235552	   11.9193	    58.888	
   11.9505	0.00240272	   11.9156	0.00234659	   11.9237	0.00234276	   11.9299	0.00236402	   11.9299	   59.1006	
     11.96	0.00241077	   11.9261	0.00235518	   11.9341	0.00235117	   11.9401	0.00237238	   11.9401	   59.3094	
    11.969	0.00241872	   11.9361	0.00236359	   11.9441	0.00235944	   11.9497	0.00238058	   11.9497	   59.5145	
   11.9775	0.00242657	   11.9457	 0.0023719	   11.9535	0.00236757	   11.9589	0.00238868	   11.9589	    59.717	
    11.985	0.00243426	   11.9547	0.00238017	   11.9625	0.00237557	   11.9674	0.00239666	   11.9674	   59.9166	
    11.992	0.00244173	   11.9634	0.00238832	   11.9709	 0.0023834	   11.9755	0.00240448	   11.9755	   60.1121	
    11.999	0.00244905	   11.9716	0.00239628	    11.979	0.00239109	   11.9832	0.00241214	   11.9832	   60.3035	
   12.0055	0.00245635	   11.9794	0.00240408	   11.9866	0.00239872	   11.9905	0.00241972	   11.9905	   60.4929	
   12.0115	0.00246362	   11.9866	 0.0024118	   11.9937	 0.0024063	   11.9973	0.00242724	   11.9973	    60.681	
   12.0169	0.00247071	   11.9934	0.00241945	   12.0004	0.00241369	   12.0036	0.00243462	   12.0036	   60.8654	
   12.0219	0.00247753	   11.9996	0.00242695	   12.0066	0.00242083	   12.0094	0.00244177	   12.0094	   61.0443	
   12.0261	0.00248424	   12.0051	0.00243426	   12.0123	0.00242782	   12.0145	0.00244877	   12.0145	   61.2194	
   12.0298	0.00249099	   12.0101	0.00244142	   12.0176	0.00243479	   12.0192	0.00245573	   12.0192	   61.3934	
   12.0333	0.00249768	   12.0145	0.00244852	   12.0225	 0.0024417	   12.0234	0.00246263	   12.0234	   61.5658	
   12.0367	0.00250412	   12.0184	0.00245552	   12.0267	0.00244844	   12.0273	0.00246936	   12.0273	    61.734	
   12.0397	0.00251034	   12.0217	0.00246236	   12.0302	0.00245497	   12.0305	0.00247589	   12.0305	   61.8973	
   12.0422	0.00251655	   12.0242	0.00246905	   12.0328	0.00246139	   12.0331	0.00248233	   12.0331	   62.0582	
   12.0439	 0.0025228	   12.0261	0.00247565	   12.0348	0.00246777	    12.035	0.00248874	    12.035	   62.2185	
   12.0453	0.00252887	   12.0274	0.00248216	   12.0361	0.00247407	   12.0363	0.00249503	   12.0363	   62.3758	
   12.0462	0.00253465	    12.028	0.00248851	   12.0368	 0.0024802	    12.037	0.00250112	    12.037	    62.528	
   12.0468	0.00254028	    12.028	0.00249474	   12.0367	0.00248614	   12.0372	0.00250705	   12.0372	   62.6764	
   12.0469	0.00254596	   12.0274	0.00250094	    12.036	  0.002492	   12.0368	0.00251297	   12.0368	   62.8242	
   12.0467	0.00255164	   12.0262	0.00250705	   12.0348	0.00249783	   12.0359	0.00251884	   12.0359	    62.971	
   12.0459	0.00255712	   12.0247	0.00251298	   12.0331	0.00250355	   12.0346	0.00252455	   12.0346	   63.1137	
   12.0446	0.00256232	   12.0228	0.00251873	   12.0309	0.00250909	   12.0328	0.00253004	   12.0328	   63.2511	
   12.0429	0.00256742	   12.0203	 0.0025244	   12.0283	0.00251448	   12.0305	0.00253543	   12.0305	   63.3858	
   12.0407	0.00257258	   12.0173	0.00253006	   12.0253	0.00251981	   12.0278	0.00254081	   12.0278	   63.5204	
    12.038	 0.0025777	   12.0138	0.00253562	   12.0219	0.00252509	   12.0246	0.00254614	   12.0246	   63.6534	
    12.035	0.00258259	     12.01	0.00254097	   12.0182	0.00253025	   12.0211	0.00255127	   12.0211	   63.7818	
   12.0316	0.00258727	   12.0056	0.00254615	   12.0142	0.00253524	   12.0171	0.00255622	   12.0171	   63.9055	
   12.0277	 0.0025919	    12.001	0.00255129	   12.0099	0.00254013	   12.0129	0.00256111	   12.0129	   64.0277	
   12.0235	0.00259658	   11.9961	0.00255642	   12.0052	0.00254498	   12.0082	0.00256599	   12.0082	   64.1498	
   12.0185	0.00260119	   11.9908	0.00256142	        12	0.00254976	   12.0031	0.00257079	   12.0031	   64.2697	
   12.0129	0.00260557	   11.9849	0.00256621	    11.994	 0.0025544	   11.9973	0.00257539	   11.9973	   64.3848	
    12.007	0.00260975	   11.9784	0.00257086	   11.9875	 0.0025589	    11.991	0.00257984	    11.991	    64.496	
   12.0008	0.00261393	   11.9716	 0.0025755	   11.9804	0.00256332	   11.9843	0.00258425	   11.9843	   64.6063	
   11.9941	0.00261818	   11.9645	0.00258009	   11.9727	0.00256771	   11.9771	0.00258866	   11.9771	   64.7165	
   11.9867	0.00262234	   11.9569	0.00258454	   11.9647	0.00257202	   11.9694	0.00259297	   11.9694	   64.8242	
   11.9789	0.00262627	    11.949	0.00258882	   11.9563	0.00257619	   11.9614	0.00259709	   11.9614	   64.9274	
   11.9709	0.00263006	   11.9407	0.00259301	   11.9477	0.00258024	   11.9531	 0.0026011	   11.9531	   65.0276	
   11.9621	0.00263388	    11.932	0.00259718	   11.9385	0.00258424	   11.9442	 0.0026051	   11.9442	   65.1274	
   11.9528	0.00263772	   11.9228	0.00260126	    11.929	 0.0025882	   11.9348	0.00260906	   11.9348	   65.2265	
   11.9431	 0.0026414	    11.913	0.00260519	    11.919	0.00259205	    11.925	0.00261288	    11.925	    65.322	
   11.9333	0.00264486	   11.9026	0.00260898	   11.9085	0.00259575	   11.9148	0.00261653	   11.9148	   65.4133	
   11.9231	0.00264824	   11.8918	0.00261272	   11.8974	0.00259937	   11.9041	0.00262011	   11.9041	   65.5028	
   11.9124	0.00265166	   11.8803	0.00261641	   11.8857	0.00260296	   11.8928	0.00262368	   11.8928	   65.5919	
   11.9013	0.00265504	   11.8685	0.00261998	   11.8737	0.00260648	   11.8811	0.00262717	   11.8811	   65.6792	
   11.8896	0.00265823	   11.8563	0.00262342	   11.8612	0.00260988	    11.869	0.00263051	    11.869	   65.7628	
   11.8774	0.00266125	   11.8437	 0.0026268	   11.8484	0.00261317	   11.8565	0.00263374	   11.8565	   65.8435	
   11.8647	0.00266425	   11.8308	0.00263013	   11.8353	0.00261643	   11.8436	0.00263694	   11.8436	   65.9234	
   11.8516	0.00266727	   11.8174	0.00263337	   11.8216	0.00261965	   11.8302	 0.0026401	   11.8302	   66.0024	
   11.8381	 0.0026702	   11.8034	0.00263644	   11.8075	0.00262278	   11.8164	0.00264314	   11.8164	   66.0786	
   11.8242	0.00267295	   11.7888	0.00263941	   11.7928	0.00262578	    11.802	0.00264605	    11.802	   66.1511	
   11.8097	 0.0026756	   11.7737	0.00264234	   11.7777	0.00262868	    11.787	0.00264887	    11.787	   66.2218	
   11.7946	0.00267825	   11.7582	0.00264523	    11.762	0.00263155	   11.7716	0.00265168	   11.7716	   66.2919	
    11.779	0.00268088	   11.7422	0.00264801	   11.7458	0.00263436	   11.7557	0.00265442	   11.7557	   66.3604	
   11.7629	0.00268341	   11.7259	0.00265064	   11.7292	0.00263706	   11.7393	0.00265704	   11.7393	    66.426	
   11.7464	0.00268578	    11.709	0.00265318	   11.7121	0.00263965	   11.7225	0.00265954	   11.7225	   66.4885	
   11.7293	0.00268806	   11.6916	 0.0026557	   11.6945	0.00264217	   11.7052	0.00266198	   11.7052	   66.5494	
   11.7118	0.00269033	   11.6735	 0.0026582	   11.6763	0.00264464	   11.6872	0.00266439	   11.6872	   66.6097	
   11.6935	0.00269257	    11.655	 0.0026606	   11.6577	0.00264704	   11.6687	0.00266674	   11.6687	   66.6685	
   11.6748	0.00269471	    11.636	0.00266285	   11.6386	0.00264935	   11.6498	0.00266897	   11.6498	   66.7242	
   11.6555	0.00269672	   11.6167	0.00266499	   11.6192	0.00265156	   11.6305	0.00267109	   11.6305	   66.7773	
    11.636	0.00269867	    11.597	0.00266711	   11.5995	0.00265373	   11.6109	0.00267317	   11.6109	   66.8292	
   11.6161	0.00270059	   11.5768	0.00266921	   11.5793	0.00265584	   11.5907	0.00267521	   11.5907	   66.8804	
   11.5957	0.00270244	   11.5562	0.00267122	   11.5584	0.00265788	   11.5701	0.00267718	   11.5701	   66.9295	
   11.5747	0.00270416	    11.535	 0.0026731	   11.5371	0.00265983	   11.5489	0.00267903	   11.5489	   66.9757	
   11.5531	0.00270581	   11.5133	0.00267491	   11.5154	 0.0026617	   11.5272	0.00268081	   11.5272	   67.0202	
    11.531	0.00270746	   11.4914	0.00267669	   11.4933	0.00266352	   11.5052	0.00268256	   11.5052	    67.064	
   11.5085	0.00270907	   11.4691	0.00267842	   11.4708	 0.0026653	   11.4828	0.00268427	   11.4828	   67.1067	
   11.4856	0.00271056	   11.4465	0.00268006	   11.4478	0.00266703	     11.46	0.00268588	     11.46	    67.147	
   11.4621	0.00271191	   11.4233	0.00268159	   11.4242	0.00266864	   11.4365	0.00268738	   11.4365	   67.1845	
   11.4379	0.00271325	   11.3995	0.00268306	   11.4002	 0.0026701	   11.4125	 0.0026888	   11.4125	   67.2201	
   11.4132	0.00271459	   11.3754	0.00268451	   11.3759	 0.0026715	   11.3882	 0.0026902	   11.3882	    67.255	
   11.3882	0.00271583	   11.3508	 0.0026859	   11.3513	0.00267291	   11.3634	0.00269155	   11.3634	   67.2886	
   11.3628	0.00271688	   11.3259	0.00268721	   11.3262	 0.0026743	   11.3383	0.00269279	   11.3383	   67.3199	
   11.3369	0.00271787	   11.3003	0.00268844	   11.3005	0.00267555	   11.3126	0.00269395	   11.3126	   67.3488	
   11.3106	0.00271892	   11.2743	0.00268958	   11.2743	0.00267668	   11.2864	0.00269506	   11.2864	   67.3764	
   11.2838	0.00271994	   11.2479	0.00269064	   11.2478	0.00267777	   11.2598	0.00269612	   11.2598	   67.4029	
   11.2565	0.00272081	   11.2212	0.00269166	   11.2209	0.00267887	   11.2329	0.00269711	   11.2329	   67.4278	
   11.2291	0.00272155	    11.194	0.00269264	   11.1938	0.00267989	   11.2056	0.00269803	   11.2056	   67.4507	
    11.201	0.00272231	   11.1664	0.00269355	    11.166	0.00268078	   11.1778	0.00269888	   11.1778	    67.472	
   11.1726	0.00272309	   11.1383	0.00269438	   11.1377	0.00268161	   11.1495	0.00269969	   11.1495	   67.4923	
   11.1437	0.00272377	   11.1097	0.00269519	    11.109	0.00268243	   11.1208	0.00270046	   11.1208	   67.5116	
   11.1145	0.00272428	   11.0808	0.00269598	     11.08	0.00268326	   11.0918	0.00270117	   11.0918	   67.5293	
   11.0848	0.00272469	   11.0514	0.00269668	   11.0505	0.00268403	   11.0622	 0.0027018	   11.0622	    67.545	
   11.0547	0.00272515	   11.0216	0.00269728	   11.0205	 0.0026846	   11.0323	0.00270234	   11.0323	   67.5586	
    11.024	0.00272561	   10.9912	0.00269782	   10.9903	0.00268501	   11.0018	0.00270282	   11.0018	   67.5704	
   10.9929	0.00272596	   10.9605	0.00269835	   10.9599	0.00268542	   10.9711	0.00270324	   10.9711	   67.5811	
   10.9614	0.00272612	   10.9295	0.00269883	    10.929	0.00268593	     10.94	0.00270363	     10.94	   67.5906	
   10.9296	 0.0027262	   10.8982	 0.0026992	   10.8971	 0.0026864	   10.9083	0.00270393	   10.9083	   67.5984	
   10.8973	 0.0027263	   10.8662	0.00269949	   10.8645	0.00268671	    10.876	0.00270417	    10.876	   67.6042	
   10.8644	0.00272641	   10.8337	0.00269974	   10.8316	0.00268689	   10.8433	0.00270435	   10.8433	   67.6086	
   10.8312	 0.0027264	    10.801	0.00269996	   10.7984	0.00268706	   10.8102	0.00270447	   10.8102	   67.6119	
   10.7977	0.00272624	   10.7678	0.00270011	   10.7648	0.00268725	   10.7768	0.00270453	   10.7768	   67.6133	
   10.7637	0.00272601	    10.734	0.00270016	   10.7306	0.00268734	   10.7428	0.00270451	   10.7428	   67.6127	
   10.7294	0.00272578	   10.6997	0.00270016	   10.6959	0.00268732	   10.7084	0.00270442	   10.7084	   67.6105	
   10.6947	0.00272552	   10.6651	0.00270012	    10.661	0.00268723	   10.6736	0.00270429	   10.6736	   67.6072	
   10.6596	0.00272517	   10.6301	0.00270005	   10.6259	 0.0026871	   10.6385	0.00270411	   10.6385	   67.6027	
   10.6242	 0.0027247	   10.5945	 0.0026999	   10.5904	0.00268694	    10.603	0.00270385	    10.603	   67.5962	
    10.588	0.00272416	   10.5585	0.00269969	   10.5544	0.00268672	    10.567	0.00270352	    10.567	   67.5881	
   10.5515	 0.0027236	   10.5222	0.00269941	    10.518	0.00268642	   10.5306	0.00270314	   10.5306	   67.5786	
   10.5146	0.00272302	   10.4855	0.00269907	   10.4813	0.00268607	   10.4938	0.00270272	   10.4938	   67.5679	
   10.4775	0.00272233	   10.4485	0.00269869	   10.4441	0.00268565	   10.4567	0.00270222	   10.4567	   67.5556	
     10.44	0.00272153	   10.4108	0.00269829	   10.4065	0.00268516	   10.4191	0.00270166	   10.4191	   67.5416	
    10.402	0.00272069	   10.3728	0.00269783	   10.3685	0.00268461	   10.3811	0.00270104	   10.3811	    67.526	
   10.3637	0.00271983	   10.3345	0.00269725	   10.3303	0.00268402	   10.3428	0.00270037	   10.3428	   67.5093	
   10.3252	0.00271895	   10.2959	 0.0026966	   10.2915	0.00268339	   10.3042	0.00269964	   10.3042	   67.4911	
   10.2862	0.00271795	   10.2567	0.00269594	   10.2523	0.00268267	   10.2651	0.00269885	   10.2651	   67.4713	
   10.2467	0.00271687	   10.2171	0.00269526	   10.2127	0.00268186	   10.2255	  0.002698	   10.2255	     67.45	
    10.207	0.00271576	   10.1772	0.00269451	   10.1729	0.00268101	   10.1857	0.00269709	   10.1857	   67.4273	
   10.1669	0.00271463	   10.1367	0.00269366	   10.1326	0.00268015	   10.1454	0.00269615	   10.1454	   67.4036	
   10.1261	0.00271345	   10.0958	0.00269275	   10.0917	0.00267923	   10.1045	0.00269514	   10.1045	   67.3786	
   10.0849	0.00271216	   10.0545	0.00269185	   10.0506	0.00267824	   10.0633	0.00269408	   10.0633	    67.352	
   10.0434	0.00271084	   10.0128	 0.0026909	   10.0091	0.00267716	   10.0217	0.00269297	   10.0217	   67.3241	
   10.0014	0.00270951	   9.97057	0.00268986	   9.96692	0.00267604	   9.97964	 0.0026918	   9.97964	   67.2951	
   9.95891	 0.0027081	   9.92791	0.00268874	   9.92437	0.00267491	   9.93706	0.00269058	   9.93706	   67.2645	
   9.91603	0.00270657	     9.885	 0.0026876	   9.88158	0.00267373	    9.8942	 0.0026893	    9.8942	   67.2325	
   9.87295	  0.002705	   9.84168	0.00268645	   9.83848	0.00267247	   9.85104	0.00268797	   9.85104	   67.1993	
   9.82959	0.00270347	   9.79781	0.00268524	   9.79491	0.00267113	   9.80744	0.00268661	   9.80744	   67.1654	
   9.78571	0.00270194	   9.75359	0.00268394	   9.75099	0.00266974	   9.76343	0.00268521	   9.76343	   67.1301	
   9.74152	0.00270027	    9.7092	0.00268259	    9.7068	0.00266832	   9.71917	0.00268373	   9.71917	   67.0931	
   9.69697	0.00269846	   9.66436	0.00268123	   9.66232	0.00266684	   9.67455	0.00268218	   9.67455	   67.0544	
   9.65181	0.00269663	   9.61906	0.00267984	   9.61736	0.00266527	   9.62941	0.00268058	   9.62941	   67.0145	
   9.60625	0.00269487	   9.57349	0.00267837	   9.57211	0.00266363	   9.58395	0.00267896	   9.58395	    66.974	
   9.56039	0.00269307	   9.52767	0.00267682	   9.52669	0.00266197	   9.53825	0.00267729	   9.53825	   66.9322	
   9.51414	0.00269114	   9.48128	0.00267521	   9.48082	0.00266028	   9.49208	0.00267554	   9.49208	   66.8885	
    9.4674	 0.0026891	   9.43453	0.00267359	   9.43456	0.00265851	    9.4455	0.00267374	    9.4455	   66.8434	
   9.42038	0.00268708	   9.38762	0.00267197	   9.38804	0.00265666	   9.39868	 0.0026719	   9.39868	   66.7976	
   9.37301	0.00268509	    9.3404	 0.0026703	   9.34117	0.00265474	   9.35153	0.00267004	   9.35153	   66.7511	
   9.32515	0.00268304	   9.29272	0.00266853	   9.29383	0.00265277	    9.3039	0.00266811	    9.3039	   66.7028	
   9.27693	0.00268086	   9.24478	0.00266665	   9.24622	0.00265081	   9.25598	0.00266611	   9.25598	   66.6527	
   9.22848	0.00267862	   9.19657	0.00266475	    9.1983	0.00264886	   9.20778	0.00266408	   9.20778	   66.6019	
    9.1794	0.00267639	    9.1479	0.00266287	   9.14983	0.00264684	   9.15905	0.00266203	   9.15905	   66.5508	
   9.12992	0.00267416	   9.09892	0.00266093	   9.10103	0.00264466	   9.10996	0.00265992	   9.10996	   66.4979	
   9.08016	0.00267186	   9.04948	0.00265888	     9.052	0.00264238	   9.06055	0.00265771	   9.06055	   66.4426	
   9.03002	0.00266944	   8.99968	0.00265674	   9.00252	0.00264013	   9.01074	0.00265544	   9.01074	    66.386	
   8.97943	0.00266698	   8.94951	0.00265459	   8.95264	0.00263794	   8.96053	0.00265317	   8.96053	   66.3292	
    8.9286	0.00266452	   8.89917	0.00265243	   8.90256	0.00263568	   8.91011	0.00265088	   8.91011	   66.2719	
    8.8775	0.00266204	   8.84828	0.00265021	   8.85205	0.00263327	   8.85928	0.00264851	   8.85928	   66.2127	
   8.82598	0.00265946	   8.79697	0.00264788	   8.80109	0.00263079	   8.80802	0.00264604	   8.80802	   66.1511	
   8.77418	0.00265678	   8.74547	0.00264552	   8.74991	0.00262833	   8.75652	0.00264354	   8.75652	   66.0886	
    8.7222	0.00265409	   8.69372	0.00264313	   8.69844	0.00262589	   8.70479	0.00264104	   8.70479	   66.0259	
   8.66969	0.00265143	   8.64195	0.00264063	   8.64649	0.00262335	   8.65271	0.00263847	   8.65271	   65.9617	
   8.61685	 0.0026487	   8.59006	0.00263799	   8.59427	0.00262068	   8.60039	0.00263579	   8.60039	   65.8947	
   8.56369	0.00264583	   8.53771	0.00263529	   8.54177	0.00261797	   8.54772	0.00263303	   8.54772	   65.8257	
   8.51022	0.00264287	   8.48509	0.00263267	   8.48875	0.00261531	   8.49469	0.00263028	   8.49469	    65.757	
    8.4564	0.00263994	   8.43136	0.00263008	   8.43545	0.00261262	   8.44107	0.00262755	   8.44107	   65.6887	
   8.40221	0.00263701	   8.37726	0.00262733	   8.38206	0.00260982	   8.38718	0.00262472	   8.38718	    65.618	
   8.34761	0.00263396	   8.32289	0.00262435	   8.32813	 0.0026069	   8.33288	0.00262174	   8.33288	   65.5435	
   8.29266	0.00263079	   8.26826	0.00262132	    8.2739	0.00260397	   8.27827	 0.0026187	   8.27827	   65.4674	
   8.23759	0.00262759	   8.21335	0.00261841	   8.21941	0.00260109	   8.22345	 0.0026157	   8.22345	   65.3924	
    8.1822	0.00262442	   8.15811	 0.0026155	   8.16439	0.00259815	   8.16823	0.00261269	   8.16823	   65.3173	
   8.12644	0.00262121	   8.10259	0.00261241	   8.10906	0.00259509	    8.1127	0.00260957	    8.1127	   65.2392	
   8.07048	0.00261787	   8.04676	0.00260915	    8.0534	0.00259193	   8.05688	0.00260632	   8.05688	   65.1579	
   8.01422	0.00261439	   7.99065	 0.0026059	   7.99728	0.00258878	   8.00072	0.00260302	   8.00072	   65.0756	
   7.95761	 0.0026109	   7.93426	0.00260273	   7.94087	0.00258562	   7.94425	0.00259975	   7.94425	   64.9938	
   7.90079	 0.0026075	   7.87759	 0.0025995	    7.8841	0.00258235	   7.88749	0.00259645	   7.88749	   64.9112	
   7.84348	0.00260411	    7.8205	0.00259608	    7.8269	0.00257894	    7.8303	0.00259304	    7.8303	    64.826	
   7.78584	0.00260059	   7.76306	0.00259255	   7.76944	0.00257548	   7.77278	0.00258954	   7.77278	   64.7385	
   7.72802	0.00259688	   7.70529	0.00258906	   7.71171	0.00257202	   7.71501	0.00258599	   7.71501	   64.6496	
   7.66973	0.00259308	   7.64706	 0.0025856	   7.65359	0.00256852	    7.6568	 0.0025824	    7.6568	     64.56	
   7.61114	0.00258936	   7.58861	0.00258204	     7.595	0.00256493	   7.59825	0.00257878	   7.59825	   64.4694	
   7.55239	0.00258568	    7.5299	0.00257832	   7.53592	0.00256124	    7.5394	0.00257508	    7.5394	    64.377	
   7.49312	0.00258187	   7.47076	0.00257453	   7.47664	0.00255748	   7.48017	 0.0025713	   7.48017	   64.2824	
   7.43359	0.00257789	   7.41143	0.00257078	   7.41749	0.00255369	   7.42084	0.00256745	   7.42084	   64.1863	
   7.37394	0.00257385	   7.35177	0.00256702	   7.35799	0.00254988	   7.36123	0.00256358	   7.36123	   64.0896	
   7.31382	0.00256989	   7.29171	0.00256312	   7.29806	  0.002546	    7.3012	0.00255967	    7.3012	   63.9917	
   7.25347	 0.0025659	   7.23143	 0.0025591	    7.2379	0.00254201	   7.24093	0.00255567	   7.24093	   63.8918	
   7.19294	0.00256175	   7.17081	0.00255505	   7.17721	0.00253796	   7.18032	0.00255159	   7.18032	   63.7897	
   7.13199	0.00255746	   7.10985	0.00255102	   7.11617	 0.0025339	   7.11934	0.00254746	   7.11934	   63.6865	
   7.07085	0.00255317	   7.04879	0.00254692	    7.0547	 0.0025298	   7.05811	 0.0025433	   7.05811	   63.5825	
   7.00938	0.00254895	   6.98726	0.00254268	   6.99301	0.00252559	   6.99655	0.00253907	   6.99655	   63.4768	
   6.94754	0.00254466	   6.92545	0.00253833	   6.93136	0.00252126	   6.93478	0.00253475	   6.93478	   63.3687	
   6.88557	 0.0025402	    6.8633	0.00253398	   6.86942	0.00251688	   6.87276	0.00253036	   6.87276	   63.2589	
   6.82329	0.00253564	   6.80077	0.00252962	   6.80715	0.00251251	    6.8104	0.00252593	    6.8104	   63.1481	
   6.76069	0.00253111	   6.73804	0.00252514	   6.74443	0.00250811	   6.74772	0.00252145	   6.74772	   63.0363	
   6.69793	0.00252659	   6.67516	0.00252053	   6.68131	0.00250356	    6.6848	0.00251689	    6.6848	   62.9224	
   6.63484	0.00252197	   6.61188	0.00251589	   6.61803	0.00249887	   6.62158	0.00251224	   6.62158	   62.8061	
    6.5715	0.00251721	   6.54837	0.00251126	   6.55438	0.00249411	   6.55808	0.00250752	   6.55808	   62.6881	
   6.50798	0.00251237	   6.48471	0.00250653	   6.49066	0.00248934	   6.49445	0.00250275	   6.49445	   62.5687	
    6.4441	0.00250755	   6.42072	0.00250164	   6.42659	0.00248454	   6.43047	0.00249791	   6.43047	   62.4478	
   6.38003	 0.0025027	   6.35664	0.00249667	   6.36236	0.00247963	   6.36634	  0.002493	   6.36634	    62.325	
    6.3158	0.00249771	   6.29227	0.00249172	   6.29783	0.00247462	   6.30197	0.00248802	   6.30197	   62.2004	
   6.25121	 0.0024926	   6.22763	0.00248677	   6.23305	0.00246953	    6.2373	0.00248297	    6.2373	   62.0742	
   6.18651	0.00248744	   6.16276	0.00248172	   6.16811	0.00246441	   6.17246	0.00247786	   6.17246	   61.9464	
   6.12144	0.00248228	   6.09754	0.00247647	    6.1029	0.00245923	    6.1073	0.00247266	    6.1073	   61.8165	
    6.0561	0.00247703	   6.03216	0.00247111	   6.03751	0.00245399	   6.04192	0.00246738	   6.04192	   61.6845	
   5.99065	0.00247164	   5.96659	0.00246578	   5.97202	0.00244865	   5.97642	0.00246202	   5.97642	   61.5506	
   5.92483	0.00246614	   5.90068	0.00246048	   5.90617	0.00244321	   5.91056	0.00245661	   5.91056	   61.4153	
   5.85882	0.00246062	    5.8346	0.00245507	   5.84013	0.00243773	   5.84451	0.00245114	   5.84451	   61.2786	
   5.79257	0.00245507	   5.76838	0.00244947	   5.77387	0.00243223	   5.77827	0.00244559	   5.77827	   61.1398	
   5.72598	0.00244942	    5.7019	0.00244376	   5.70734	0.00242665	   5.71174	0.00243994	   5.71174	   60.9986	
   5.65929	0.00244362	   5.63534	0.00243808	   5.64073	0.00242096	   5.64512	0.00243422	   5.64512	   60.8556	
   5.59243	0.00243773	   5.56835	 0.0024324	   5.57393	0.00241521	   5.57824	0.00242845	   5.57824	   60.7112	
   5.52531	0.00243181	    5.5012	0.00242659	   5.50695	0.00240943	   5.51115	0.00242261	   5.51115	   60.5653	
   5.45793	0.00242587	    5.4339	0.00242058	   5.43971	 0.0024036	   5.44385	0.00241668	   5.44385	   60.4171	
   5.39024	0.00241983	   5.36627	0.00241448	   5.37213	0.00239766	   5.37621	0.00241066	   5.37621	   60.2664	
   5.32239	0.00241363	   5.29851	0.00240839	   5.30448	0.00239163	   5.30846	0.00240455	   5.30846	   60.1137	
   5.25433	0.00240735	   5.23045	0.00240224	   5.23683	0.00238556	   5.24054	0.00239838	   5.24054	   59.9596	
   5.18596	0.00240109	   5.16218	0.00239596	   5.16892	0.00237944	   5.17236	0.00239217	   5.17236	   59.8041	
   5.11748	0.00239479	   5.09395	0.00238956	   5.10093	0.00237324	   5.10412	0.00238586	   5.10412	   59.6466	
   5.04862	0.00238831	   5.02549	0.00238313	   5.03261	0.00236694	   5.03557	0.00237946	   5.03557	   59.4865	
   4.97959	0.00238171	   4.95691	0.00237665	   4.96413	0.00236057	   4.96688	0.00237298	   4.96688	   59.3244	
   4.91041	0.00237507	   4.88824	0.00237006	    4.8954	0.00235415	   4.89802	0.00236643	   4.89802	   59.1607	
     4.841	0.00236844	   4.81928	0.00236332	   4.82645	0.00234768	   4.82891	0.00235981	   4.82891	   58.9952	
   4.77151	 0.0023617	    4.7503	0.00235651	   4.75739	0.00234111	   4.75973	0.00235311	   4.75973	   58.8277	
   4.70188	0.00235479	   4.68104	0.00234969	   4.68822	0.00233443	   4.69038	0.00234631	   4.69038	   58.6576	
   4.63203	0.00234778	   4.61162	0.00234282	   4.61885	0.00232765	   4.62083	0.00233942	   4.62083	   58.4854	
   4.56221	0.00234074	   4.54195	0.00233581	   4.54922	0.00232081	   4.55113	0.00233245	   4.55113	   58.3113	
    4.4921	0.00233364	   4.47198	0.00232865	   4.47933	0.00231395	   4.48114	0.00232541	   4.48114	   58.1354	
   4.42187	0.00232641	   4.40187	0.00232142	   4.40938	0.00230699	   4.41104	0.00231827	   4.41104	   57.9569	
    4.3515	0.00231903	   4.33154	0.00231418	   4.33917	0.00229987	   4.34073	0.00231102	   4.34073	   57.7756	
   4.28087	0.00231156	   4.26102	0.00230687	   4.26875	0.00229263	   4.27021	0.00230369	   4.27021	   57.5921	
   4.21024	0.00230406	   4.19036	0.00229941	   4.19824	0.00228541	   4.19961	 0.0022963	   4.19961	   57.4074	
   4.13922	0.00229649	   4.11962	0.00229183	   4.12745	0.00227819	   4.12877	0.00228883	   4.12877	   57.2208	
   4.06808	0.00228876	   4.04882	0.00228421	   4.05659	0.00227078	   4.05783	0.00228125	   4.05783	   57.0313	
   3.99674	0.00228091	    3.9777	0.00227657	   3.98556	0.00226316	   3.98667	0.00227355	   3.98667	   56.8387	
   3.92523	0.00227298	   3.90638	0.00226885	   3.91431	0.00225546	    3.9153	0.00226576	    3.9153	   56.6441	
   3.85372	0.00226496	   3.83462	0.00226102	    3.8431	0.00224781	   3.84381	0.00225793	   3.84381	   56.4482	
   3.78197	0.00225681	   3.76271	0.00225307	   3.77159	0.00224012	   3.77209	   0.00225	   3.77209	   56.2499	
   3.71009	0.00224856	   3.69082	0.00224505	   3.69999	0.00223225	    3.7003	0.00224195	    3.7003	   56.0487	
   3.63817	0.00224025	   3.61897	0.00223697	   3.62821	 0.0022242	   3.62845	0.00223381	   3.62845	   55.8452	
   3.56604	0.00223186	   3.54698	0.00222882	   3.55627	0.00221613	   3.55643	 0.0022256	   3.55643	   55.6401	
    3.4939	0.00222336	    3.4752	0.00222054	   3.48435	0.00220807	   3.48448	0.00221732	   3.48448	   55.4331	
   3.42171	0.00221472	   3.40334	0.00221214	   3.41212	0.00219992	   3.41239	0.00220893	   3.41239	   55.2232	
   3.34935	0.00220598	   3.33103	0.00220367	   3.33978	0.00219157	   3.34006	0.00220041	   3.34006	   55.0101	
   3.27688	0.00219718	   3.25825	0.00219515	   3.26731	0.00218306	   3.26748	 0.0021918	   3.26748	   54.7949	
    3.2042	 0.0021883	   3.18535	0.00218655	    3.1946	0.00217453	   3.19472	0.00218313	   3.19472	   54.5782	
   3.13136	0.00217929	   3.11251	0.00217782	   3.12191	0.00216601	   3.12193	0.00217437	   3.12193	   54.3593	
   3.05826	0.00217015	   3.03983	0.00216897	   3.04902	0.00215739	   3.04904	 0.0021655	   3.04904	   54.1376	
   2.98503	0.00216092	   2.96704	0.00216005	   2.97603	0.00214858	   2.97603	0.00215652	   2.97603	   53.9129	
   2.91184	0.00215162	   2.89392	0.00215108	   2.90311	0.00213961	   2.90296	0.00214744	   2.90296	   53.6859	
   2.83852	0.00214223	   2.82066	  0.002142	   2.82993	 0.0021306	   2.82971	0.00213828	   2.82971	    53.457	
   2.76519	0.00213271	   2.74713	0.00213276	   2.75678	0.00212157	   2.75637	0.00212901	   2.75637	   53.2254	
   2.69166	0.00212302	   2.67363	0.00212342	   2.68325	0.00211242	   2.68284	0.00211962	   2.68284	   52.9905	
   2.61798	0.00211322	   2.60013	0.00211403	   2.60962	 0.0021031	   2.60925	0.00211012	   2.60925	   52.7529	
   2.54435	0.00210338	   2.52657	0.00210456	     2.536	0.00209367	   2.53564	0.00210054	   2.53564	   52.5134	
   2.47045	0.00209345	   2.45293	0.00209495	   2.46228	0.00208419	   2.46189	0.00209086	   2.46189	   52.2716	
   2.39654	0.00208336	   2.37934	0.00208521	   2.38852	0.00207466	   2.38813	0.00208107	   2.38813	   52.0268	
   2.32245	0.00207312	   2.30554	0.00207537	    2.3146	0.00206496	    2.3142	0.00207115	    2.3142	   51.7788	
   2.24824	0.00206283	   2.23182	0.00206549	   2.24059	0.00205508	   2.24022	0.00206113	   2.24022	   51.5283	
   2.17409	0.00205249	   2.15797	0.00205551	   2.16653	0.00204511	    2.1662	0.00205104	    2.1662	   51.2759	
   2.09967	0.00204203	   2.08389	0.00204538	   2.09233	0.00203514	   2.09196	0.00204085	   2.09196	   51.0212	
   2.02528	 0.0020314	   2.00979	0.00203513	   2.01809	 0.0020251	   2.01772	0.00203054	   2.01772	   50.7635	
   1.95074	0.00202064	   1.93542	0.00202481	   1.94358	0.00201488	   1.94325	0.00202011	   1.94325	   50.5027	
   1.87609	0.00200982	   1.86099	0.00201443	   1.86899	0.00200448	   1.86869	0.00200958	   1.86869	   50.2394	
   1.80143	0.00199896	    1.7865	0.00200392	   1.79444	0.00199401	   1.79412	0.00199897	   1.79412	   49.9742	
   1.72653	0.00198797	    1.7119	0.00199327	   1.71967	0.00198353	   1.71937	0.00198826	   1.71937	   49.7064	
   1.65167	0.00197677	   1.63728	 0.0019825	   1.64498	0.00197297	   1.64464	0.00197741	   1.64464	   49.4353	
   1.57682	0.00196541	   1.56271	0.00197168	    1.5701	0.00196221	   1.56988	0.00196644	   1.56988	   49.1609	
   1.50187	0.00195402	   1.48807	0.00196076	   1.49517	0.00195129	   1.49503	0.00195536	   1.49503	   48.8839	
   1.42686	 0.0019426	   1.41355	0.00194969	   1.42015	0.00194028	   1.42019	0.00194419	   1.42019	   48.6048	
   1.35172	0.00193101	   1.33882	0.00193849	   1.34503	0.00192924	   1.34519	0.00193292	   1.34519	   48.3229	
   1.27656	0.00191921	   1.26409	0.00192723	   1.26993	 0.0019181	   1.27019	0.00192151	   1.27019	   48.0378	
    1.2013	0.00190726	    1.1892	0.00191589	   1.19477	0.00190679	   1.19509	0.00190998	   1.19509	   47.7495	
   1.12596	 0.0018953	   1.11424	0.00190441	   1.11956	0.00189533	   1.11992	0.00189834	   1.11992	   47.4586	
   1.05081	0.00188329	   1.03935	0.00189276	   1.04436	0.00188378	   1.04484	0.00188661	   1.04484	   47.1653	
  0.975599	0.00187114	  0.964424	0.00188099	  0.968979	0.00187219	  0.969667	0.00187477	  0.969667	   46.8693	
  0.900436	 0.0018588	  0.889495	0.00186917	  0.893697	0.00186049	  0.894543	0.00186282	  0.894543	   46.5705	
  0.825166	0.00184635	  0.814485	0.00185726	  0.818278	0.00184862	   0.81931	0.00185074	   0.81931	   46.2686	
  0.749814	0.00183381	  0.739414	0.00184518	   0.74283	0.00183662	  0.744019	0.00183854	  0.744019	   45.9635	
  0.674482	0.00182118	  0.664303	0.00183294	  0.667291	0.00182454	  0.668692	0.00182622	  0.668692	   45.6556	
   0.59894	0.00180842	  0.589006	0.00182061	  0.591674	 0.0018124	  0.593207	0.00181381	  0.593207	   45.3452	
  0.523464	0.00179553	  0.513797	 0.0018082	  0.516092	0.00180012	  0.517784	0.00180128	  0.517784	   45.0321	
  0.447949	0.00178252	  0.438493	0.00179566	  0.440522	0.00178768	  0.442321	0.00178862	  0.442321	   44.7155	
  0.372366	 0.0017694	  0.363144	0.00178296	  0.364932	0.00177513	  0.366814	0.00177583	  0.366814	   44.3957	
  0.296765	0.00175617	  0.287941	0.00177015	  0.289369	 0.0017625	  0.291358	0.00176294	  0.291358	   44.0736	
  0.221056	 0.0017428	  0.212551	0.00175727	  0.213653	0.00174981	  0.215753	0.00174996	  0.215753	    43.749	
  0.145353	 0.0017293	  0.137248	0.00174429	  0.137988	0.00173699	  0.140196	0.00173686	  0.140196	   43.4215	
 0.0697432	0.00171569	 0.0617983	0.00173118	 0.0623747	0.00172401	 0.0646387	0.00172363	 0.0646387	   43.0907	
-0.00592589	0.00170199	-0.0136897	0.00171793	-0.0132544	0.00171087	-0.0109567	0.00171027	-0.0109567	   42.7566	
-0.0815517	0.00168817	-0.0890344	0.00170458	-0.0887197	0.00169765	-0.0864353	 0.0016968	-0.0864353	     42.42	
 -0.157293	 0.0016742	 -0.164558	0.00169115	 -0.164345	0.00168437	 -0.162065	0.00168324	 -0.162065	    42.081	
 -0.232954	 0.0016601	 -0.239987	0.00167761	 -0.239857	0.00167097	 -0.237599	0.00166956	 -0.237599	   41.7391	
 -0.308569	0.00164591	 -0.315502	0.00166395	 -0.315365	0.00165742	 -0.313146	0.00165576	 -0.313146	    41.394	
 -0.384246	0.00163162	 -0.391055	0.00165014	 -0.390819	0.00164372	 -0.388707	0.00164183	 -0.388707	   41.0457	
 -0.459799	 0.0016172	 -0.466383	0.00163621	 -0.466127	0.00162995	 -0.464103	0.00162779	 -0.464103	   40.6946	
 -0.535402	 0.0016026	 -0.541897	0.00162222	 -0.541539	 0.0016161	 -0.539613	0.00161364	 -0.539613	   40.3409	
 -0.610938	0.00158784	 -0.617322	0.00160813	 -0.616862	0.00160211	 -0.615041	0.00159936	 -0.615041	    39.984	
  -0.68644	0.00157302	 -0.692621	0.00159387	 -0.692059	0.00158797	 -0.690373	0.00158495	 -0.690373	   39.6238	
 -0.762012	0.00155812	 -0.767978	0.00157946	 -0.767314	 0.0015737	 -0.765768	0.00157043	 -0.765768	   39.2606	
  -0.83739	0.00154307	 -0.843346	0.00156493	 -0.842436	0.00155935	 -0.841058	0.00155578	 -0.841058	   38.8946	
 -0.912736	0.00152783	 -0.918736	0.00155031	 -0.917674	0.00154491	 -0.916382	0.00154101	 -0.916382	   38.5254	
 -0.988038	0.00151246	 -0.994051	0.00153558	 -0.992843	0.00153032	 -0.991644	0.00152612	 -0.991644	    38.153	
  -1.06337	0.00149706	  -1.06928	 0.0015207	  -1.06785	0.00151557	  -1.06683	0.00151111	  -1.06683	   37.7778	
  -1.13871	0.00148158	  -1.14451	0.00150569	  -1.14295	0.00150073	  -1.14206	  0.001496	  -1.14206	      37.4	
  -1.21397	0.00146591	  -1.21955	0.00149062	  -1.21786	0.00148582	  -1.21713	0.00148078	  -1.21713	   37.0195	
  -1.28917	0.00145003	   -1.2946	0.00147546	  -1.29279	0.00147079	  -1.29219	0.00146543	  -1.29219	   36.6357	
  -1.36435	0.00143407	  -1.36961	0.00146016	  -1.36768	0.00145557	  -1.36721	0.00144993	  -1.36721	   36.2484	
  -1.43939	0.00141809	   -1.4444	0.00144468	   -1.4425	0.00144019	   -1.4421	0.00143432	   -1.4421	    35.858	
  -1.51447	0.00140203	  -1.51923	 0.0014291	  -1.51744	0.00142476	  -1.51705	0.00141863	  -1.51705	   35.4657	
  -1.58948	0.00138576	  -1.59392	0.00141353	  -1.59222	0.00140928	  -1.59187	0.00140286	  -1.59187	   35.0714	
   -1.6645	0.00136932	  -1.66846	0.00139789	  -1.66693	0.00139366	  -1.66663	0.00138695	  -1.66663	   34.6738	
  -1.73953	 0.0013528	  -1.74302	0.00138202	  -1.74164	0.00137783	   -1.7414	0.00137088	   -1.7414	   34.2721	
   -1.8143	0.00133625	  -1.81751	0.00136593	  -1.81625	0.00136187	  -1.81602	0.00135468	  -1.81602	    33.867	
  -1.88899	0.00131955	  -1.89192	0.00134976	  -1.89085	0.00134586	  -1.89058	0.00133839	  -1.89058	   33.4598	
  -1.96358	0.00130268	  -1.96624	0.00133362	  -1.96533	0.00132977	  -1.96505	0.00132202	  -1.96505	   33.0505	
  -2.03807	0.00128568	  -2.04022	0.00131739	  -2.03963	0.00131352	  -2.03931	0.00130553	  -2.03931	   32.6383	
  -2.11263	0.00126863	   -2.1143	0.00130092	  -2.11391	0.00129712	  -2.11361	0.00128889	  -2.11361	   32.2222	
  -2.18699	0.00125149	  -2.18828	0.00128424	  -2.18799	0.00128061	  -2.18776	0.00127211	  -2.18776	   31.8029	
  -2.26135	 0.0012342	  -2.26228	0.00126751	  -2.26207	0.00126403	   -2.2619	0.00125525	   -2.2619	   31.3812	
  -2.33565	0.00121675	  -2.33625	0.00125078	  -2.33602	0.00124734	  -2.33598	0.00123829	  -2.33598	   30.9572	
  -2.40981	 0.0011992	  -2.41009	0.00123391	  -2.40976	0.00123049	  -2.40989	 0.0012212	  -2.40989	     30.53	
    -2.484	0.00118157	   -2.4839	 0.0012168	  -2.48354	0.00121351	  -2.48381	0.00120396	  -2.48381	    30.099	
  -2.55804	0.00116381	  -2.55758	0.00119953	   -2.5572	0.00119641	  -2.55761	0.00118659	  -2.55761	   29.6647	
  -2.63186	0.00114592	  -2.63107	0.00118222	  -2.63057	 0.0011792	  -2.63116	0.00116911	  -2.63116	   29.2278	
   -2.7057	0.00112789	   -2.7046	0.00116486	  -2.70399	0.00116187	  -2.70476	0.00115154	  -2.70476	   28.7885	
  -2.77932	0.00110978	  -2.77793	0.00114733	  -2.77721	0.00114441	  -2.77815	0.00113384	  -2.77815	    28.346	
  -2.85277	0.00109157	  -2.85125	0.00112959	  -2.85042	0.00112682	  -2.85148	  0.001116	  -2.85148	   27.8999	
  -2.92616	0.00107324	  -2.92454	0.00111174	  -2.92359	0.00110911	  -2.92476	0.00109803	  -2.92476	   27.4508	
  -2.99941	0.00105476	  -2.99767	0.00109385	  -2.99655	0.00109128	  -2.99787	0.00107997	  -2.99787	   26.9992	
   -3.0726	0.00103618	  -3.07076	0.00107588	  -3.06947	0.00107334	  -3.07094	 0.0010618	  -3.07094	    26.545	
  -3.14566	0.00101751	  -3.14373	0.00105774	  -3.14227	0.00105527	  -3.14388	 0.0010435	  -3.14388	   26.0876	
   -3.2185	0.000998719	  -3.21657	0.00103943	  -3.21487	0.00103709	  -3.21665	0.00102508	  -3.21665	    25.627	
  -3.29139	0.000979809	  -3.28945	0.00102104	  -3.28745	0.00101885	  -3.28943	0.00100656	  -3.28943	   25.1641	
  -3.36414	0.000960785	  -3.36212	0.00100258	  -3.35984	 0.0010005	  -3.36203	0.000987957	  -3.36203	   24.6989	
  -3.43668	0.000941669	  -3.43459	0.000983996	   -3.4314	0.000981942	  -3.43423	0.000969202	  -3.43423	   24.2301	
  -3.50919	0.000922468	  -3.50697	0.00096524	  -3.50237	0.000963196	  -3.50618	0.000950302	  -3.50618	   23.7575	
  -3.58151	0.000903187	  -3.57916	0.000946364	  -3.57375	0.000944424	  -3.57814	0.000931325	  -3.57814	   23.2831	
  -3.65375	0.000883783	  -3.65121	0.00092742	  -3.64565	0.000925679	   -3.6502	0.000912294	   -3.6502	   22.8074	
  -3.72589	0.000864224	  -3.72318	0.000908389	  -3.71789	0.000906791	  -3.72232	0.000893135	  -3.72232	   22.3284	
  -3.79776	0.000844543	  -3.79489	0.000889215	  -3.78986	0.000887668	  -3.79417	0.000873809	  -3.79417	   21.8452	
  -3.86955	0.00082479	  -3.86654	0.000869904	  -3.86152	0.000868437	  -3.86587	0.000854377	  -3.86587	   21.3594	
  -3.94119	0.000804974	  -3.93805	0.000850503	  -3.93289	0.000849222	  -3.93738	 0.0008349	  -3.93738	   20.8725	
   -4.0126	0.000785056	  -4.00927	0.000831033	  -4.00415	0.000829935	  -4.00867	0.000815341	  -4.00867	   20.3835	
  -4.08397	0.000764995	  -4.08039	0.000811461	  -4.07525	0.000810433	  -4.07987	0.00079563	  -4.07987	   19.8907	
  -4.15513	0.000744817	  -4.15133	0.00079176	  -4.14642	0.000790747	  -4.15096	0.000775775	  -4.15096	   19.3944	
  -4.22607	0.000724561	  -4.22193	0.000771954	  -4.21752	0.000771031	  -4.22184	0.000755849	  -4.22184	   18.8962	
  -4.29692	0.000704223	  -4.29239	0.000752078	  -4.28837	0.000751312	  -4.29256	0.000735871	  -4.29256	   18.3968	
  -4.36759	0.000683768	  -4.36265	0.000732138	  -4.35899	0.000731482	  -4.36308	0.000715796	  -4.36308	   17.8949	
  -4.43804	0.000663209	  -4.43264	0.000712097	  -4.42931	0.000711462	  -4.43333	0.000695589	  -4.43333	   17.3897	
  -4.50836	0.000642565	  -4.50256	0.00069193	   -4.4996	0.00069132	  -4.50351	0.000675272	  -4.50351	   16.8818	
  -4.57841	0.000621832	  -4.57224	0.000671666	  -4.56964	0.000671154	  -4.57343	0.000654884	  -4.57343	   16.3721	
  -4.64832	  0.000601	   -4.6417	0.000651348	  -4.63962	0.000650955	  -4.64321	0.000634434	  -4.64321	   15.8609	
  -4.71816	0.000580079	  -4.71104	0.000630969	  -4.70945	0.000630639	  -4.71289	0.000613896	  -4.71289	   15.3474	
  -4.78769	0.000559084	  -4.78014	0.000610518	  -4.77899	0.000610179	  -4.78227	0.00059326	  -4.78227	   14.8315	
  -4.85705	0.000538003	  -4.84898	0.000589959	  -4.84823	0.000589638	  -4.85142	0.000572534	  -4.85142	   14.3133	
  -4.92632	0.00051682	  -4.91771	0.000569283	  -4.91739	0.000569071	  -4.92047	0.000551725	  -4.92047	   13.7931	
  -4.99526	0.000495546	  -4.98617	0.000548527	  -4.98625	0.000548437	  -4.98923	0.000530837	  -4.98923	   13.2709	
  -5.06398	0.000474216	  -5.05449	0.000527719	    -5.055	0.000527679	  -5.05782	0.000509871	  -5.05782	   12.7468	
  -5.13261	0.000452835	  -5.12276	0.000506868	  -5.12365	0.000506823	  -5.12634	0.000488842	  -5.12634	   12.2211	
   -5.2009	0.000431368	  -5.19075	0.000485954	  -5.19198	0.000485923	  -5.19455	0.000467748	  -5.19455	   11.6937	
  -5.26915	0.000409772	  -5.25841	0.000464942	  -5.26015	0.000464978	  -5.26257	0.000446564	  -5.26257	   11.1641	
  -5.33729	0.000388067	  -5.32585	0.000443831	  -5.32821	0.000443942	  -5.33045	0.00042528	  -5.33045	    10.632	
  -5.40508	0.000366313	  -5.39305	0.000422658	  -5.39595	0.000422812	  -5.39803	0.000403928	  -5.39803	   10.0982	
  -5.47257	0.000344537	  -5.46018	0.000401446	  -5.46349	0.000401619	  -5.46541	0.000382534	  -5.46541	   9.56336	
  -5.53988	0.000322703	  -5.52727	0.000380176	  -5.53085	0.000380386	  -5.53267	0.000361088	  -5.53267	   9.02721	
  -5.60687	0.000300758	  -5.59418	0.000358822	   -5.5979	0.000359086	  -5.59965	0.000339556	  -5.59965	   8.48889	
  -5.67368	0.000278714	  -5.66074	0.00033739	  -5.66457	0.000337715	  -5.66633	0.000317939	  -5.66633	   7.94848	
  -5.74033	0.000256636	  -5.72719	0.000315908	   -5.7311	0.000316286	  -5.73287	0.000296277	  -5.73287	   7.40692	
  -5.80667	0.000234552	  -5.79338	0.000294382	  -5.79734	0.000294815	  -5.79913	0.000274583	  -5.79913	   6.86457	
  -5.87282	0.000212416	   -5.8592	0.000272789	  -5.86342	0.000273297	  -5.86515	0.000252834	  -5.86515	   6.32085	
   -5.9389	0.000190172	   -5.9248	0.000251123	  -5.92946	0.000251721	  -5.93105	0.000231005	  -5.93105	   5.77513	
   -6.0047	0.000167841	  -5.99019	0.000229398	  -5.99522	0.000230084	   -5.9967	0.000209108	   -5.9967	   5.22769	
  -6.07016	0.000145503	  -6.05516	0.000207645	  -6.06058	0.000208396	  -6.06197	0.000187181	  -6.06197	   4.67953	
  -6.13558	0.000123183	  -6.12003	0.000185873	  -6.12586	0.000186672	  -6.12716	0.000165243	  -6.12716	   4.13107	
  -6.20074	0.000100804	  -6.18473	0.000164056	   -6.1909	0.000164908	  -6.19212	0.000143256	  -6.19212	    3.5814	
  -6.26551	7.83053e-05	  -6.24905	0.000142139	   -6.2555	0.00014309	  -6.25669	0.000121178	  -6.25669	   3.02945	
  -6.33011	5.57549e-05	  -6.31305	0.000120139	  -6.31997	0.000121222	  -6.32105	9.90387e-05	  -6.32105	   2.47597	
  -6.39443	3.32304e-05	  -6.37686	9.81304e-05	  -6.38418	9.93236e-05	  -6.38516	7.68948e-05	  -6.38516	   1.92237	
  -6.45849	1.06964e-05	  -6.44036	7.61233e-05	  -6.44801	7.73979e-05	  -6.44895	5.47392e-05	  -6.44895	   1.36848	
  -6.52224	-1.19207e-05	  -6.50364	5.40462e-05	  -6.51147	5.54229e-05	  -6.51245	3.25161e-05	  -6.51245	  0.812904	
  -6.58583	-3.46093e-05	  -6.56678	3.18743e-05	  -6.57483	3.33978e-05	  -6.57581	1.02209e-05	  -6.57581	  0.255523	
  -6.64907	-5.7296e-05	  -6.62965	9.66704e-06	  -6.63787	1.13461e-05	  -6.63887	-1.20943e-05	  -6.63887	 -0.302357	
  -6.71208	-7.99629e-05	  -6.69215	-1.25369e-05	  -6.70049	-1.07273e-05	  -6.70158	-3.4409e-05	  -6.70158	 -0.860225	
  -6.77493	-0.000102665	  -6.75452	-3.4767e-05	  -6.76299	-3.28452e-05	  -6.76415	-5.67591e-05	  -6.76415	  -1.41898	
  -6.83749	-0.00012543	  -6.81669	-5.70696e-05	  -6.82525	-5.49979e-05	  -6.82648	-7.91657e-05	  -6.82648	  -1.97914	
   -6.8997	-0.000148221	  -6.87855	-7.94203e-05	  -6.88707	-7.71644e-05	  -6.88844	-0.000101602	  -6.88844	  -2.54005	
  -6.96173	 -0.000171	  -6.94015	-0.000101756	  -6.94869	-9.93491e-05	  -6.95019	-0.000124035	  -6.95019	  -3.10087	
  -7.02354	-0.000193771	  -7.00163	-0.000124072	  -7.01015	-0.000121568	  -7.01177	-0.000146471	  -7.01177	  -3.66176	
  -7.08494	-0.000216574	   -7.0628	-0.00014643	  -7.07125	-0.000143814	    -7.073	-0.000168939	    -7.073	  -4.22348	
  -7.14603	-0.0002394	  -7.12361	-0.000168855	  -7.13203	-0.000166073	  -7.13389	-0.000191443	  -7.13389	  -4.78607	
    -7.207	-0.000262212	  -7.18431	-0.000191299	  -7.19267	-0.00018835	  -7.19466	-0.000213954	  -7.19466	  -5.34884	
  -7.26765	-0.000284998	  -7.24469	-0.000213707	  -7.25303	-0.000210645	  -7.25512	-0.00023645	  -7.25512	  -5.91126	
  -7.32793	-0.000307781	  -7.30473	-0.000236104	  -7.31302	-0.000232938	  -7.31523	-0.000258941	  -7.31523	  -6.47352	
  -7.38794	-0.000330525	  -7.36443	-0.000258542	  -7.37279	-0.00025523	  -7.37505	-0.000281432	  -7.37505	  -7.03581	
  -7.44773	-0.000353257	  -7.42386	-0.00028101	   -7.4324	-0.000277538	  -7.43466	-0.000303935	  -7.43466	  -7.59837	
  -7.50663	-0.000376029	  -7.48299	-0.000303444	  -7.49165	-0.000299861	  -7.49375	-0.000326445	  -7.49375	  -8.16112	
  -7.56478	-0.000398859	  -7.54171	-0.000325831	  -7.55052	-0.000322173	  -7.55234	-0.000348954	  -7.55234	  -8.72386	
  -7.62291	-0.00042166	  -7.60012	-0.000348221	  -7.60918	-0.000344459	  -7.61073	-0.000371447	  -7.61073	  -9.28617	
   -7.6814	-0.000444334	  -7.65835	-0.000370645	   -7.6676	-0.000366738	  -7.66912	-0.000393906	  -7.66912	  -9.84764	
  -7.74009	-0.000466901	  -7.71623	-0.000393073	  -7.72562	-0.00038902	  -7.72731	-0.000416331	  -7.72731	  -10.4083	
   -7.7984	-0.000489481	   -7.7738	-0.000415461	   -7.7832	-0.000411288	  -7.78513	-0.000438743	  -7.78513	  -10.9686	
  -7.85612	-0.000512135	  -7.83108	-0.000437811	  -7.84061	-0.00043352	   -7.8426	-0.000461155	   -7.8426	  -11.5289	
  -7.91329	-0.000534784	  -7.88815	-0.000460155	  -7.89774	-0.00045572	  -7.89973	-0.000483553	  -7.89973	  -12.0888	
  -7.97006	-0.000557314	  -7.94481	-0.000482507	  -7.95443	-0.000477908	  -7.95644	-0.00050591	  -7.95644	  -12.6477	
  -8.02661	-0.000579734	  -8.00106	-0.000504837	   -8.0108	-0.000500083	  -8.01283	-0.000528218	  -8.01283	  -13.2054	
  -8.08299	-0.000602159	  -8.05708	-0.000527117	  -8.06697	-0.000522208	  -8.06902	-0.000550495	  -8.06902	  -13.7624	
  -8.13902	-0.000624623	  -8.11286	-0.000549362	  -8.12284	-0.000544265	  -8.12491	-0.00057275	  -8.12491	  -14.3187	
  -8.19461	-0.000647033	  -8.16822	-0.000571584	  -8.17825	-0.000566294	  -8.18036	-0.00059497	  -8.18036	  -14.8743	
  -8.24974	-0.000669307	  -8.22337	-0.000593791	  -8.23332	-0.000588345	  -8.23548	-0.000617148	  -8.23548	  -15.4287	
   -8.3047	-0.000691497	  -8.27844	-0.000615963	  -8.28827	-0.000610383	  -8.29047	-0.000639281	  -8.29047	   -15.982	
  -8.35931	-0.000713707	  -8.33322	-0.000638072	  -8.34291	-0.000632315	  -8.34515	-0.000661364	  -8.34515	  -16.5341	
  -8.41342	-0.000735918	  -8.38758	-0.000660106	  -8.39724	-0.000654134	  -8.39941	-0.000683386	  -8.39941	  -17.0846	
   -8.4672	-0.000758015	  -8.44142	-0.000682096	   -8.4511	-0.00067596	  -8.45324	-0.000705357	  -8.45324	  -17.6339	
  -8.52068	-0.000779991	  -8.49489	-0.00070408	  -8.50477	-0.000697828	  -8.50678	-0.0007273	  -8.50678	  -18.1825	
  -8.57368	-0.000801977	  -8.54813	-0.000726029	   -8.5583	-0.000719608	  -8.56004	-0.000749205	  -8.56004	  -18.7301	
  -8.62622	-0.000824019	  -8.60097	-0.000747901	  -8.61165	-0.000741231	  -8.61295	-0.00077105	  -8.61295	  -19.2763	
  -8.67849	-0.000845963	  -8.65326	-0.000769722	  -8.66461	-0.000762776	  -8.66545	-0.00079282	  -8.66545	  -19.8205	
  -8.73079	-0.000867666	  -8.70488	-0.00079153	    -8.717	-0.00078434	  -8.71756	-0.000814512	  -8.71756	  -20.3628	
  -8.78296	-0.00088924	  -8.75626	-0.000813272	  -8.76888	-0.00080589	  -8.76937	-0.000836134	  -8.76937	  -20.9033	
  -8.83468	-0.000910891	  -8.80784	-0.000834874	  -8.82036	-0.000827315	  -8.82096	-0.000857693	  -8.82096	  -21.4423	
  -8.88579	-0.0009326	  -8.85948	-0.000856362	  -8.87128	-0.00084864	  -8.87219	-0.000879201	  -8.87219	    -21.98	
  -8.93648	-0.000954138	  -8.91051	-0.00087784	  -8.92175	-0.00086995	  -8.92291	-0.000900643	  -8.92291	  -22.5161	
  -8.98694	-0.000975415	  -8.96073	-0.000899327	  -8.97164	-0.000891248	  -8.97311	-0.000921997	  -8.97311	  -23.0499	
  -9.03711	-0.00099661	  -9.01054	-0.000920716	  -9.02132	-0.000912437	  -9.02299	-0.000943254	  -9.02299	  -23.5814	
  -9.08693	-0.00101789	  -9.06003	-0.000941943	   -9.0704	-0.000933456	  -9.07245	-0.000964429	  -9.07245	  -24.1107	
  -9.13637	-0.00103913	  -9.10933	-0.000963076	  -9.11936	-0.000954377	  -9.12169	-0.000985528	  -9.12169	  -24.6382	
  -9.18567	-0.00106014	  -9.15834	-0.000984206	  -9.16817	-0.000975292	  -9.17073	-0.00100655	  -9.17073	  -25.1636	
  -9.23467	-0.00108092	  -9.20701	-0.00100532	  -9.21675	-0.00099616	  -9.21948	-0.00102747	  -9.21948	  -25.6867	
  -9.28321	-0.00110166	  -9.25534	-0.00102629	  -9.26481	-0.00101688	  -9.26779	-0.00104828	  -9.26779	   -26.207	
  -9.33125	-0.00112247	   -9.3032	-0.00104707	  -9.31251	-0.00103743	  -9.31566	-0.00106899	  -9.31566	  -26.7248	
  -9.37892	-0.00114324	  -9.35055	-0.00106775	  -9.35967	-0.0010579	  -9.36305	-0.00108963	  -9.36305	  -27.2408	
  -9.42632	-0.00116377	  -9.39775	-0.00108844	   -9.4065	-0.00107835	  -9.41019	-0.00111019	  -9.41019	  -27.7547	
   -9.4734	-0.00118401	  -9.44473	-0.00110908	  -9.45295	-0.00109869	  -9.45703	-0.0011306	  -9.45703	  -28.2649	
   -9.5201	-0.00120414	  -9.49136	-0.00112955	  -9.49905	-0.00111886	   -9.5035	-0.00115085	   -9.5035	  -28.7713	
  -9.56621	-0.00122436	  -9.53749	-0.00114984	  -9.54488	-0.00113892	  -9.54953	-0.00117104	  -9.54953	   -29.276	
  -9.61187	-0.00124462	  -9.58326	-0.00117007	  -9.59026	-0.00115894	  -9.59513	-0.00119121	  -9.59513	  -29.7803	
  -9.65722	-0.00126466	  -9.62866	-0.00119029	  -9.63533	-0.00117891	   -9.6404	-0.00121128	   -9.6404	  -30.2821	
  -9.70227	-0.00128439	  -9.67376	-0.00121037	   -9.6801	-0.00119871	  -9.68538	-0.00123116	  -9.68538	  -30.7789	
   -9.7469	-0.00130399	  -9.71853	-0.00123026	  -9.72453	-0.00121831	  -9.72999	-0.00125085	  -9.72999	  -31.2713	
  -9.79106	-0.00132366	  -9.76283	-0.00125001	  -9.76866	-0.00123781	  -9.77418	-0.00127049	  -9.77418	  -31.7623	
  -9.83485	-0.00134331	  -9.80655	-0.0012697	   -9.8124	-0.00125729	  -9.81793	-0.0012901	  -9.81793	  -32.2525	
  -9.87844	-0.0013627	  -9.84999	-0.00128933	  -9.85575	-0.00127669	  -9.86139	-0.00130957	  -9.86139	  -32.7393	
  -9.92169	-0.00138182	   -9.8932	-0.00130878	  -9.89885	-0.0012959	  -9.90458	-0.00132883	  -9.90458	  -33.2208	
  -9.96455	-0.00140087	  -9.93613	-0.00132804	  -9.94164	-0.00131493	  -9.94744	-0.00134795	  -9.94744	  -33.6986	
  -10.0069	-0.00141995	  -9.97864	-0.0013472	    -9.984	-0.00133388	  -9.98985	-0.00136701	  -9.98985	  -34.1752	
  -10.0489	-0.00143893	  -10.0206	-0.0013663	  -10.0258	-0.0013528	  -10.0318	-0.00138601	  -10.0318	  -34.6502	
  -10.0903	-0.00145762	  -10.0621	-0.00138528	  -10.0671	-0.00137161	  -10.0731	-0.00140484	  -10.0731	   -35.121	
  -10.1314	-0.00147611	   -10.103	-0.00140407	  -10.1078	-0.00139022	  -10.1141	-0.00142347	  -10.1141	  -35.5867	
  -10.1722	-0.00149457	  -10.1436	-0.00142269	  -10.1484	-0.00140869	  -10.1547	-0.00144198	  -10.1547	  -36.0496	
  -10.2127	-0.00151302	  -10.1838	-0.00144121	  -10.1887	-0.0014271	  -10.1951	-0.00146044	  -10.1951	   -36.511	
  -10.2526	-0.0015313	  -10.2236	-0.00145964	  -10.2285	-0.00144543	  -10.2349	-0.00147879	  -10.2349	  -36.9698	
  -10.2921	-0.00154933	  -10.2629	-0.00147792	  -10.2679	-0.00146364	  -10.2743	-0.00149696	  -10.2743	   -37.424	
  -10.3309	-0.00156719	  -10.3017	 -0.001496	  -10.3068	-0.00148163	  -10.3131	-0.00151494	  -10.3131	  -37.8736	
  -10.3694	-0.00158502	    -10.34	-0.00151393	  -10.3452	-0.00149946	  -10.3515	-0.0015328	  -10.3515	    -38.32	
  -10.4074	-0.00160275	  -10.3779	-0.00153176	  -10.3833	-0.00151719	  -10.3896	-0.00155056	  -10.3896	  -38.7641	
  -10.4452	-0.00162027	  -10.4155	-0.00154946	  -10.4212	-0.00153484	  -10.4273	-0.00156819	  -10.4273	  -39.2048	
  -10.4826	-0.00163756	  -10.4528	-0.00156699	  -10.4586	-0.00155237	  -10.4647	-0.00158564	  -10.4647	   -39.641	
  -10.5194	-0.00165474	  -10.4897	-0.00158433	  -10.4956	-0.00156973	  -10.5016	-0.00160293	  -10.5016	  -40.0733	
  -10.5557	-0.00167186	  -10.5261	-0.00160155	   -10.532	-0.00158692	  -10.5379	-0.00162011	  -10.5379	  -40.5027	
  -10.5916	-0.00168884	  -10.5621	-0.00161865	  -10.5678	-0.00160398	  -10.5738	-0.00163716	  -10.5738	  -40.9289	
  -10.6273	-0.00170558	  -10.5974	-0.00163557	  -10.6031	-0.00162093	  -10.6093	-0.00165403	  -10.6093	  -41.3507	
  -10.6628	-0.00172212	  -10.6323	-0.0016523	  -10.6379	-0.00163774	  -10.6443	-0.00167072	  -10.6443	   -41.768	
  -10.6979	-0.00173857	  -10.6669	-0.0016689	  -10.6725	-0.00165439	  -10.6791	-0.00168729	  -10.6791	  -42.1821	
  -10.7324	-0.00175494	  -10.7012	-0.00168541	  -10.7069	-0.00167089	  -10.7135	-0.00170374	  -10.7135	  -42.5936	
  -10.7665	-0.00177113	  -10.7352	-0.00170178	  -10.7408	-0.00168725	  -10.7475	-0.00172005	  -10.7475	  -43.0013	
     -10.8	-0.0017871	  -10.7686	-0.00171792	  -10.7742	-0.00170349	  -10.7809	-0.00173617	  -10.7809	  -43.4042	
  -10.8329	-0.00180291	  -10.8016	-0.00173385	  -10.8071	-0.00171956	  -10.8139	-0.00175211	  -10.8139	  -43.8027	
  -10.8654	-0.00181862	   -10.834	-0.00174967	  -10.8397	-0.00173547	  -10.8464	-0.00176792	  -10.8464	   -44.198	
  -10.8976	-0.00183421	   -10.866	-0.00176542	  -10.8718	-0.00175123	  -10.8785	-0.00178362	  -10.8785	  -44.5905	
  -10.9296	-0.0018496	  -10.8977	-0.00178101	  -10.9038	-0.00176686	  -10.9104	-0.00179916	  -10.9104	  -44.9789	
  -10.9612	-0.00186479	  -10.9291	-0.00179636	  -10.9355	-0.00178235	  -10.9419	-0.0018145	  -10.9419	  -45.3625	
  -10.9923	-0.00187985	  -10.9602	-0.00181154	  -10.9668	-0.0017977	  -10.9731	-0.0018297	  -10.9731	  -45.7424	
   -11.023	-0.00189481	   -10.991	-0.00182661	  -10.9977	-0.00181292	  -11.0039	-0.00184478	  -11.0039	  -46.1195	
  -11.0532	-0.00190963	  -11.0213	-0.00184157	  -11.0282	-0.00182793	  -11.0342	-0.00185971	  -11.0342	  -46.4927	
  -11.0829	-0.00192425	  -11.0512	-0.00185634	  -11.0581	-0.00184271	  -11.0641	-0.00187443	  -11.0641	  -46.8608	
  -11.1125	-0.00193863	  -11.0805	-0.00187091	  -11.0875	-0.00185732	  -11.0935	-0.00188895	  -11.0935	  -47.2238	
  -11.1418	-0.00195282	  -11.1092	-0.00188532	  -11.1162	-0.00187189	  -11.1224	-0.00190334	  -11.1224	  -47.5836	
  -11.1707	-0.00196694	  -11.1375	-0.00189963	  -11.1444	-0.00188639	  -11.1509	-0.00191765	  -11.1509	  -47.9413	
   -11.199	-0.00198097	  -11.1655	-0.00191384	  -11.1722	-0.00190066	  -11.1789	-0.00193183	  -11.1789	  -48.2957	
  -11.2267	-0.00199479	  -11.1931	-0.00192786	  -11.1998	-0.00191468	  -11.2065	-0.00194578	  -11.2065	  -48.6444	
  -11.2541	-0.00200838	  -11.2204	-0.00194162	   -11.227	-0.00192854	  -11.2338	-0.00195951	  -11.2338	  -48.9878	
  -11.2805	-0.00202185	  -11.2474	-0.00195516	  -11.2539	-0.00194235	  -11.2606	-0.00197312	  -11.2606	   -49.328	
  -11.3063	-0.00203528	   -11.274	-0.0019686	  -11.2804	-0.00195602	  -11.2869	-0.00198663	  -11.2869	  -49.6659	
  -11.3317	-0.00204853	  -11.3002	 -0.001982	  -11.3064	-0.00196945	  -11.3128	-0.00199999	  -11.3128	  -49.9999	
  -11.3568	-0.00206152	  -11.3259	-0.00199525	   -11.332	-0.00198269	  -11.3382	-0.00201315	  -11.3382	  -50.3288	
  -11.3818	-0.0020743	  -11.3511	-0.00200825	  -11.3571	-0.00199583	  -11.3633	-0.00202613	  -11.3633	  -50.6532	
  -11.4065	 -0.002087	  -11.3757	-0.00202105	  -11.3817	-0.00200889	  -11.3879	-0.00203898	  -11.3879	  -50.9745	
  -11.4306	-0.00209963	  -11.3998	-0.00203374	  -11.4056	-0.00202175	   -11.412	-0.00205171	   -11.412	  -51.2927	
  -11.4543	-0.00211207	  -11.4233	-0.00204635	  -11.4289	-0.00203438	  -11.4355	-0.00206427	  -11.4355	  -51.6067	
  -11.4773	-0.00212427	  -11.4462	-0.00205882	  -11.4517	-0.00204683	  -11.4584	-0.00207664	  -11.4584	   -51.916	
  -11.4997	-0.00213628	  -11.4686	-0.00207109	   -11.474	-0.0020592	  -11.4808	-0.00208885	  -11.4808	  -52.2214	
  -11.5218	-0.00214814	  -11.4905	-0.00208319	  -11.4959	-0.00207143	  -11.5027	-0.00210092	  -11.5027	   -52.523	
  -11.5439	-0.00215986	  -11.5118	-0.00209519	  -11.5173	-0.00208347	  -11.5244	-0.00211284	  -11.5244	  -52.8209	
  -11.5654	-0.00217143	  -11.5328	-0.00210709	  -11.5384	-0.00209531	  -11.5455	-0.00212461	  -11.5455	  -53.1153	
  -11.5862	-0.00218284	  -11.5533	-0.00211885	  -11.5592	-0.00210703	  -11.5662	-0.00213624	  -11.5662	   -53.406	
  -11.6065	-0.00219404	  -11.5734	-0.0021304	  -11.5797	-0.00211864	  -11.5865	-0.00214769	  -11.5865	  -53.6923	
  -11.6265	-0.00220507	  -11.5934	-0.0021418	  -11.5999	-0.00213008	  -11.6066	-0.00215898	  -11.6066	  -53.9745	
   -11.646	-0.00221598	   -11.613	-0.0021531	  -11.6197	-0.00214135	  -11.6262	-0.00217014	  -11.6262	  -54.2536	
  -11.6651	-0.00222677	  -11.6322	-0.00216432	  -11.6391	-0.00215247	  -11.6455	-0.00218119	  -11.6455	  -54.5297	
  -11.6836	-0.00223737	  -11.6509	-0.00217536	  -11.6581	-0.00216348	  -11.6642	-0.00219207	  -11.6642	  -54.8018	
  -11.7018	-0.00224777	  -11.6689	-0.0021862	  -11.6766	-0.00217435	  -11.6824	-0.00220277	  -11.6824	  -55.0693	
  -11.7194	-0.00225804	  -11.6865	-0.0021969	  -11.6946	-0.00218505	  -11.7001	-0.00221333	  -11.7001	  -55.3333	
  -11.7362	-0.00226819	  -11.7036	-0.00220756	  -11.7121	-0.0021956	  -11.7173	-0.00222378	  -11.7173	  -55.5945	
  -11.7527	-0.0022782	  -11.7201	-0.00221814	  -11.7291	-0.00220599	   -11.734	-0.00223411	   -11.734	  -55.8528	
   -11.769	-0.00228805	  -11.7359	-0.0022285	  -11.7456	-0.00221626	  -11.7501	-0.00224427	  -11.7501	  -56.1068	
  -11.7849	-0.00229773	  -11.7514	-0.00223862	  -11.7615	-0.00222639	  -11.7659	-0.00225425	  -11.7659	  -56.3563	
  -11.8003	-0.00230724	  -11.7664	-0.00224864	  -11.7769	-0.00223637	  -11.7812	-0.00226409	  -11.7812	  -56.6021	
  -11.8152	-0.0023166	   -11.781	-0.00225863	  -11.7917	-0.0022462	   -11.796	-0.00227381	   -11.796	  -56.8453	
  -11.8297	-0.00232588	  -11.7952	-0.0022685	   -11.806	-0.00225588	  -11.8103	-0.00228342	  -11.8103	  -57.0855	
  -11.8437	-0.00233505	  -11.8094	-0.00227811	  -11.8196	-0.00226541	  -11.8242	-0.00229286	  -11.8242	  -57.3215	
  -11.8572	-0.00234404	   -11.823	-0.00228752	  -11.8328	-0.00227481	  -11.8377	-0.00230212	  -11.8377	  -57.5531	
  -11.8703	-0.00235283	   -11.836	-0.00229688	  -11.8453	-0.00228406	  -11.8505	-0.00231125	  -11.8505	  -57.7813	
  -11.8828	-0.0023615	  -11.8485	-0.00230621	  -11.8573	-0.00229317	  -11.8629	-0.00232029	  -11.8629	  -58.0073	
  -11.8947	-0.00237011	  -11.8607	-0.00231537	  -11.8687	-0.00230213	  -11.8747	-0.0023292	  -11.8747	  -58.2301	
   -11.906	-0.0023786	  -11.8725	-0.00232427	  -11.8796	-0.00231094	   -11.886	-0.00233793	   -11.886	  -58.4483	
  -11.9168	-0.00238687	  -11.8837	-0.00233298	  -11.8899	-0.0023196	  -11.8968	-0.00234648	  -11.8968	  -58.6621	
  -11.9271	-0.00239498	  -11.8944	-0.00234167	  -11.8997	-0.00232816	  -11.9071	-0.00235494	  -11.9071	  -58.8734	
  -11.9368	-0.00240303	  -11.9045	-0.00235035	   -11.909	-0.00233656	  -11.9167	-0.00236331	  -11.9167	  -59.0828	
  -11.9459	-0.00241101	  -11.9141	-0.00235884	  -11.9178	-0.00234481	  -11.9259	-0.00237155	  -11.9259	  -59.2888	
  -11.9544	-0.00241882	  -11.9232	-0.00236707	  -11.9261	-0.00235292	  -11.9346	-0.0023796	  -11.9346	  -59.4901	
  -11.9624	-0.00242645	  -11.9318	-0.00237515	  -11.9338	-0.00236093	  -11.9427	-0.00238751	  -11.9427	  -59.6877	
  -11.9699	-0.00243397	  -11.9399	-0.0023832	  -11.9412	-0.00236881	  -11.9503	-0.00239533	  -11.9503	  -59.8832	
  -11.9769	-0.00244142	  -11.9475	-0.00239119	   -11.948	-0.00237654	  -11.9575	-0.00240305	  -11.9575	  -60.0763	
  -11.9834	-0.00244873	  -11.9546	-0.00239898	  -11.9544	-0.0023841	  -11.9642	-0.0024106	  -11.9642	  -60.2651	
  -11.9894	-0.00245586	  -11.9612	-0.00240654	  -11.9604	-0.00239152	  -11.9704	-0.00241797	  -11.9704	  -60.4493	
  -11.9949	-0.00246287	  -11.9674	-0.00241398	   -11.966	-0.00239886	  -11.9761	-0.00242524	  -11.9761	  -60.6309	
  -11.9999	-0.00246983	  -11.9731	-0.00242141	  -11.9709	-0.00240614	  -11.9813	-0.00243246	  -11.9813	  -60.8114	
  -12.0045	-0.00247671	  -11.9784	-0.00242875	  -11.9753	-0.00241331	  -11.9861	-0.00243959	  -11.9861	  -60.9898	
  -12.0087	-0.00248343	  -11.9833	-0.00243589	  -11.9794	-0.00242028	  -11.9905	-0.00244653	  -11.9905	  -61.1634	
  -12.0125	-0.00248996	  -11.9878	-0.00244283	  -11.9835	-0.00242704	  -11.9946	-0.00245327	  -11.9946	  -61.3319	
  -12.0159	-0.00249636	  -11.9919	-0.00244969	  -11.9874	-0.0024337	  -11.9984	-0.00245992	  -11.9984	  -61.4979	
  -12.0189	-0.00250273	  -11.9957	-0.0024565	  -11.9909	-0.00244037	  -12.0019	-0.00246653	  -12.0019	  -61.6633	
  -12.0216	-0.00250903	  -11.9991	-0.0024632	  -11.9936	-0.00244697	  -12.0048	-0.00247307	  -12.0048	  -61.8266	
  -12.0239	-0.00251517	  -12.0022	-0.00246971	  -11.9958	-0.00245335	  -12.0073	-0.00247941	  -12.0073	  -61.9852	
   -12.026	-0.00252113	  -12.0049	-0.00247606	  -11.9977	-0.00245954	  -12.0095	-0.00248558	  -12.0095	  -62.1394	
  -12.0277	-0.00252699	  -12.0073	-0.00248237	  -11.9995	-0.00246565	  -12.0115	-0.00249167	  -12.0115	  -62.2918	
  -12.0291	-0.00253281	  -12.0093	-0.00248862	  -12.0009	-0.00247176	  -12.0131	-0.00249773	  -12.0131	  -62.4432	
  -12.0301	-0.00253854	  -12.0107	-0.0024947	  -12.0018	-0.00247779	  -12.0142	-0.00250367	  -12.0142	  -62.5918	
  -12.0308	-0.0025441	  -12.0114	-0.00250059	  -12.0023	-0.00248365	  -12.0148	-0.00250945	  -12.0148	  -62.7362	
   -12.031	-0.00254952	  -12.0115	-0.00250641	  -12.0022	-0.00248934	  -12.0149	-0.00251509	  -12.0149	  -62.8772	
  -12.0308	-0.00255488	   -12.011	-0.00251218	  -12.0014	-0.00249493	  -12.0144	-0.00252066	  -12.0144	  -63.0165	
  -12.0301	-0.00256019	  -12.0097	-0.00251786	       -12	-0.00250046	  -12.0133	-0.00252617	  -12.0133	  -63.1541	
  -12.0287	-0.00256538	  -12.0079	-0.00252335	  -11.9979	-0.0025059	  -12.0115	-0.00253154	  -12.0115	  -63.2886	
  -12.0268	-0.00257042	  -12.0055	-0.00252868	  -11.9954	-0.00251121	  -12.0092	-0.00253677	  -12.0092	  -63.4193	
  -12.0242	-0.00257534	  -12.0026	-0.00253393	  -11.9924	-0.00251639	  -12.0064	-0.00254189	  -12.0064	  -63.5471	
   -12.021	-0.00258021	  -11.9992	-0.00253912	  -11.9889	-0.00252146	   -12.003	-0.00254693	   -12.003	  -63.6734	
  -12.0174	-0.00258501	  -11.9954	-0.00254425	  -11.9851	-0.00252647	  -11.9993	-0.00255191	  -11.9993	  -63.7977	
  -12.0133	-0.00258967	  -11.9912	-0.00254925	  -11.9809	-0.00253137	  -11.9951	-0.00255676	  -11.9951	  -63.9191	
  -12.0088	-0.0025942	  -11.9867	-0.0025541	  -11.9764	-0.00253614	  -11.9907	-0.00256148	  -11.9907	  -64.0369	
   -12.004	-0.00259863	  -11.9818	-0.00255885	  -11.9717	-0.00254078	  -11.9858	-0.00256609	  -11.9858	  -64.1522	
  -11.9988	-0.00260302	  -11.9765	-0.00256355	  -11.9667	-0.00254535	  -11.9807	-0.00257064	  -11.9807	   -64.266	
  -11.9934	-0.00260732	  -11.9705	-0.00256816	  -11.9613	-0.00254981	  -11.9751	-0.0025751	  -11.9751	  -64.3774	
  -11.9876	-0.00261149	   -11.964	-0.00257264	  -11.9552	-0.00255413	  -11.9689	-0.00257942	  -11.9689	  -64.4855	
  -11.9812	-0.00261554	  -11.9567	 -0.002577	  -11.9485	-0.00255836	  -11.9622	-0.00258363	  -11.9622	  -64.5909	
  -11.9742	-0.00261953	  -11.9489	-0.00258131	  -11.9413	-0.00256256	  -11.9548	-0.0025878	  -11.9548	   -64.695	
  -11.9666	-0.00262346	  -11.9406	-0.00258556	  -11.9335	-0.00256671	  -11.9469	-0.00259191	  -11.9469	  -64.7978	
  -11.9585	-0.00262731	  -11.9318	-0.00258971	  -11.9253	-0.00257075	  -11.9385	-0.00259592	  -11.9385	   -64.898	
  -11.9498	-0.00263102	  -11.9226	-0.00259371	  -11.9166	-0.0025746	  -11.9296	-0.00259978	  -11.9296	  -64.9944	
  -11.9406	-0.00263463	  -11.9131	-0.00259762	  -11.9075	-0.0025783	  -11.9204	-0.00260352	  -11.9204	  -65.0879	
  -11.9311	-0.00263818	  -11.9033	-0.00260148	  -11.8982	-0.00258196	  -11.9109	-0.00260721	  -11.9109	  -65.1801	
  -11.9212	-0.00264166	  -11.8931	-0.00260528	  -11.8886	-0.00258562	   -11.901	-0.00261085	   -11.901	  -65.2713	
  -11.9111	-0.00264504	  -11.8822	-0.00260897	  -11.8785	-0.00258918	  -11.8906	-0.0026144	  -11.8906	    -65.36	
  -11.9004	-0.00264832	  -11.8708	-0.00261252	  -11.8679	-0.00259257	  -11.8797	-0.0026178	  -11.8797	  -65.4451	
  -11.8892	-0.00265153	  -11.8588	-0.00261601	  -11.8567	-0.0025958	  -11.8682	-0.00262111	  -11.8682	  -65.5278	
  -11.8773	-0.00265469	  -11.8463	-0.00261951	  -11.8449	-0.00259901	  -11.8562	-0.00262441	  -11.8562	  -65.6102	
  -11.8648	-0.0026578	  -11.8334	-0.00262295	  -11.8327	-0.00260223	  -11.8436	-0.00262766	  -11.8436	  -65.6915	
  -11.8519	-0.00266078	  -11.8201	-0.00262623	    -11.82	-0.00260533	  -11.8307	-0.00263078	  -11.8307	  -65.7695	
  -11.8385	-0.0026636	  -11.8066	-0.00262938	  -11.8069	-0.00260827	  -11.8173	-0.00263375	  -11.8173	  -65.8437	
  -11.8248	-0.00266634	  -11.7926	-0.0026325	  -11.7935	-0.00261111	  -11.8036	-0.00263665	  -11.8036	  -65.9162	
  -11.8106	-0.00266909	  -11.7782	-0.0026356	  -11.7796	-0.00261397	  -11.7895	-0.00263955	  -11.7895	  -65.9888	
  -11.7958	-0.00267183	  -11.7633	-0.00263857	  -11.7652	-0.00261679	  -11.7748	-0.0026424	  -11.7748	  -66.0599	
  -11.7805	-0.00267442	  -11.7479	-0.00264139	  -11.7503	-0.0026195	  -11.7596	-0.0026451	  -11.7596	  -66.1276	
  -11.7647	-0.00267686	   -11.732	-0.00264414	  -11.7348	-0.00262205	  -11.7438	-0.00264768	  -11.7438	  -66.1921	
  -11.7483	-0.00267925	  -11.7158	-0.00264685	  -11.7189	-0.00262455	  -11.7277	-0.00265022	  -11.7277	  -66.2554	
  -11.7316	-0.00268166	  -11.6992	-0.00264947	  -11.7025	-0.00262706	  -11.7111	-0.00265273	  -11.7111	  -66.3183	
  -11.7145	-0.00268399	  -11.6822	-0.00265198	  -11.6859	-0.00262952	  -11.6942	-0.00265516	  -11.6942	   -66.379	
  -11.6971	-0.00268617	  -11.6647	-0.0026544	  -11.6686	-0.00263181	  -11.6768	-0.00265746	  -11.6768	  -66.4365	
  -11.6792	-0.00268824	  -11.6468	-0.00265679	  -11.6507	-0.00263398	  -11.6589	-0.00265967	  -11.6589	  -66.4918	
  -11.6607	-0.00269031	  -11.6283	-0.00265911	  -11.6321	-0.00263612	  -11.6404	-0.00266185	  -11.6404	  -66.5461	
  -11.6416	-0.00269235	  -11.6092	-0.00266131	  -11.6131	-0.00263825	  -11.6213	-0.00266397	  -11.6213	  -66.5992	
  -11.6221	-0.00269428	  -11.5898	-0.0026634	  -11.5936	-0.00264027	  -11.6018	-0.00266598	  -11.6018	  -66.6496	
  -11.6022	-0.00269608	  -11.5701	-0.00266544	  -11.5739	-0.00264219	   -11.582	-0.0026679	   -11.582	  -66.6976	
   -11.582	-0.00269779	  -11.5499	-0.00266746	  -11.5538	-0.0026441	  -11.5619	-0.00266978	  -11.5619	  -66.7446	
  -11.5615	-0.0026995	  -11.5292	-0.00266944	  -11.5333	 -0.002646	  -11.5413	-0.00267165	  -11.5413	  -66.7912	
  -11.5405	-0.00270121	  -11.5078	-0.00267126	  -11.5121	-0.00264779	  -11.5201	-0.00267342	  -11.5201	  -66.8355	
  -11.5189	-0.00270284	   -11.486	-0.00267293	  -11.4905	-0.00264945	  -11.4984	-0.00267507	  -11.4984	  -66.8768	
  -11.4969	-0.00270431	  -11.4636	-0.00267464	  -11.4684	-0.00265105	  -11.4763	-0.00267667	  -11.4763	  -66.9167	
  -11.4744	-0.00270569	  -11.4404	-0.00267643	  -11.4459	-0.00265266	  -11.4536	-0.00267826	  -11.4536	  -66.9566	
  -11.4516	-0.00270706	  -11.4165	-0.00267818	  -11.4231	-0.00265424	  -11.4304	-0.00267983	  -11.4304	  -66.9957	
  -11.4282	-0.00270841	  -11.3921	-0.00267969	  -11.3998	-0.00265571	  -11.4067	-0.00268127	  -11.4067	  -67.0318	
  -11.4042	-0.00270967	   -11.368	-0.00268102	  -11.3758	-0.00265707	  -11.3827	-0.00268259	  -11.3827	  -67.0647	
  -11.3797	-0.00271081	  -11.3435	-0.00268237	  -11.3514	-0.00265839	  -11.3582	-0.00268386	  -11.3582	  -67.0964	
  -11.3548	-0.00271188	  -11.3188	-0.00268382	  -11.3267	-0.00265973	  -11.3334	-0.00268514	  -11.3334	  -67.1285	
  -11.3295	-0.00271293	  -11.2937	-0.00268521	  -11.3015	-0.00266102	  -11.3082	-0.00268639	  -11.3082	  -67.1596	
  -11.3038	-0.00271393	   -11.268	-0.00268641	  -11.2758	-0.00266218	  -11.2825	-0.00268751	  -11.2825	  -67.1877	
  -11.2777	-0.00271484	  -11.2417	-0.00268747	  -11.2494	-0.00266326	  -11.2563	-0.00268852	  -11.2563	  -67.2131	
  -11.2512	-0.00271564	   -11.215	-0.00268856	  -11.2226	-0.00266435	  -11.2296	-0.00268952	  -11.2296	  -67.2379	
  -11.2242	-0.00271636	   -11.188	-0.00268969	  -11.1954	-0.00266546	  -11.2025	-0.0026905	  -11.2025	  -67.2626	
  -11.1968	-0.00271705	  -11.1606	-0.00269074	  -11.1679	-0.00266649	  -11.1751	-0.00269143	  -11.1751	  -67.2857	
  -11.1689	-0.00271772	  -11.1328	-0.00269161	  -11.1401	-0.00266739	  -11.1473	-0.00269224	  -11.1473	  -67.3059	
  -11.1406	-0.00271829	  -11.1045	-0.00269239	  -11.1119	-0.0026682	   -11.119	-0.00269296	   -11.119	  -67.3241	
  -11.1118	-0.00271875	  -11.0758	-0.00269322	  -11.0834	-0.00266902	  -11.0903	-0.00269366	  -11.0903	  -67.3416	
  -11.0826	-0.00271916	  -11.0466	-0.00269405	  -11.0545	-0.00266985	  -11.0612	-0.00269435	  -11.0612	  -67.3588	
   -11.053	-0.00271955	   -11.017	-0.00269475	  -11.0248	-0.0026706	  -11.0316	-0.00269497	  -11.0316	  -67.3741	
   -11.023	-0.00271986	   -10.987	-0.0026953	  -10.9947	-0.00267119	  -11.0015	-0.00269545	  -11.0015	  -67.3864	
  -10.9925	-0.00272004	  -10.9563	-0.00269581	  -10.9643	-0.00267171	   -10.971	-0.00269585	   -10.971	  -67.3963	
  -10.9614	-0.00272013	  -10.9253	-0.00269633	  -10.9334	-0.00267227	  -10.9401	-0.00269624	  -10.9401	  -67.4061	
    -10.93	-0.00272025	   -10.894	-0.00269682	  -10.9021	-0.00267282	  -10.9087	-0.00269663	  -10.9087	  -67.4157	
  -10.8982	-0.00272041	  -10.8622	-0.00269721	  -10.8703	-0.00267325	  -10.8769	-0.00269696	  -10.8769	  -67.4239	
  -10.8659	-0.00272046	  -10.8299	-0.00269748	   -10.838	-0.00267353	  -10.8446	-0.00269716	  -10.8446	  -67.4289	
  -10.8329	-0.00272028	  -10.7972	-0.0026977	  -10.8051	-0.00267379	  -10.8117	-0.00269726	  -10.8117	  -67.4314	
  -10.7995	-0.00271999	  -10.7641	-0.00269788	  -10.7715	-0.0026741	  -10.7784	-0.00269732	  -10.7784	  -67.4331	
  -10.7659	-0.00271975	  -10.7307	-0.00269803	  -10.7376	-0.00267436	  -10.7447	-0.00269738	  -10.7447	  -67.4345	
  -10.7318	-0.0027196	   -10.697	-0.00269811	  -10.7033	-0.00267447	  -10.7107	-0.00269739	  -10.7107	  -67.4348	
  -10.6972	-0.00271936	  -10.6628	-0.00269808	  -10.6688	-0.00267448	  -10.6762	-0.00269731	  -10.6762	  -67.4327	
   -10.662	-0.00271893	  -10.6282	-0.00269793	  -10.6339	-0.00267451	  -10.6414	-0.00269713	  -10.6414	  -67.4281	
  -10.6266	-0.00271839	  -10.5932	-0.00269774	  -10.5986	-0.00267453	  -10.6061	-0.00269689	  -10.6061	  -67.4221	
  -10.5909	-0.00271789	  -10.5577	-0.00269756	  -10.5628	-0.00267444	  -10.5705	-0.00269663	  -10.5705	  -67.4157	
  -10.5546	-0.00271741	  -10.5218	-0.00269736	  -10.5266	-0.00267422	  -10.5343	-0.00269633	  -10.5343	  -67.4083	
  -10.5177	-0.00271684	  -10.4854	-0.00269705	    -10.49	-0.00267398	  -10.4977	-0.00269596	  -10.4977	  -67.3989	
  -10.4806	-0.0027161	  -10.4487	-0.00269658	   -10.453	-0.00267376	  -10.4608	-0.00269548	  -10.4608	  -67.3871	
  -10.4431	-0.00271532	  -10.4117	-0.00269603	  -10.4157	-0.0026735	  -10.4235	-0.00269495	  -10.4235	  -67.3737	
  -10.4052	-0.00271457	  -10.3741	-0.00269549	  -10.3778	-0.00267313	  -10.3857	-0.0026944	  -10.3857	  -67.3599	
  -10.3669	-0.00271381	  -10.3361	-0.00269494	  -10.3395	-0.00267268	  -10.3475	-0.00269381	  -10.3475	  -67.3453	
  -10.3282	-0.00271291	  -10.2977	-0.00269427	  -10.3009	-0.00267221	  -10.3089	-0.00269313	  -10.3089	  -67.3283	
  -10.2892	-0.00271189	  -10.2589	-0.00269346	  -10.2618	-0.00267173	    -10.27	-0.00269236	    -10.27	  -67.3091	
  -10.2499	-0.00271083	  -10.2196	-0.00269262	  -10.2223	-0.0026712	  -10.2306	-0.00269155	  -10.2306	  -67.2887	
    -10.21	-0.00270978	  -10.1799	-0.00269179	  -10.1824	-0.00267058	  -10.1907	-0.00269072	  -10.1907	  -67.2679	
  -10.1698	-0.00270869	  -10.1399	-0.00269091	  -10.1421	-0.00266991	  -10.1506	-0.00268983	  -10.1506	  -67.2458	
  -10.1292	-0.00270747	  -10.0994	-0.00268989	  -10.1014	-0.0026692	    -10.11	-0.00268885	    -10.11	  -67.2213	
  -10.0882	-0.00270616	  -10.0584	-0.00268878	  -10.0603	-0.00266842	   -10.069	-0.00268779	   -10.069	  -67.1947	
  -10.0468	-0.00270484	   -10.017	-0.00268765	  -10.0188	-0.00266758	  -10.0275	-0.00268669	  -10.0275	  -67.1673	
  -10.0051	-0.0027035	  -9.97527	-0.00268649	   -9.9771	-0.00266671	  -9.98581	-0.00268557	  -9.98581	  -67.1392	
  -9.96286	-0.00270207	  -9.93301	-0.00268525	  -9.93503	-0.0026658	  -9.94363	-0.00268437	  -9.94363	  -67.1093	
  -9.92015	-0.00270054	  -9.89026	-0.0026839	  -9.89243	-0.00266481	  -9.90094	-0.00268308	  -9.90094	  -67.0771	
  -9.87703	-0.00269898	   -9.8472	-0.00268249	  -9.84949	-0.00266377	  -9.85791	-0.00268175	  -9.85791	  -67.0438	
  -9.83369	-0.00269744	  -9.80402	-0.00268106	  -9.80625	-0.00266271	  -9.81465	-0.00268041	  -9.81465	  -67.0101	
  -9.78997	-0.00269582	  -9.76021	-0.0026796	  -9.76245	-0.00266163	  -9.77088	-0.00267902	  -9.77088	  -66.9755	
  -9.74573	-0.00269406	  -9.71597	-0.00267807	  -9.71822	-0.00266049	  -9.72664	-0.00267754	  -9.72664	  -66.9385	
  -9.70116	-0.0026922	  -9.67151	-0.00267643	  -9.67373	-0.00265927	  -9.68213	-0.00267597	  -9.68213	  -66.8992	
  -9.65629	-0.00269035	  -9.62662	-0.00267468	  -9.62894	 -0.002658	  -9.63729	-0.00267435	  -9.63729	  -66.8587	
  -9.61106	-0.00268852	  -9.58129	-0.00267291	  -9.58361	-0.00265675	  -9.59199	-0.00267273	  -9.59199	  -66.8182	
  -9.56539	-0.00268661	  -9.53564	-0.00267117	  -9.53793	-0.00265551	  -9.54632	-0.0026711	  -9.54632	  -66.7774	
  -9.51932	-0.00268459	  -9.48967	-0.00266943	  -9.49209	-0.00265419	  -9.50036	-0.0026694	  -9.50036	  -66.7351	
  -9.47298	-0.00268251	  -9.44324	-0.00266757	  -9.44568	-0.00265276	  -9.45397	-0.00266761	  -9.45397	  -66.6903	
  -9.42613	-0.00268043	  -9.39639	-0.00266558	  -9.39884	-0.00265123	  -9.40712	-0.00266575	  -9.40712	  -66.6437	
  -9.37897	-0.00267835	  -9.34933	-0.00266355	  -9.35176	-0.0026497	  -9.36002	-0.00266387	  -9.36002	  -66.5967	
  -9.33152	-0.00267619	   -9.3019	-0.00266155	  -9.30422	-0.00264818	  -9.31254	-0.00266197	  -9.31254	  -66.5493	
  -9.28356	-0.00267393	  -9.25413	-0.00265954	  -9.25617	-0.00264658	  -9.26462	-0.00266002	  -9.26462	  -66.5004	
  -9.23522	-0.00267161	  -9.20607	-0.00265742	  -9.20782	-0.00264486	  -9.21637	-0.00265797	  -9.21637	  -66.4492	
  -9.18669	-0.00266931	   -9.1578	-0.00265521	   -9.1592	-0.00264307	   -9.1679	-0.00265586	   -9.1679	  -66.3965	
  -9.13773	-0.00266699	   -9.1091	-0.00265298	  -9.11016	-0.00264125	    -9.119	-0.00265374	    -9.119	  -66.3435	
  -9.08832	-0.00266457	  -9.06002	-0.00265077	  -9.06076	-0.0026394	   -9.0697	-0.00265158	   -9.0697	  -66.2895	
  -9.03867	-0.00266205	  -9.01061	-0.00264851	  -9.01111	-0.00263743	  -9.02013	-0.00264933	  -9.02013	  -66.2332	
  -8.98864	-0.0026595	  -8.96082	-0.00264614	  -8.96101	-0.00263535	  -8.97016	 -0.002647	  -8.97016	  -66.1749	
  -8.93812	-0.00265696	   -8.9106	-0.0026437	  -8.91049	-0.00263328	  -8.91974	-0.00264465	  -8.91974	  -66.1162	
  -8.88731	-0.00265438	  -8.86008	-0.00264127	  -8.85977	-0.00263123	  -8.86905	-0.00264229	  -8.86905	  -66.0573	
  -8.83614	-0.00265171	  -8.80903	-0.00263881	  -8.80889	-0.00262907	  -8.81802	-0.00263986	  -8.81802	  -65.9966	
  -8.78451	-0.00264898	  -8.75761	-0.00263625	  -8.75753	-0.00262675	  -8.76655	-0.00263732	  -8.76655	  -65.9331	
  -8.73258	-0.00264623	   -8.7058	-0.00263363	  -8.70591	-0.0026244	  -8.71476	-0.00263475	  -8.71476	  -65.8688	
   -8.6802	-0.00264347	  -8.65371	-0.00263105	   -8.6539	-0.00262208	  -8.66261	-0.0026322	  -8.66261	   -65.805	
  -8.62743	-0.00264065	  -8.60128	-0.00262846	  -8.60154	-0.00261969	  -8.61008	-0.0026296	  -8.61008	    -65.74	
  -8.57433	-0.00263776	  -8.54898	-0.00262573	  -8.54889	-0.00261714	   -8.5574	-0.00262688	   -8.5574	  -65.6719	
  -8.52097	-0.00263481	  -8.49643	-0.00262287	  -8.49607	-0.00261451	  -8.50449	-0.00262406	  -8.50449	  -65.6016	
  -8.46712	-0.00263183	  -8.44332	-0.00262001	  -8.44272	-0.00261191	  -8.45105	-0.00262125	  -8.45105	  -65.5313	
    -8.413	-0.00262882	  -8.38967	-0.00261718	  -8.38904	-0.00260929	  -8.39724	-0.00261843	  -8.39724	  -65.4608	
  -8.35875	-0.00262577	  -8.33551	-0.00261429	  -8.33503	-0.00260653	   -8.3431	-0.00261553	   -8.3431	  -65.3883	
  -8.30408	-0.00262264	  -8.28108	-0.00261129	  -8.28047	-0.00260366	  -8.28855	-0.00261253	  -8.28855	  -65.3133	
  -8.24906	-0.00261944	  -8.22627	-0.00260823	  -8.22554	-0.00260076	  -8.23362	-0.00260948	  -8.23362	  -65.2369	
  -8.19372	-0.00261622	  -8.17129	-0.00260516	  -8.17052	-0.00259786	  -8.17851	-0.00260641	  -8.17851	  -65.1603	
  -8.13788	-0.00261297	  -8.11598	-0.00260207	  -8.11503	-0.0025949	  -8.12296	-0.00260331	  -8.12296	  -65.0828	
   -8.0817	-0.00260963	   -8.0602	-0.0025989	  -8.05923	-0.00259182	  -8.06704	-0.00260012	  -8.06704	   -65.003	
   -8.0254	-0.0026062	  -8.00381	-0.00259567	  -8.00326	-0.00258864	  -8.01083	-0.00259684	  -8.01083	  -64.9209	
  -7.96869	-0.00260273	  -7.94734	-0.00259239	  -7.94692	-0.00258546	  -7.95432	-0.00259353	  -7.95432	  -64.8381	
  -7.91164	-0.00259923	  -7.89072	-0.0025891	  -7.89027	-0.00258226	  -7.89754	-0.0025902	  -7.89754	  -64.7549	
  -7.85448	-0.00259567	  -7.83402	-0.00258575	  -7.83335	-0.00257897	  -7.84062	-0.0025868	  -7.84062	  -64.6699	
  -7.79683	-0.00259201	  -7.77685	-0.00258233	  -7.77599	-0.00257557	  -7.78322	-0.00258331	  -7.78322	  -64.5826	
  -7.73885	-0.0025883	  -7.71929	-0.00257884	  -7.71833	-0.00257212	  -7.72549	-0.00257975	  -7.72549	  -64.4938	
  -7.68078	-0.00258458	  -7.66131	-0.00257531	  -7.66052	-0.00256862	  -7.66754	-0.00257617	  -7.66754	  -64.4043	
  -7.62226	-0.00258082	  -7.60292	-0.00257178	  -7.60222	-0.00256502	  -7.60913	-0.00257254	  -7.60913	  -64.3135	
  -7.56343	-0.00257695	   -7.5442	-0.00256817	  -7.54364	-0.00256132	  -7.55043	-0.00256882	  -7.55043	  -64.2204	
  -7.50445	-0.00257299	   -7.4853	-0.00256443	  -7.48486	-0.00255762	  -7.49154	-0.00256501	  -7.49154	  -64.1253	
  -7.44504	 -0.002569	  -7.42616	-0.00256062	  -7.42561	-0.00255391	  -7.43227	-0.00256117	  -7.43227	  -64.0294	
  -7.38536	 -0.002565	  -7.36679	-0.00255682	  -7.36613	-0.0025501	  -7.37276	-0.00255731	  -7.37276	  -63.9326	
  -7.32557	-0.00256094	  -7.30705	-0.00255304	  -7.30656	-0.00254613	  -7.31306	-0.00255337	  -7.31306	  -63.8342	
   -7.2653	-0.00255675	  -7.24697	-0.00254917	  -7.24655	-0.0025421	  -7.25294	-0.00254934	  -7.25294	  -63.7335	
  -7.20481	-0.00255249	  -7.18661	-0.00254516	  -7.18634	-0.00253811	  -7.19259	-0.00254526	  -7.19259	  -63.6314	
  -7.14409	-0.00254829	  -7.12601	-0.00254109	  -7.12593	-0.0025341	  -7.13201	-0.00254116	  -7.13201	   -63.529	
  -7.08303	-0.00254406	  -7.06503	-0.00253703	  -7.06519	-0.00252995	  -7.07108	-0.00253702	  -7.07108	  -63.4254	
  -7.02178	-0.0025397	  -7.00376	-0.00253296	  -7.00428	-0.00252566	  -7.00994	-0.00253277	  -7.00994	  -63.3194	
  -6.96025	-0.00253518	   -6.9421	-0.00252879	  -6.94303	-0.00252135	  -6.94846	-0.00252844	  -6.94846	   -63.211	
  -6.89842	-0.00253065	   -6.8802	-0.00252447	  -6.88141	-0.00251707	  -6.88668	-0.00252407	  -6.88668	  -63.1016	
  -6.83636	-0.00252615	  -6.81806	-0.0025201	  -6.81968	-0.00251274	   -6.8247	-0.00251967	   -6.8247	  -62.9916	
  -6.77382	-0.00252156	   -6.7555	-0.00251579	  -6.75748	-0.00250826	  -6.76227	-0.0025152	  -6.76227	  -62.8801	
  -6.71098	-0.0025168	   -6.6927	-0.00251147	  -6.69499	-0.00250367	  -6.69955	-0.00251064	  -6.69955	  -62.7661	
  -6.64807	-0.00251195	  -6.62959	-0.00250697	  -6.63215	-0.00249907	   -6.6366	 -0.002506	   -6.6366	  -62.6499	
  -6.58476	-0.00250712	  -6.56623	-0.00250232	  -6.56886	-0.00249446	  -6.57328	-0.0025013	  -6.57328	  -62.5325	
  -6.52121	-0.00250227	  -6.50262	-0.00249765	  -6.50536	-0.00248979	  -6.50973	-0.00249657	  -6.50973	  -62.4142	
   -6.4575	-0.00249728	  -6.43866	-0.00249302	  -6.44165	-0.00248502	  -6.44593	-0.00249177	  -6.44593	  -62.2943	
  -6.39343	-0.00249215	  -6.37436	-0.00248832	  -6.37762	-0.00248018	  -6.38181	-0.00248688	  -6.38181	  -62.1721	
   -6.3292	 -0.002487	  -6.30997	-0.00248343	  -6.31346	-0.0024753	  -6.31755	-0.00248191	  -6.31755	  -62.0478	
  -6.26467	-0.00248187	  -6.24529	-0.00247844	  -6.24904	-0.00247036	    -6.253	-0.00247689	    -6.253	  -61.9223	
  -6.19981	-0.00247665	  -6.18033	-0.00247347	   -6.1843	-0.00246533	  -6.18815	-0.00247182	  -6.18815	  -61.7955	
  -6.13478	-0.00247132	  -6.11522	-0.00246848	  -6.11943	-0.00246025	  -6.12314	-0.00246668	  -6.12314	   -61.667	
   -6.0695	-0.00246588	  -6.04967	-0.00246336	  -6.05425	-0.00245513	  -6.05781	-0.00246146	  -6.05781	  -61.5364	
  -6.00396	-0.0024604	  -5.98395	-0.00245809	  -5.98883	-0.00244995	  -5.99225	-0.00245615	  -5.99225	  -61.4036	
  -5.93817	-0.00245487	  -5.91813	-0.00245275	  -5.92327	-0.00244469	  -5.92652	-0.00245077	  -5.92652	  -61.2693	
  -5.87213	-0.00244927	  -5.85196	-0.0024474	  -5.85739	-0.00243936	   -5.8605	-0.00244534	   -5.8605	  -61.1336	
  -5.80593	-0.00244359	   -5.7857	-0.00244201	  -5.79137	-0.00243397	  -5.79433	-0.00243985	  -5.79433	  -60.9964	
  -5.73947	-0.00243785	   -5.7191	-0.00243648	  -5.72511	-0.00242852	  -5.72789	-0.00243428	  -5.72789	  -60.8571	
  -5.67269	-0.00243205	  -5.65232	-0.00243083	  -5.65855	-0.00242301	  -5.66119	-0.00242863	  -5.66119	  -60.7157	
  -5.60568	-0.00242617	  -5.58537	-0.00242513	  -5.59192	-0.00241743	  -5.59432	-0.00242291	  -5.59432	  -60.5728	
  -5.53842	-0.0024202	  -5.51829	-0.00241942	  -5.52497	-0.00241179	  -5.52723	-0.00241714	  -5.52723	  -60.4284	
  -5.47095	-0.00241415	  -5.45105	-0.00241362	  -5.45781	-0.00240609	  -5.45993	-0.00241129	  -5.45993	  -60.2822	
  -5.40343	-0.00240803	  -5.38359	-0.0024077	  -5.39039	-0.00240033	  -5.39247	-0.00240536	  -5.39247	  -60.1339	
  -5.33561	-0.00240187	   -5.3158	-0.00240166	  -5.32261	-0.00239451	  -5.32468	-0.00239935	  -5.32468	  -59.9837	
  -5.26767	-0.00239563	  -5.24795	-0.00239558	  -5.25473	-0.00238862	  -5.25679	-0.00239328	  -5.25679	   -59.832	
  -5.19952	-0.0023893	  -5.17979	-0.00238947	  -5.18675	-0.00238266	  -5.18869	-0.00238714	  -5.18869	  -59.6785	
   -5.1311	-0.00238288	  -5.11141	-0.00238329	   -5.1185	-0.00237659	  -5.12033	-0.00238092	  -5.12033	   -59.523	
  -5.06257	-0.00237641	  -5.04281	-0.00237699	  -5.05015	-0.00237047	  -5.05184	-0.00237462	  -5.05184	  -59.3655	
  -4.99368	-0.00236989	  -4.97393	-0.00237055	   -4.9816	-0.00236432	  -4.98307	-0.00236825	  -4.98307	  -59.2062	
  -4.92463	-0.00236327	  -4.90494	-0.00236405	  -4.91289	-0.00235809	  -4.91416	-0.0023618	  -4.91416	  -59.0451	
  -4.85531	-0.00235652	  -4.83574	-0.00235754	   -4.8439	-0.00235176	  -4.84498	-0.00235527	  -4.84498	  -58.8818	
  -4.78577	-0.0023497	  -4.76629	-0.00235095	  -4.77468	-0.00234533	  -4.77558	-0.00234866	  -4.77558	  -58.7165	
  -4.71612	-0.00234283	  -4.69678	-0.00234422	  -4.70535	-0.00233882	  -4.70608	-0.00234196	  -4.70608	  -58.5489	
  -4.64619	-0.0023359	  -4.62687	-0.00233737	  -4.63581	-0.00233226	  -4.63629	-0.00233518	  -4.63629	  -58.3795	
  -4.57607	-0.00232885	  -4.55684	-0.0023305	  -4.56607	-0.00232563	  -4.56633	-0.00232833	  -4.56633	  -58.2082	
  -4.50582	-0.00232167	  -4.48664	-0.00232361	  -4.49617	-0.0023189	  -4.49621	-0.00232139	  -4.49621	  -58.0348	
  -4.43532	-0.00231442	  -4.41626	-0.00231659	  -4.42611	-0.00231206	   -4.4259	-0.00231436	   -4.4259	  -57.8589	
  -4.36469	-0.00230714	  -4.34586	-0.00230942	  -4.35581	-0.00230514	  -4.35546	-0.00230723	  -4.35546	  -57.6808	
  -4.29377	-0.00229976	  -4.27513	-0.00230218	  -4.28545	-0.00229815	  -4.28478	-0.00230003	  -4.28478	  -57.5008	
  -4.22266	-0.00229225	  -4.20426	-0.0022949	  -4.21494	-0.00229112	  -4.21395	-0.00229276	  -4.21395	  -57.3189	
   -4.1513	-0.00228463	  -4.13332	-0.00228756	  -4.14405	-0.00228399	  -4.14289	-0.00228539	  -4.14289	  -57.1348	
  -4.07984	-0.00227695	  -4.06217	-0.00228005	  -4.07303	-0.00227674	  -4.07168	-0.00227791	  -4.07168	  -56.9478	
  -4.00832	-0.00226921	   -3.9909	-0.00227241	  -4.00184	-0.0022694	  -4.00036	-0.00227034	  -4.00036	  -56.7585	
  -3.93678	-0.00226138	  -3.91957	-0.00226476	  -3.93053	-0.00226199	  -3.92896	-0.00226271	  -3.92896	  -56.5678	
  -3.86503	-0.00225341	  -3.84806	-0.00225709	  -3.85908	-0.00225451	  -3.85739	-0.00225501	  -3.85739	  -56.3751	
  -3.79326	-0.00224531	  -3.77657	-0.0022493	  -3.78744	-0.00224692	  -3.78576	-0.00224718	  -3.78576	  -56.1794	
  -3.72131	-0.00223713	  -3.70475	-0.00224131	  -3.71553	-0.0022392	  -3.71386	-0.00223921	  -3.71386	  -55.9804	
  -3.64926	-0.00222889	  -3.63289	-0.00223321	  -3.64353	-0.0022314	  -3.64189	-0.00223117	  -3.64189	  -55.7792	
  -3.57707	-0.00222057	  -3.56082	-0.0022251	  -3.57145	-0.00222354	  -3.56978	-0.00222307	  -3.56978	  -55.5766	
  -3.50465	-0.00221214	  -3.48857	-0.00221694	  -3.49928	-0.00221558	   -3.4975	-0.00221489	   -3.4975	  -55.3722	
  -3.43227	-0.00220362	  -3.41631	-0.00220868	  -3.42698	-0.00220749	  -3.42519	-0.0022066	  -3.42519	  -55.1649	
  -3.35969	-0.00219503	  -3.34381	-0.00220025	  -3.35446	-0.00219928	  -3.35265	-0.00219819	  -3.35265	  -54.9547	
  -3.28692	-0.00218635	  -3.27126	-0.00219171	  -3.28185	-0.00219098	  -3.28001	-0.00218968	  -3.28001	   -54.742	
  -3.21401	-0.00217754	   -3.1985	-0.00218312	  -3.20907	-0.0021826	  -3.20719	-0.00218108	  -3.20719	  -54.5271	
  -3.14103	-0.0021686	  -3.12557	-0.00217445	  -3.13613	-0.00217411	  -3.13424	-0.00217239	  -3.13424	  -54.3097	
  -3.06809	-0.00215959	  -3.05272	-0.00216567	  -3.06324	-0.0021655	  -3.06135	-0.00216358	  -3.06135	  -54.0896	
  -2.99508	-0.00215052	  -2.97962	-0.00215678	  -2.99005	-0.00215675	  -2.98825	-0.00215468	  -2.98825	   -53.867	
  -2.92197	-0.00214134	  -2.90647	-0.0021478	  -2.91677	-0.00214791	  -2.91507	-0.00214568	  -2.91507	  -53.6421	
  -2.84879	-0.00213202	  -2.83316	-0.00213871	  -2.84344	-0.00213902	   -2.8418	-0.00213658	   -2.8418	  -53.4145	
  -2.77538	-0.00212258	  -2.75975	-0.00212948	  -2.76989	-0.00213005	  -2.76834	-0.00212737	  -2.76834	  -53.1843	
  -2.70186	-0.00211308	  -2.68635	-0.00212014	  -2.69624	-0.00212095	  -2.69482	-0.00211806	  -2.69482	  -52.9514	
  -2.62798	-0.0021035	  -2.61279	-0.00211076	  -2.62266	-0.00211168	  -2.62114	-0.00210865	  -2.62114	  -52.7162	
  -2.55404	-0.0020938	  -2.53919	-0.00210135	  -2.54898	-0.00210228	   -2.5474	-0.00209914	   -2.5474	  -52.4786	
  -2.48012	-0.00208394	  -2.46546	-0.00209182	  -2.47514	-0.00209282	  -2.47357	-0.00208952	  -2.47357	  -52.2381	
  -2.40606	-0.00207397	  -2.39155	-0.00208208	  -2.40116	-0.00208327	  -2.39959	-0.00207977	  -2.39959	  -51.9944	
  -2.33206	-0.00206396	  -2.31756	-0.0020722	  -2.32698	-0.00207361	  -2.32553	-0.00206992	  -2.32553	   -51.748	
  -2.25801	-0.00205387	  -2.24342	-0.0020623	  -2.25255	-0.00206382	  -2.25132	  -0.00206	  -2.25132	     -51.5	
  -2.18387	-0.00204364	  -2.16915	-0.0020524	  -2.17806	-0.00205394	  -2.17703	-0.00204999	  -2.17703	  -51.2498	
  -2.10969	-0.00203324	  -2.09497	-0.00204236	  -2.10356	-0.00204395	  -2.10274	-0.00203985	  -2.10274	  -50.9963	
  -2.03537	-0.00202278	  -2.02062	-0.00203211	  -2.02896	-0.00203385	  -2.02832	-0.00202958	  -2.02832	  -50.7394	
  -1.96089	-0.00201226	  -1.94608	-0.00202172	  -1.95429	-0.00202363	  -1.95375	-0.0020192	  -1.95375	  -50.4801	
  -1.88616	-0.00200167	  -1.87125	-0.00201151	  -1.87931	-0.00201336	  -1.87891	-0.00200885	  -1.87891	  -50.2212	
  -1.81138	-0.00199092	  -1.79643	-0.00200124	  -1.80431	-0.00200297	  -1.80404	-0.00199838	  -1.80404	  -49.9594	
