# User: ACHyster
# File name: C:/ACHYSTER/ACHyster SENS/SHAMS/CoFe2O4-1gl-water-Zero Glycerol- Sens-07-03-2023/CoFe2O4-1gl-water-zero Glycerol- 10_100F- 24kAm -Sens-07-03-20230007#1.txt
# Saved at: ma. mar. 7 14:53:16 2023
# Hyster Loop (3 iterations). Intensity: 24.0 kA/m; Tuned frequency: 101.8 kHz
# Units x axis: (kA/m)
# Units y axis: "Repeats y" & "Average y" (10^(-3)Am^2); "Mass avg y" (Am^2/kg)
# Magnetic mass: 4e-05 g
# Parameter      	Repeat   1	Repeat   2	Repeat   3	Average   	Sigma     
# H_C (kA/m)     	      19.2	      20.2	      20.3	      19.9	       0.5
# M_R (Am^2/kg)  	      58.0	      60.7	      59.2	      59.3	       1.1
# M_max (Am^2/kg)	      47.9	      41.4	      39.9	      43.0	       3.5
# Area (mJ/kg)   	    5347.8	    5614.6	    5500.2	    5487.5	     109.3
# SAR (W/g)      	     544.4	     571.6	     559.9	     558.6	      11.1
#Repeat 1 x	Repeat 1 y	Repeat 2 x	Repeat 2 y	Repeat 3 x	Repeat 3 y	Average x 	Average y 	Mass avg x 	Mass avg y 
  -3.83629	-0.00248291	  -3.72902	-0.00255971	  -3.69713	-0.00249494	  -3.75415	-0.00251252	  -3.75415	   -62.813	
  -3.68553	-0.00247754	  -3.58099	-0.00255548	  -3.54958	-0.00249093	  -3.60536	-0.00250798	  -3.60536	  -62.6995	
  -3.53508	-0.00247209	  -3.43268	-0.0025512	  -3.40117	-0.00248673	  -3.45631	-0.00250334	  -3.45631	  -62.5835	
  -3.38466	-0.00246654	  -3.28361	-0.00254686	  -3.25362	-0.00248232	   -3.3073	-0.00249857	   -3.3073	  -62.4643	
  -3.23474	-0.00246082	  -3.13382	-0.00254244	  -3.10539	-0.00247771	  -3.15798	-0.00249366	  -3.15798	  -62.3414	
  -3.08476	-0.00245492	  -2.98429	-0.00253792	  -2.95747	-0.00247293	  -3.00884	-0.00248859	  -3.00884	  -62.2147	
  -2.93471	-0.00244884	  -2.83499	-0.0025333	  -2.80981	-0.00246799	  -2.85984	-0.00248338	  -2.85984	  -62.0844	
  -2.78506	-0.00244258	  -2.68635	-0.00252856	  -2.66139	-0.00246295	  -2.71093	-0.00247803	  -2.71093	  -61.9508	
   -2.6343	-0.00243614	  -2.53781	-0.00252371	  -2.51272	-0.00245788	  -2.56161	-0.00247258	  -2.56161	  -61.8144	
  -2.48347	-0.00242959	  -2.38934	-0.00251873	  -2.36429	-0.00245281	  -2.41237	-0.00246704	  -2.41237	  -61.6761	
  -2.33303	-0.00242291	  -2.24091	-0.00251365	  -2.21652	-0.00244778	  -2.26348	-0.00246145	  -2.26348	  -61.5362	
  -2.18269	-0.00241616	  -2.09273	-0.00250845	  -2.06837	-0.0024428	   -2.1146	-0.0024558	   -2.1146	  -61.3951	
  -2.03218	-0.00240941	   -1.9445	-0.00250318	  -1.91985	-0.00243787	  -1.96551	-0.00245015	  -1.96551	  -61.2538	
  -1.88197	-0.00240269	  -1.79525	-0.00249789	   -1.7712	-0.00243297	  -1.81614	-0.00244452	  -1.81614	  -61.1129	
  -1.73154	-0.00239601	  -1.64599	-0.00249256	  -1.62216	-0.00242805	  -1.66657	-0.00243887	  -1.66657	  -60.9718	
  -1.58088	-0.00238939	  -1.49598	-0.00248716	  -1.47178	-0.00242305	  -1.51621	-0.0024332	  -1.51621	    -60.83	
  -1.43048	-0.00238282	  -1.34597	-0.00248173	  -1.32158	-0.00241791	  -1.36601	-0.00242749	  -1.36601	  -60.6872	
  -1.27932	-0.00237626	  -1.19619	-0.00247625	  -1.17104	-0.0024126	  -1.21552	-0.0024217	  -1.21552	  -60.5425	
  -1.12794	-0.00236967	  -1.04634	-0.00247072	  -1.02065	-0.00240706	  -1.06498	-0.00241582	  -1.06498	  -60.3954	
 -0.975839	 -0.002363	 -0.896422	-0.00246509	 -0.870381	-0.00240127	 -0.914214	-0.00240979	 -0.914214	  -60.2447	
 -0.823072	-0.00235618	 -0.746648	-0.00245929	 -0.720442	-0.00239524	 -0.763387	-0.00240357	 -0.763387	  -60.0893	
 -0.670634	-0.00234916	 -0.595784	-0.00245328	 -0.571023	-0.00238899	  -0.61248	-0.00239714	  -0.61248	  -59.9286	
 -0.517766	-0.00234192	 -0.445336	-0.00244702	  -0.42134	-0.00238255	  -0.46148	-0.0023905	  -0.46148	  -59.7625	
 -0.365208	-0.00233442	 -0.294771	-0.00244054	 -0.271628	 -0.002376	 -0.310536	-0.00238365	 -0.310536	  -59.5913	
 -0.213163	-0.00232666	 -0.144077	-0.00243375	  -0.12259	-0.00236938	 -0.159943	-0.00237659	 -0.159943	  -59.4149	
-0.0608537	-0.00231866	0.00579469	-0.00242666	 0.0260961	-0.00236274	-0.00965428	-0.00236936	-0.00965428	  -59.2339	
 0.0907572	-0.00231046	   0.15565	-0.00241938	  0.175445	-0.00235614	  0.140617	-0.00236199	  0.140617	  -59.0498	
  0.242703	-0.00230211	  0.305274	-0.00241195	  0.324467	-0.00234957	  0.290814	-0.00235454	  0.290814	  -58.8636	
  0.394492	-0.00229366	  0.455427	-0.00240446	  0.473932	-0.00234305	  0.441284	-0.00234706	  0.441284	  -58.6764	
  0.545674	-0.00228518	  0.605611	-0.00239699	  0.624072	-0.00233655	  0.591786	-0.00233957	  0.591786	  -58.4893	
  0.696794	-0.0022767	  0.756086	-0.00238958	  0.774377	-0.00233003	  0.742419	-0.0023321	  0.742419	  -58.3026	
  0.847153	-0.00226826	   0.90709	-0.00238228	  0.924374	-0.00232344	  0.892872	-0.00232466	  0.892872	  -58.1165	
  0.998034	-0.00225986	   1.05788	-0.00237513	   1.07411	-0.00231674	   1.04334	-0.00231724	   1.04334	  -57.9311	
    1.1487	-0.0022515	   1.20897	-0.00236811	    1.2241	-0.00230986	   1.19392	-0.00230982	   1.19392	  -57.7455	
   1.29893	-0.00224312	   1.35988	-0.00236114	   1.37388	-0.00230278	   1.34423	-0.00230235	   1.34423	  -57.5587	
   1.44952	-0.0022347	   1.51089	-0.00235414	   1.52444	-0.00229547	   1.49495	-0.00229477	   1.49495	  -57.3693	
   1.60022	-0.00222618	   1.66127	-0.00234705	   1.67431	-0.00228794	   1.64527	-0.00228706	   1.64527	  -57.1764	
   1.75104	-0.00221749	   1.81231	-0.00233977	   1.82475	-0.00228021	   1.79603	-0.00227916	   1.79603	  -56.9789	
   1.90198	-0.00220862	   1.96277	-0.0023322	   1.97551	-0.00227231	   1.94675	-0.00227104	   1.94675	  -56.7761	
   2.05282	-0.00219952	   2.11368	-0.00232429	   2.12585	-0.00226429	   2.09745	-0.0022627	   2.09745	  -56.5675	
   2.20383	-0.00219017	   2.26454	-0.00231602	   2.27608	-0.0022562	   2.24815	-0.00225413	   2.24815	  -56.3532	
   2.35452	-0.00218059	   2.41538	-0.00230738	   2.42623	-0.00224807	   2.39871	-0.00224535	   2.39871	  -56.1336	
   2.50448	-0.00217081	   2.56525	-0.00229843	   2.57607	-0.00223993	    2.5486	-0.00223639	    2.5486	  -55.9097	
   2.65474	-0.00216088	   2.71523	-0.00228924	   2.72591	-0.0022318	   2.69862	-0.00222731	   2.69862	  -55.6826	
   2.80408	-0.00215085	   2.86483	-0.00227989	     2.876	-0.00222366	    2.8483	-0.00221813	    2.8483	  -55.4533	
   2.95286	-0.00214077	   3.01363	-0.00227047	   3.02562	-0.00221551	   2.99737	-0.00220891	   2.99737	  -55.2229	
   3.10138	-0.00213064	   3.16269	-0.00226107	   3.17459	-0.00220731	   3.14622	-0.00219968	   3.14622	  -54.9919	
   3.24992	-0.00212051	   3.31152	-0.00225178	   3.32324	-0.00219902	   3.29489	-0.00219044	   3.29489	  -54.7609	
   3.39804	-0.00211038	   3.46041	-0.00224261	   3.47184	-0.0021906	   3.44343	-0.00218119	   3.44343	  -54.5298	
   3.54579	-0.00210022	   3.60914	-0.00223356	   3.62068	 -0.002182	   3.59187	-0.00217193	   3.59187	  -54.2982	
   3.69371	-0.00209001	   3.75775	-0.0022246	   3.76856	-0.00217321	   3.74001	-0.00216261	   3.74001	  -54.0652	
   3.84134	-0.00207972	    3.9058	-0.00221568	   3.91654	-0.00216421	   3.88789	-0.0021532	   3.88789	  -53.8301	
   3.98872	-0.0020693	   4.05335	-0.00220673	   4.06441	-0.00215499	   4.03549	-0.00214367	   4.03549	  -53.5918	
   4.13712	-0.00205872	   4.20024	-0.00219764	   4.21292	-0.00214556	   4.18342	-0.00213397	   4.18342	  -53.3493	
   4.28527	-0.00204796	   4.34678	-0.00218832	   4.36036	-0.00213597	    4.3308	-0.00212408	    4.3308	  -53.1021	
   4.43346	-0.00203698	   4.49256	-0.00217872	    4.5083	-0.00212623	   4.47811	-0.00211398	   4.47811	  -52.8495	
   4.58196	-0.0020258	   4.63816	-0.00216881	   4.65624	-0.0021164	   4.62545	-0.00210367	   4.62545	  -52.5917	
   4.72957	-0.00201444	   4.78362	-0.00215855	   4.80445	-0.00210649	   4.77255	-0.00209316	   4.77255	  -52.3291	
   4.87711	-0.00200294	   4.92947	-0.00214798	   4.95222	-0.00209655	    4.9196	-0.00208249	    4.9196	  -52.0623	
   5.02366	-0.00199132	     5.075	-0.00213717	   5.09936	-0.00208658	     5.066	-0.00207169	     5.066	  -51.7922	
   5.17028	-0.00197962	    5.2205	-0.00212619	   5.24572	-0.00207658	   5.21217	-0.0020608	   5.21217	    -51.52	
   5.31724	-0.0019679	   5.36553	-0.0021151	    5.3914	-0.00206655	   5.35806	-0.00204985	   5.35806	  -51.2463	
   5.46335	-0.00195618	   5.51114	 -0.002104	   5.53672	-0.00205646	   5.50374	-0.00203888	   5.50374	   -50.972	
   5.60967	-0.00194444	   5.65635	-0.00209295	   5.68199	-0.00204629	   5.64934	-0.00202789	   5.64934	  -50.6973	
   5.75501	-0.0019327	   5.80049	-0.00208198	   5.82749	-0.00203599	   5.79433	-0.00201689	   5.79433	  -50.4222	
   5.89925	-0.0019209	   5.94491	-0.00207107	   5.97251	-0.00202554	   5.93889	-0.00200584	   5.93889	  -50.1459	
   6.04395	 -0.001909	   6.09034	-0.00206022	   6.11762	-0.00201491	   6.08397	-0.00199471	   6.08397	  -49.8678	
   6.18816	-0.00189698	   6.23457	-0.00204937	   6.26188	-0.00200408	    6.2282	-0.00198347	    6.2282	  -49.5868	
   6.33196	-0.00188476	   6.37822	-0.00203843	   6.40611	-0.00199305	   6.37209	-0.00197208	   6.37209	   -49.302	
   6.47493	-0.00187232	   6.52185	-0.00202735	    6.5506	-0.00198183	   6.51579	-0.0019605	   6.51579	  -49.0124	
   6.61671	-0.00185963	   6.66551	-0.00201604	    6.6949	-0.00197043	   6.65904	-0.0019487	   6.65904	  -48.7176	
   6.75887	-0.0018467	   6.80924	-0.00200447	   6.83953	-0.0019589	   6.80255	-0.00193669	   6.80255	  -48.4172	
    6.9012	-0.00183353	   6.95212	-0.0019926	   6.98306	-0.00194725	   6.94546	-0.00192446	   6.94546	  -48.1115	
   7.04348	-0.00182015	   7.09521	-0.00198045	    7.1266	-0.00193551	   7.08843	-0.00191204	   7.08843	  -47.8009	
   7.18576	-0.00180662	   7.23806	-0.00196803	    7.2704	-0.00192372	   7.23141	-0.00189946	   7.23141	  -47.4864	
   7.32762	-0.00179296	   7.38026	-0.00195541	   7.41331	-0.00191189	   7.37373	-0.00188675	   7.37373	  -47.1688	
   7.46961	-0.00177924	    7.5219	-0.00194265	   7.55542	-0.00190002	   7.51564	-0.00187397	   7.51564	  -46.8492	
   7.61249	-0.00176548	   7.66355	-0.00192981	   7.69733	-0.00188812	   7.65779	-0.00186114	   7.65779	  -46.5284	
   7.75454	-0.00175172	   7.80526	-0.00191695	   7.83814	-0.00187616	   7.79931	-0.00184828	   7.79931	  -46.2069	
   7.89734	-0.00173795	   7.94683	-0.00190412	    7.9787	-0.00186411	   7.94096	-0.00183539	   7.94096	  -45.8848	
   8.03989	-0.00172415	   8.08808	-0.00189133	   8.11886	-0.00185195	   8.08227	-0.00182247	   8.08227	  -45.5618	
   8.18154	-0.0017103	   8.22908	-0.00187856	   8.25868	-0.00183964	    8.2231	-0.0018095	    8.2231	  -45.2375	
   8.32313	-0.00169637	   8.36944	-0.0018658	   8.39922	-0.00182716	   8.36393	-0.00179644	   8.36393	  -44.9111	
   8.46447	-0.0016823	   8.50947	-0.00185301	   8.53927	-0.0018145	    8.5044	-0.00178327	    8.5044	  -44.5817	
    8.6054	-0.00166807	   8.64904	-0.00184012	   8.67963	-0.00180165	   8.64469	-0.00176994	   8.64469	  -44.2486	
   8.74599	-0.00165363	   8.78821	-0.00182708	   8.81937	-0.0017886	   8.78452	-0.00175644	   8.78452	  -43.9109	
   8.88656	-0.00163898	   8.92661	-0.00181383	   8.95884	-0.00177539	     8.924	-0.00174273	     8.924	  -43.5683	
   9.02741	-0.00162411	   9.06483	-0.00180033	   9.09883	-0.00176202	   9.06369	-0.00172882	   9.06369	  -43.2205	
   9.16735	-0.00160905	   9.20221	-0.00178655	    9.2384	-0.00174852	   9.20266	-0.00171471	   9.20266	  -42.8677	
   9.30724	-0.00159385	   9.33914	-0.00177251	   9.37762	-0.00173494	   9.34134	-0.00170043	   9.34134	  -42.5108	
    9.4469	-0.00157854	   9.47594	-0.00175823	   9.51635	-0.00172127	   9.47973	-0.00168601	   9.47973	  -42.1503	
   9.58567	-0.00156311	   9.61244	-0.00174375	   9.65492	-0.00170756	   9.61768	-0.00167147	   9.61768	  -41.7869	
   9.72415	-0.00154761	   9.74802	-0.00172914	   9.79292	-0.00169379	   9.75503	-0.00165685	   9.75503	  -41.4212	
   9.86292	-0.00153205	   9.88305	-0.00171444	   9.93044	-0.00167998	   9.89214	-0.00164215	   9.89214	  -41.0539	
    10.002	-0.00151641	   10.0186	-0.00169971	   10.0674	-0.0016661	   10.0293	-0.0016274	   10.0293	  -40.6851	
   10.1405	-0.00150069	   10.1542	-0.00168498	    10.204	-0.00165213	   10.1662	-0.0016126	   10.1662	  -40.3149	
   10.2785	-0.00148486	   10.2902	-0.00167027	     10.34	-0.00163804	   10.3029	-0.00159773	   10.3029	  -39.9432	
   10.4162	-0.00146893	   10.4254	-0.00165559	   10.4764	-0.00162382	   10.4394	-0.00158278	   10.4394	  -39.5695	
   10.5537	-0.00145285	   10.5604	-0.00164091	   10.6123	-0.00160943	   10.5755	-0.00156773	   10.5755	  -39.1933	
   10.6909	-0.00143663	   10.6954	-0.0016262	   10.7478	-0.00159486	   10.7114	-0.00155256	   10.7114	  -38.8141	
   10.8279	-0.00142024	   10.8293	-0.00161141	    10.883	-0.00158013	   10.8468	-0.00153726	   10.8468	  -38.4314	
   10.9639	-0.00140366	   10.9631	-0.00159649	    11.017	-0.00156513	   10.9814	-0.00152176	   10.9814	   -38.044	
   11.0995	-0.00138688	   11.0961	-0.0015814	    11.151	-0.00154993	   11.1155	-0.00150607	   11.1155	  -37.6518	
   11.2347	-0.00136996	   11.2283	-0.00156608	   11.2852	-0.00153462	   11.2494	-0.00149022	   11.2494	  -37.2555	
   11.3697	-0.00135293	     11.36	-0.00155051	   11.4195	-0.00151921	   11.3831	-0.00147422	   11.3831	  -36.8554	
    11.505	-0.0013358	   11.4923	-0.00153469	   11.5554	-0.00150369	   11.5176	-0.00145806	   11.5176	  -36.4515	
   11.6403	-0.0013186	   11.6248	-0.00151863	   11.6919	-0.00148815	   11.6523	-0.00144179	   11.6523	  -36.0449	
    11.775	-0.00130137	    11.757	-0.00150233	   11.8282	-0.00147268	   11.7867	-0.00142546	   11.7867	  -35.6365	
   11.9095	-0.00128413	   11.8885	-0.00148585	   11.9639	-0.00145727	   11.9206	-0.00140908	   11.9206	   -35.227	
   12.0438	-0.00126688	   12.0195	-0.00146927	   12.0975	-0.00144193	   12.0536	-0.00139269	   12.0536	  -34.8173	
   12.1778	-0.0012496	   12.1499	-0.00145263	   12.2322	-0.00142668	   12.1866	-0.0013763	   12.1866	  -34.4076	
   12.3107	-0.00123225	   12.2795	-0.00143596	   12.3683	-0.00141145	   12.3195	-0.00135989	   12.3195	  -33.9972	
   12.4434	-0.0012148	   12.4085	-0.00141933	   12.5015	-0.0013962	   12.4511	-0.00134344	   12.4511	  -33.5861	
   12.5757	-0.00119721	   12.5365	-0.00140275	   12.6311	-0.00138088	   12.5811	-0.00132695	   12.5811	  -33.1736	
   12.7056	-0.00117945	    12.664	-0.0013862	   12.7612	-0.00136539	   12.7103	-0.00131035	   12.7103	  -32.7587	
   12.8345	-0.00116148	   12.7909	-0.00136969	   12.8924	-0.00134964	   12.8393	-0.0012936	   12.8393	  -32.3401	
   12.9627	-0.00114327	   12.9165	-0.00135317	   13.0209	-0.00133358	   12.9667	-0.00127667	   12.9667	  -31.9169	
   13.0897	-0.00112483	   13.0418	-0.00133659	   13.1452	-0.0013172	   13.0922	-0.00125954	   13.0922	  -31.4885	
   13.2175	-0.00110618	   13.1666	-0.0013199	   13.2686	-0.00130047	   13.2176	-0.00124218	   13.2176	  -31.0546	
   13.3435	-0.00108734	   13.2914	-0.00130305	   13.3925	-0.00128343	   13.3425	-0.00122461	   13.3425	  -30.6151	
   13.4687	-0.00106835	   13.4158	 -0.001286	   13.5161	-0.00126615	   13.4669	-0.00120683	   13.4669	  -30.1708	
    13.593	-0.00104925	   13.5394	-0.00126871	   13.6372	-0.0012487	   13.5898	-0.00118889	   13.5898	  -29.7222	
    13.717	-0.00103011	   13.6623	-0.00125118	   13.7584	-0.00123118	   13.7125	-0.00117082	   13.7125	  -29.2706	
   13.8407	-0.00101096	   13.7853	-0.00123342	   13.8815	-0.0012137	   13.8358	-0.00115269	   13.8358	  -28.8173	
   13.9629	-0.000991829	   13.9069	-0.00121546	   14.0054	-0.0011963	   13.9584	-0.00113453	   13.9584	  -28.3632	
   14.0843	-0.000972724	   14.0286	-0.00119732	   14.1273	-0.00117903	   14.0801	-0.00111636	   14.0801	  -27.9089	
    14.205	-0.000953638	   14.1494	-0.00117908	   14.2488	-0.0011619	   14.2011	-0.00109821	   14.2011	  -27.4552	
   14.3243	-0.000934556	   14.2702	-0.00116079	   14.3708	-0.00114491	   14.3218	-0.00108008	   14.3218	  -27.0021	
   14.4433	-0.000915446	   14.3904	-0.00114248	    14.493	-0.00112799	   14.4422	-0.00106197	   14.4422	  -26.5493	
   14.5617	-0.000896266	   14.5092	-0.00112422	    14.614	-0.00111106	   14.5617	-0.00104385	   14.5617	  -26.0962	
   14.6792	-0.000876976	   14.6273	 -0.001106	   14.7345	-0.00109406	   14.6803	-0.00102568	   14.6803	  -25.6419	
   14.7965	-0.000857537	   14.7452	-0.00108783	   14.8551	-0.00107688	   14.7989	-0.00100742	   14.7989	  -25.1854	
   14.9136	-0.000837928	   14.8624	-0.00106969	   14.9744	-0.00105944	   14.9168	-0.000989019	   14.9168	  -24.7255	
   15.0308	-0.000818145	   14.9788	-0.00105154	   15.0918	-0.0010417	   15.0338	-0.00097046	   15.0338	  -24.2615	
   15.1472	-0.00079819	   15.0945	-0.00103334	   15.2089	-0.00102363	   15.1502	-0.00095172	   15.1502	   -23.793	
   15.2635	-0.00077808	   15.2103	-0.00101503	   15.3259	-0.00100526	   15.2666	-0.000932792	   15.2666	  -23.3198	
   15.3797	-0.000757847	   15.3256	-0.000996582	   15.4426	-0.000986618	   15.3826	-0.000913682	   15.3826	  -22.8421	
   15.4946	-0.000737535	   15.4407	-0.000977945	   15.5576	-0.000967782	   15.4976	-0.000894421	   15.4976	  -22.3605	
   15.6096	-0.000717178	   15.5553	-0.000959101	   15.6717	-0.000948889	   15.6122	-0.000875056	   15.6122	  -21.8764	
   15.7237	-0.000696806	   15.6692	-0.000940053	   15.7861	-0.000929993	   15.7263	-0.000855617	   15.7263	  -21.3904	
   15.8372	-0.000676446	   15.7834	-0.000920814	   15.8996	-0.000911168	   15.8401	-0.000836143	   15.8401	  -20.9036	
   15.9507	-0.000656109	   15.8976	-0.000901412	   16.0121	-0.000892464	   15.9534	-0.000816662	   15.9534	  -20.4165	
   16.0636	-0.000635795	   16.0109	-0.000881894	   16.1239	-0.0008739	   16.0661	-0.000797196	   16.0661	  -19.9299	
   16.1759	-0.000615486	   16.1229	-0.000862305	   16.2347	-0.000855462	   16.1778	-0.000777751	   16.1778	  -19.4438	
   16.2866	-0.00059515	   16.2345	-0.000842679	   16.3453	-0.000837078	   16.2888	-0.000758302	   16.2888	  -18.9576	
    16.396	-0.000574753	   16.3448	-0.000823054	   16.4544	-0.000818664	   16.3984	-0.000738824	   16.3984	  -18.4706	
    16.505	-0.000554259	   16.4548	-0.000803456	   16.5622	-0.000800124	   16.5073	-0.00071928	   16.5073	   -17.982	
   16.6136	-0.000533642	   16.5637	-0.000783889	   16.6694	-0.000781376	   16.6156	-0.000699635	   16.6156	  -17.4909	
   16.7215	-0.000512879	   16.6715	-0.000764346	   16.7764	-0.000762363	   16.7231	-0.000679863	   16.7231	  -16.9966	
   16.8285	-0.000491968	   16.7786	-0.000744809	   16.8822	-0.000743034	   16.8298	-0.000659937	   16.8298	  -16.4984	
   16.9353	-0.000470917	   16.8856	-0.00072525	   16.9872	-0.000723375	    16.936	-0.000639847	    16.936	  -15.9962	
    17.042	-0.000449751	   16.9927	-0.000705632	    17.092	-0.000703431	   17.0422	-0.000619605	   17.0422	  -15.4901	
   17.1489	-0.000428498	   17.0985	-0.0006859	   17.1968	-0.000683267	    17.148	-0.000599222	    17.148	  -14.9805	
   17.2543	-0.000407194	   17.2038	-0.000666029	   17.3008	-0.000662976	    17.253	-0.000578733	    17.253	  -14.4683	
   17.3595	-0.000385873	   17.3084	-0.000646022	   17.4037	-0.000642657	   17.3572	-0.000558184	   17.3572	  -13.9546	
   17.4644	-0.000364571	   17.4124	-0.000625839	   17.5069	-0.0006224	   17.4612	-0.000537604	   17.4612	  -13.4401	
   17.5686	-0.000343311	   17.5165	-0.000605492	   17.6091	-0.000602283	   17.5647	-0.000517029	   17.5647	  -12.9257	
   17.6719	-0.000322103	   17.6199	-0.000585027	   17.7109	-0.000582353	   17.6676	-0.000496494	   17.6676	  -12.4124	
   17.7747	-0.000300942	   17.7222	-0.00056448	   17.8106	-0.000562627	   17.7692	-0.000476016	   17.7692	  -11.9004	
   17.8766	-0.000279815	   17.8233	-0.000543889	   17.9095	-0.000543066	   17.8698	-0.00045559	   17.8698	  -11.3898	
   17.9774	-0.000258697	   17.9242	-0.0005233	   18.0088	-0.000523615	   17.9701	-0.000435204	   17.9701	  -10.8801	
   18.0778	-0.000237561	   18.0244	-0.000502757	   18.1076	-0.000504195	   18.0699	-0.000414837	   18.0699	  -10.3709	
   18.1773	-0.000216374	   18.1225	-0.000482274	   18.2055	-0.000484709	   18.1684	-0.000394453	   18.1684	  -9.86132	
    18.276	-0.000195112	   18.2204	-0.000461864	   18.3024	-0.000465069	   18.2663	-0.000374015	   18.2663	  -9.35038	
    18.374	-0.000173758	   18.3171	-0.000441517	   18.3987	-0.000445201	   18.3633	-0.000353492	   18.3633	  -8.83731	
   18.4712	-0.000152305	    18.414	-0.00042119	   18.4941	-0.000425061	   18.4597	-0.000332852	   18.4597	  -8.32129	
   18.5673	-0.000130757	   18.5104	-0.000400836	   18.5883	-0.000404636	   18.5553	-0.000312076	   18.5553	   -7.8019	
   18.6634	-0.000109128	   18.6063	-0.00038042	   18.6819	-0.000383954	   18.6506	-0.000291168	   18.6506	  -7.27919	
    18.759	-8.74445e-05	   18.7018	-0.000359893	   18.7749	-0.000363076	   18.7452	-0.000270138	   18.7452	  -6.75344	
   18.8526	-6.57372e-05	   18.7962	-0.000339216	   18.8683	-0.000342081	    18.839	-0.000249011	    18.839	  -6.22528	
   18.9453	-4.39595e-05	   18.8902	-0.000318379	    18.961	-0.000321059	   18.9322	-0.000227799	   18.9322	  -5.69498	
   19.0372	-2.21357e-05	   18.9828	-0.000297391	   19.0527	-0.000300107	   19.0242	-0.000206545	   19.0242	  -5.16362	
    19.129	-3.17949e-07	   19.0749	-0.000276271	   19.1439	-0.000279299	   19.1159	-0.000185296	   19.1159	   -4.6324	
   19.2203	2.14208e-05	   19.1666	-0.000255067	   19.2351	-0.000258686	   19.2074	-0.000164111	   19.2074	  -4.10277	
   19.3116	4.30793e-05	   19.2575	-0.000233836	   19.3257	-0.000238288	   19.2982	-0.000143015	   19.2982	  -3.57537	
   19.4047	6.46437e-05	   19.3474	-0.000212623	   19.4158	-0.000218091	   19.3893	-0.000122024	   19.3893	  -3.05059	
   19.4999	8.60749e-05	    19.437	-0.000191479	   19.5053	-0.000198049	   19.4807	-0.000101151	   19.4807	  -2.52877	
   19.5953	0.000107396	   19.5255	-0.000170445	   19.5934	-0.000178091	   19.5714	-8.038e-05	   19.5714	   -2.0095	
   19.6878	0.000128629	   19.6139	-0.000149531	   19.6805	-0.000158137	   19.6607	-5.96794e-05	   19.6607	  -1.49199	
   19.7792	 0.0001498	   19.7013	-0.000128734	   19.7673	-0.000138098	   19.7493	-3.90106e-05	   19.7493	 -0.975265	
   19.8732	0.000170973	   19.7867	-0.000108033	   19.8534	-0.000117905	   19.8377	-1.83215e-05	   19.8377	 -0.458038	
   19.9653	0.000192179	   19.8707	-8.73946e-05	   19.9387	-9.75099e-05	   19.9249	2.42474e-06	   19.9249	 0.0606185	
   20.0508	0.000213447	    19.954	-6.67702e-05	   20.0222	-7.68955e-05	    20.009	2.32603e-05	    20.009	  0.581508	
   20.1336	0.000234803	   20.0371	-4.61138e-05	   20.1051	-5.60724e-05	   20.0919	4.42056e-05	   20.0919	   1.10514	
   20.2179	0.000256285	   20.1196	-2.53864e-05	    20.188	-3.50853e-05	   20.1752	6.52712e-05	   20.1752	   1.63178	
   20.3005	0.00027792	    20.201	-4.54939e-06	   20.2689	-1.40026e-05	   20.2568	8.64559e-05	   20.2568	    2.1614	
   20.3791	0.000299661	   20.2808	1.64132e-05	   20.3501	7.09735e-06	   20.3367	0.000107724	   20.3367	    2.6931	
   20.4543	0.000321473	   20.3596	3.7489e-05	     20.43	2.81327e-05	   20.4146	0.000129032	   20.4146	   3.22579	
   20.5293	0.000343316	   20.4368	5.86602e-05	   20.5098	4.90295e-05	    20.492	0.000150335	    20.492	   3.75838	
   20.6038	0.000365131	   20.5135	7.9893e-05	   20.5886	6.9735e-05	   20.5686	0.000171586	   20.5686	   4.28966	
   20.6772	0.000386878	   20.5892	0.000101139	   20.6669	9.02249e-05	   20.6444	0.000192747	   20.6444	   4.81868	
   20.7503	 0.0004085	   20.6647	0.000122347	   20.7438	0.000110506	   20.7196	0.000213784	   20.7196	    5.3446	
   20.8235	0.000429958	   20.7404	0.000143476	   20.8194	0.000130613	   20.7945	0.000234682	   20.7945	   5.86706	
   20.8975	0.000451226	   20.8147	0.000164494	   20.8941	0.000150603	   20.8688	0.000255441	   20.8688	   6.38603	
   20.9706	0.000472311	   20.8878	0.000185383	   20.9678	0.000170553	   20.9421	0.000276082	   20.9421	   6.90206	
   21.0419	0.000493242	   20.9615	0.000206146	   21.0409	0.000190538	   21.0147	0.000296642	   21.0147	   7.41605	
   21.1139	0.000514043	    21.034	0.000226802	   21.1135	0.000210622	   21.0871	0.000317156	   21.0871	   7.92889	
   21.1851	0.000534762	    21.106	0.000247386	   21.1853	0.000230854	   21.1588	0.000337667	   21.1588	   8.44168	
   21.2555	0.00055545	   21.1758	0.000267944	   21.2568	0.000251253	   21.2294	0.000358216	   21.2294	   8.95539	
    21.326	0.000576149	   21.2451	0.000288509	   21.3268	0.000271812	   21.2993	0.000378823	   21.2993	   9.47059	
   21.3968	0.000596892	   21.3142	0.000309109	   21.3955	0.000292491	   21.3688	0.000399497	   21.3688	   9.98743	
   21.4662	0.000617687	   21.3829	0.000329758	    21.463	0.000313231	   21.4374	0.000420226	   21.4374	   10.5056	
   21.5327	0.000638526	   21.4516	0.000350464	   21.5297	0.000333958	   21.5047	0.000440982	   21.5047	   11.0246	
   21.5987	0.000659385	   21.5192	0.000371208	   21.5954	0.000354593	   21.5711	0.000461729	   21.5711	   11.5432	
   21.6645	0.000680235	   21.5857	0.000391966	   21.6601	0.000375065	   21.6368	0.000482422	   21.6368	   12.0605	
   21.7295	0.000701033	   21.6518	0.000412709	    21.724	0.000395323	   21.7018	0.000503022	   21.7018	   12.5755	
   21.7932	0.000721725	   21.7173	0.000433403	   21.7873	0.000415342	   21.7659	0.00052349	   21.7659	   13.0873	
   21.8554	0.000742274	   21.7819	0.000454016	   21.8496	0.000435123	    21.829	0.000543804	    21.829	   13.5951	
   21.9169	0.000762658	   21.8458	0.000474519	   21.9111	0.000454696	   21.8912	0.000563958	   21.8912	   14.0989	
   21.9767	0.000782864	   21.9088	0.000494894	   21.9715	0.000474112	   21.9523	0.000583956	   21.9523	   14.5989	
   22.0353	0.000802893	   21.9714	0.000515118	   22.0311	0.00049344	   22.0126	0.000603817	   22.0126	   15.0954	
   22.0922	0.000822759	   22.0329	0.000535204	   22.0902	0.000512747	   22.0717	0.00062357	   22.0717	   15.5893	
   22.1486	0.000842493	   22.0933	0.00055518	   22.1481	 0.0005321	     22.13	0.000643258	     22.13	   16.0814	
   22.2053	0.000862133	   22.1523	0.000575076	   22.2046	0.000551543	   22.1874	0.000662918	   22.1874	   16.5729	
   22.2613	0.00088172	   22.2105	0.000594919	   22.2608	0.000571099	   22.2442	0.000682579	   22.2442	   17.0645	
   22.3164	0.000901285	   22.2679	0.00061474	   22.3161	0.000590766	   22.3002	0.000702264	   22.3002	   17.5566	
   22.3716	0.000920852	   22.3239	0.000634573	   22.3704	0.000610514	   22.3553	0.000721979	   22.3553	   18.0495	
   22.4257	0.000940432	   22.3788	0.000654429	   22.4235	0.000630289	   22.4093	0.000741717	   22.4093	   18.5429	
   22.4791	0.000960024	   22.4331	0.000674305	   22.4759	0.000650023	   22.4627	0.000761451	   22.4627	   19.0363	
    22.532	0.000979612	   22.4861	0.000694196	   22.5278	0.000669652	   22.5153	0.000781153	   22.5153	   19.5288	
   22.5834	0.000999166	   22.5393	0.000714081	    22.579	0.000689113	   22.5672	0.000800787	   22.5672	   20.0197	
   22.6339	0.00101866	   22.5915	0.00073392	   22.6286	0.000708362	    22.618	0.000820312	    22.618	   20.5078	
   22.6843	0.00103805	   22.6421	0.000753677	   22.6774	0.000727381	    22.668	0.000839701	    22.668	   20.9925	
   22.7335	 0.0010573	   22.6917	0.000773328	   22.7256	0.000746174	   22.7169	0.000858935	   22.7169	   21.4734	
    22.781	 0.0010764	   22.7403	0.000792827	   22.7728	0.000764766	   22.7647	0.000877998	   22.7647	   21.9499	
   22.8272	0.00109533	   22.7876	0.000812154	   22.8191	0.000783212	   22.8113	0.000896897	   22.8113	   22.4224	
   22.8723	0.00111407	   22.8332	0.000831305	   22.8635	0.000801576	   22.8563	0.000915651	   22.8563	   22.8913	
   22.9161	0.00113265	   22.8775	0.00085029	   22.9076	0.000819905	   22.9004	0.000934282	   22.9004	    23.357	
   22.9587	0.00115108	   22.9214	0.000869132	   22.9504	0.000838254	   22.9435	0.000952823	   22.9435	   23.8206	
   23.0009	0.00116939	   22.9648	0.000887861	   22.9917	0.000856672	   22.9858	0.000971307	   22.9858	   24.2827	
   23.0432	 0.0011876	   23.0062	0.000906509	   23.0324	0.00087517	   23.0273	0.00098976	   23.0273	    24.744	
   23.0848	0.00120574	   23.0467	0.000925111	   23.0725	0.000893737	    23.068	 0.0010082	    23.068	   25.2049	
   23.1264	0.00122385	   23.0858	0.000943691	   23.1119	0.000912349	    23.108	0.00102663	    23.108	   25.6657	
   23.1671	0.00124192	   23.1243	0.000962271	   23.1498	0.00093097	    23.147	0.00104505	    23.147	   26.1263	
   23.2068	0.00125996	   23.1616	0.000980859	   23.1879	0.000949531	   23.1854	0.00106345	   23.1854	   26.5863	
   23.2455	0.00127797	    23.199	0.000999444	   23.2243	0.000967971	    23.223	0.00108179	    23.223	   27.0448	
   23.2837	0.00129591	   23.2356	0.00101801	   23.2599	0.000986247	   23.2597	0.00110006	   23.2597	   27.5014	
   23.3208	0.00131377	   23.2706	0.00103653	   23.2945	0.00100431	   23.2953	 0.0011182	   23.2953	   27.9551	
   23.3567	0.00133151	   23.3042	0.00105495	   23.3282	0.00102214	   23.3297	 0.0011362	   23.3297	    28.405	
   23.3908	0.00134911	    23.337	0.00107325	   23.3608	0.00103974	   23.3629	0.00115403	   23.3629	   28.8508	
   23.4242	0.00136654	    23.369	0.00109138	   23.3935	0.00105713	   23.3955	0.00117168	   23.3955	   29.2921	
   23.4565	0.00138379	   23.4007	0.00110934	    23.425	0.00107435	   23.4274	0.00118916	   23.4274	   29.7289	
   23.4875	0.00140085	    23.431	0.00112711	   23.4558	0.00109143	   23.4581	0.00120646	   23.4581	   30.1616	
   23.5174	0.00141775	   23.4611	0.00114469	   23.4863	0.00110846	   23.4883	0.00122363	   23.4883	   30.5908	
   23.5462	0.00143449	   23.4901	 0.0011621	   23.5162	0.00112546	   23.5175	0.00124068	   23.5175	   31.0171	
   23.5742	 0.0014511	    23.518	0.00117938	   23.5448	0.00114247	   23.5457	0.00125765	   23.5457	   31.4413	
   23.6017	0.00146766	   23.5449	0.00119656	   23.5722	0.00115954	    23.573	0.00127458	    23.573	   31.8646	
   23.6295	0.00148416	   23.5713	0.00121367	   23.5989	0.00117664	   23.5999	0.00129149	   23.5999	   32.2872	
   23.6566	0.00150056	   23.5965	0.00123074	   23.6249	0.00119377	    23.626	0.00130836	    23.626	    32.709	
   23.6833	0.00151695	   23.6207	0.00124779	   23.6492	0.00121088	   23.6511	0.00132521	   23.6511	   33.1302	
   23.7092	0.00153329	   23.6445	0.00126483	    23.673	0.00122794	   23.6756	0.00134202	   23.6756	   33.5505	
   23.7357	0.00154954	   23.6672	0.00128184	   23.6955	0.00124487	   23.6995	0.00135875	   23.6995	   33.9687	
    23.762	0.00156563	   23.6896	0.00129882	   23.7168	0.00126163	   23.7228	0.00137536	   23.7228	    34.384	
   23.7876	0.00158157	   23.7113	0.00131573	   23.7373	0.00127818	   23.7454	0.00139183	   23.7454	   34.7956	
   23.8115	0.00159729	   23.7325	0.00133253	   23.7566	 0.0012945	   23.7669	0.00140811	   23.7669	   35.2027	
    23.836	0.00161277	   23.7526	0.00134919	   23.7755	0.00131058	    23.788	0.00142418	    23.788	   35.6045	
   23.8612	0.00162804	    23.772	0.00136568	   23.7936	0.00132644	   23.8089	0.00144005	   23.8089	   36.0014	
   23.8823	0.00164309	   23.7902	0.00138199	   23.8113	 0.0013421	   23.8279	0.00145573	   23.8279	   36.3931	
      23.9	0.00165792	   23.8073	 0.0013981	   23.8277	0.00135763	    23.845	0.00147121	    23.845	   36.7803	
   23.9162	0.00167262	   23.8234	0.00141403	    23.843	0.00137306	   23.8608	0.00148657	   23.8608	   37.1642	
   23.9325	 0.0016873	   23.8388	0.00142979	   23.8576	0.00138844	   23.8763	0.00150184	   23.8763	    37.546	
   23.9461	0.00170199	   23.8532	 0.0014454	   23.8711	0.00140381	   23.8901	0.00151707	   23.8901	   37.9267	
   23.9555	0.00171672	   23.8671	0.00146091	    23.884	 0.0014192	   23.9022	0.00153228	   23.9022	   38.3069	
   23.9633	0.00173153	     23.88	0.00147633	   23.8958	0.00143462	    23.913	0.00154749	    23.913	   38.6874	
   23.9707	0.00174645	   23.8913	 0.0014917	   23.9066	0.00145004	   23.9229	0.00156273	   23.9229	   39.0682	
   23.9767	 0.0017614	   23.9018	0.00150703	   23.9165	0.00146543	   23.9317	0.00157795	   23.9317	   39.4488	
   23.9812	0.00177632	   23.9115	0.00152232	   23.9261	0.00148077	   23.9396	0.00159314	   23.9396	   39.8284	
    23.985	0.00179113	   23.9203	0.00153759	   23.9348	0.00149599	   23.9467	0.00160823	   23.9467	   40.2058	
   23.9898	0.00180572	   23.9284	 0.0015528	   23.9426	0.00151104	   23.9536	0.00162319	   23.9536	   40.5796	
   23.9949	0.00182002	   23.9356	0.00156793	   23.9496	0.00152591	     23.96	0.00163795	     23.96	   40.9488	
   23.9992	0.00183396	   23.9415	0.00158297	   23.9557	0.00154054	   23.9655	0.00165249	   23.9655	   41.3122	
   24.0039	0.00184751	   23.9463	0.00159787	   23.9611	0.00155493	   23.9704	0.00166677	   23.9704	   41.6693	
   24.0086	0.00186065	    23.949	0.00161263	   23.9644	 0.0015691	    23.974	0.00168079	    23.974	   42.0197	
   24.0121	0.00187343	   23.9509	0.00162722	   23.9666	0.00158306	   23.9765	0.00169457	   23.9765	   42.3643	
   24.0157	0.00188596	   23.9518	0.00164164	    23.969	0.00159687	   23.9788	0.00170816	   23.9788	   42.7039	
   24.0186	0.00189832	   23.9519	 0.0016559	   23.9709	0.00161058	   23.9805	 0.0017216	   23.9805	   43.0399	
    24.021	0.00191063	   23.9503	0.00167001	   23.9717	0.00162424	    23.981	0.00173496	    23.981	    43.374	
   24.0213	0.00192299	    23.948	0.00168398	    23.972	0.00163791	   23.9804	0.00174829	   23.9804	   43.7073	
   24.0203	0.00193545	   23.9452	0.00169784	    23.971	 0.0016516	   23.9788	0.00176163	   23.9788	   44.0407	
    24.019	0.00194805	    23.941	0.00171159	   23.9691	0.00166532	   23.9764	0.00177498	   23.9764	   44.3746	
   24.0169	 0.0019608	   23.9364	0.00172526	    23.966	0.00167903	   23.9731	0.00178836	   23.9731	   44.7091	
   24.0139	0.00197365	   23.9307	0.00173884	   23.9622	 0.0016927	   23.9689	0.00180173	   23.9689	   45.0432	
   24.0093	0.00198649	   23.9248	0.00175232	   23.9573	0.00170628	   23.9638	0.00181503	   23.9638	   45.3758	
   24.0041	0.00199925	   23.9171	0.00176572	   23.9519	0.00171971	   23.9577	0.00182823	   23.9577	   45.7056	
   23.9984	0.00201183	   23.9089	  0.001779	   23.9456	0.00173296	    23.951	0.00184127	    23.951	   46.0316	
   23.9914	0.00202413	   23.8999	0.00179217	   23.9374	0.00174598	   23.9429	0.00185409	   23.9429	   46.3523	
   23.9832	0.00203606	   23.8896	0.00180523	   23.9277	0.00175874	   23.9335	0.00186668	   23.9335	   46.6669	
   23.9747	0.00204761	   23.8787	0.00181816	   23.9172	0.00177125	   23.9235	0.00187901	   23.9235	   46.9752	
   23.9659	0.00205877	   23.8665	0.00183095	   23.9058	0.00178354	   23.9127	0.00189109	   23.9127	   47.2772	
   23.9566	0.00206956	   23.8539	0.00184363	   23.8938	0.00179563	   23.9014	0.00190294	   23.9014	   47.5735	
   23.9464	0.00208008	   23.8416	0.00185619	   23.8797	0.00180756	   23.8893	0.00191461	   23.8893	   47.8652	
   23.9349	0.00209041	   23.8281	0.00186861	   23.8653	0.00181939	   23.8761	0.00192614	   23.8761	   48.1534	
   23.9228	0.00210063	   23.8136	0.00188092	   23.8498	0.00183118	   23.8621	0.00193758	   23.8621	   48.4395	
   23.9101	0.00211087	   23.7981	0.00189314	   23.8337	0.00184296	   23.8473	0.00194899	   23.8473	   48.7247	
   23.8969	 0.0021212	   23.7812	0.00190525	   23.8174	0.00185474	   23.8318	 0.0019604	   23.8318	     49.01	
   23.8818	0.00213165	   23.7635	0.00191726	   23.8002	0.00186655	   23.8152	0.00197182	   23.8152	   49.2955	
   23.8658	0.00214223	   23.7447	0.00192918	   23.7823	0.00187838	   23.7976	0.00198326	   23.7976	   49.5816	
   23.8483	0.00215294	    23.725	0.00194104	   23.7637	 0.0018902	    23.779	0.00199472	    23.779	   49.8681	
   23.8286	 0.0021637	   23.7051	0.00195283	   23.7433	0.00190195	    23.759	0.00200616	    23.759	    50.154	
   23.8074	0.00217442	    23.684	0.00196453	   23.7214	0.00191362	   23.7376	0.00201753	   23.7376	   50.4381	
   23.7859	0.00218502	   23.6615	0.00197615	   23.6996	0.00192514	   23.7157	0.00202877	   23.7157	   50.7193	
   23.7628	0.00219539	   23.6379	0.00198768	   23.6763	0.00193646	   23.6923	0.00203985	   23.6923	   50.9961	
   23.7386	0.00220546	   23.6136	0.00199907	   23.6525	0.00194754	   23.6682	0.00205069	   23.6682	   51.2672	
   23.7139	0.00221517	   23.5891	0.00201028	    23.627	0.00195838	   23.6433	0.00206128	   23.6433	   51.5319	
   23.6883	0.00222452	   23.5635	0.00202126	   23.6007	0.00196897	   23.6175	0.00207158	   23.6175	   51.7896	
    23.661	0.00223353	   23.5367	0.00203202	   23.5738	0.00197933	   23.5905	0.00208163	   23.5905	   52.0407	
   23.6327	0.00224225	   23.5092	0.00204256	   23.5455	0.00198951	   23.5624	0.00209144	   23.5624	    52.286	
   23.6045	0.00225079	   23.4806	0.00205287	    23.516	0.00199954	   23.5337	0.00210107	   23.5337	   52.5267	
   23.5756	0.00225924	   23.4507	0.00206297	   23.4856	0.00200949	    23.504	0.00211057	    23.504	   52.7641	
   23.5456	0.00226767	   23.4202	0.00207291	   23.4552	0.00201939	   23.4737	0.00211999	   23.4737	   52.9998	
   23.5147	0.00227618	   23.3892	0.00208274	    23.424	0.00202928	   23.4426	 0.0021294	   23.4426	    53.235	
    23.483	0.00228481	   23.3571	0.00209249	   23.3908	0.00203919	   23.4103	0.00213883	   23.4103	   53.4707	
   23.4508	0.00229356	    23.324	0.00210222	   23.3574	0.00204911	   23.3774	 0.0021483	   23.3774	   53.7074	
   23.4176	0.00230242	   23.2905	0.00211198	   23.3233	0.00205904	   23.3438	0.00215781	   23.3438	   53.9454	
   23.3835	0.00231133	   23.2556	0.00212178	   23.2878	0.00206894	    23.309	0.00216735	    23.309	   54.1838	
   23.3482	0.00232019	   23.2197	0.00213162	   23.2515	0.00207878	   23.2731	0.00217686	   23.2731	   54.4216	
   23.3117	0.00232893	   23.1828	0.00214151	   23.2142	0.00208849	   23.2362	0.00218631	   23.2362	   54.6578	
   23.2745	0.00233745	   23.1447	0.00215142	   23.1759	0.00209804	   23.1984	0.00219564	   23.1984	   54.8909	
   23.2363	0.00234568	   23.1061	0.00216127	   23.1371	0.00210739	   23.1598	0.00220478	   23.1598	   55.1196	
   23.1959	0.00235357	   23.0662	0.00217103	   23.0972	0.00211653	   23.1198	0.00221371	   23.1198	   55.3428	
   23.1544	0.00236113	   23.0254	0.00218068	    23.057	0.00212545	   23.0789	0.00222242	   23.0789	   55.5604	
   23.1121	0.00236836	   22.9837	0.00219014	   23.0157	0.00213415	   23.0372	0.00223088	   23.0372	   55.7721	
   23.0683	0.00237532	   22.9408	0.00219938	    22.973	0.00214267	    22.994	0.00223912	    22.994	   55.9781	
   23.0232	0.00238212	   22.8963	 0.0022084	   22.9292	0.00215103	   22.9496	0.00224718	   22.9496	   56.1796	
   22.9771	0.00238881	   22.8505	0.00221718	   22.8834	 0.0021593	   22.9037	 0.0022551	   22.9037	   56.3775	
   22.9302	0.00239549	   22.8029	0.00222575	   22.8371	0.00216751	   22.8567	0.00226292	   22.8567	   56.5729	
   22.8823	0.00240222	   22.7541	0.00223414	   22.7893	 0.0021757	   22.8086	0.00227069	   22.8086	   56.7672	
   22.8325	0.00240906	   22.7054	0.00224239	   22.7399	 0.0021839	   22.7593	0.00227845	   22.7593	   56.9612	
   22.7817	  0.002416	   22.6555	0.00225056	   22.6905	0.00219211	   22.7092	0.00228622	   22.7092	   57.1556	
   22.7304	0.00242303	   22.6046	0.00225868	     22.64	0.00220034	   22.6583	0.00229402	   22.6583	   57.3504	
   22.6779	0.00243011	   22.5529	 0.0022668	    22.588	0.00220855	   22.6063	0.00230182	   22.6063	   57.5454	
   22.6254	0.00243716	   22.5007	0.00227492	   22.5346	0.00221671	   22.5536	 0.0023096	   22.5536	   57.7399	
   22.5717	0.00244411	   22.4482	0.00228303	   22.4799	0.00222478	   22.4999	0.00231731	   22.4999	   57.9327	
    22.519	0.00245088	   22.3948	0.00229114	   22.4235	0.00223272	   22.4458	0.00232492	   22.4458	   58.1229	
   22.4646	0.00245741	   22.3401	0.00229922	   22.3659	 0.0022405	   22.3902	0.00233237	   22.3902	   58.3093	
   22.4092	0.00246364	   22.2847	0.00230721	   22.3082	0.00224808	    22.334	0.00233964	    22.334	   58.4911	
   22.3526	0.00246956	   22.2285	0.00231509	   22.2497	0.00225547	   22.2769	0.00234671	   22.2769	   58.6677	
    22.295	 0.0024752	   22.1712	0.00232281	   22.1901	0.00226267	   22.2187	0.00235356	   22.2187	    58.839	
   22.2367	 0.0024806	   22.1128	0.00233034	   22.1301	 0.0022697	   22.1599	0.00236021	   22.1599	   59.0054	
   22.1774	0.00248581	   22.0533	0.00233768	   22.0706	0.00227661	   22.1004	 0.0023667	   22.1004	   59.1674	
   22.1173	0.00249092	   21.9932	0.00234484	   22.0096	0.00228342	   22.0401	0.00237306	   22.0401	   59.3265	
   22.0562	0.00249601	   21.9326	0.00235182	   21.9476	0.00229018	   21.9788	0.00237934	   21.9788	   59.4834	
    21.994	0.00250115	   21.8712	0.00235865	   21.8847	0.00229692	   21.9166	0.00238557	   21.9166	   59.6393	
   21.9309	0.00250637	   21.8092	0.00236537	   21.8217	0.00230366	   21.8539	 0.0023918	   21.8539	   59.7951	
   21.8679	0.00251171	   21.7461	0.00237204	   21.7577	0.00231041	   21.7905	0.00239805	   21.7905	   59.9514	
   21.8038	0.00251715	   21.6815	0.00237866	   21.6928	0.00231716	    21.726	0.00240432	    21.726	   60.1081	
   21.7391	0.00252264	   21.6163	0.00238528	   21.6276	0.00232389	    21.661	 0.0024106	    21.661	   60.2651	
    21.673	0.00252813	   21.5515	0.00239191	    21.562	0.00233057	   21.5955	0.00241687	   21.5955	   60.4217	
   21.6064	0.00253355	    21.485	0.00239854	   21.4957	0.00233716	    21.529	0.00242308	    21.529	   60.5771	
    21.539	0.00253881	    21.418	0.00240517	   21.4288	0.00234362	   21.4619	 0.0024292	   21.4619	     60.73	
   21.4711	0.00254385	   21.3504	0.00241178	   21.3611	0.00234993	   21.3942	0.00243519	   21.3942	   60.8797	
   21.4023	0.00254864	   21.2814	0.00241833	   21.2926	0.00235607	   21.3254	0.00244101	   21.3254	   61.0253	
    21.332	0.00255315	   21.2114	0.00242476	   21.2229	0.00236204	   21.2554	0.00244665	   21.2554	   61.1663	
   21.2606	0.00255739	   21.1413	0.00243108	   21.1516	0.00236784	   21.1845	 0.0024521	   21.1845	   61.3026	
   21.1884	0.00256141	   21.0706	 0.0024373	   21.0807	0.00237349	   21.1133	 0.0024574	   21.1133	    61.435	
   21.1158	0.00256526	   20.9997	0.00244334	    21.008	0.00237902	   21.0412	0.00246254	   21.0412	   61.5635	
   21.0428	0.00256899	    20.928	0.00244918	   20.9346	0.00238445	   20.9685	0.00246754	   20.9685	   61.6885	
   20.9685	0.00257271	   20.8555	0.00245483	     20.86	0.00238983	   20.8947	0.00247246	   20.8947	   61.8114	
    20.893	0.00257645	   20.7836	0.00246031	   20.7845	0.00239518	   20.8204	0.00247731	   20.8204	   61.9328	
   20.8168	0.00258027	   20.7143	0.00246561	   20.7085	0.00240051	   20.7465	0.00248213	   20.7465	   62.0533	
     20.74	0.00258418	   20.6449	0.00247075	   20.6315	0.00240585	   20.6721	0.00248693	   20.6721	   62.1732	
   20.6621	0.00258818	   20.5722	0.00247576	   20.5535	0.00241117	   20.5959	 0.0024917	   20.5959	   62.2925	
   20.5835	0.00259224	   20.4979	0.00248068	   20.4752	0.00241646	   20.5189	0.00249646	   20.5189	   62.4115	
   20.5039	 0.0025963	   20.4254	0.00248556	   20.3965	0.00242172	   20.4419	0.00250119	   20.4419	   62.5298	
   20.4243	0.00260031	   20.3533	0.00249044	   20.3173	 0.0024269	    20.365	0.00250588	    20.365	   62.6471	
   20.3438	0.00260421	    20.275	0.00249533	   20.2368	0.00243198	   20.2852	0.00251051	   20.2852	   62.7627	
   20.2631	0.00260793	    20.193	0.00250023	   20.1556	0.00243695	   20.2039	0.00251504	   20.2039	   62.8759	
   20.1818	0.00261143	   20.1114	0.00250518	   20.0734	0.00244177	   20.1222	0.00251946	   20.1222	   62.9865	
   20.0994	 0.0026147	   20.0309	0.00251017	    19.991	0.00244645	   20.0404	0.00252377	   20.0404	   63.0943	
   20.0171	0.00261776	   19.9461	0.00251517	    19.908	0.00245097	    19.957	0.00252797	    19.957	   63.1992	
   19.9338	0.00262063	   19.8569	0.00252016	    19.824	0.00245536	   19.8715	0.00253205	   19.8715	   63.3012	
   19.8489	0.00262336	   19.7675	 0.0025251	   19.7386	0.00245962	    19.785	0.00253603	    19.785	   63.4007	
   19.7633	  0.002626	   19.6784	0.00252995	   19.6524	0.00246381	    19.698	0.00253992	    19.698	    63.498	
   19.6769	0.00262861	   19.5883	0.00253467	   19.5648	0.00246794	     19.61	0.00254374	     19.61	   63.5935	
   19.5885	0.00263122	   19.4963	0.00253925	   19.4756	0.00247205	   19.5201	0.00254751	   19.5201	   63.6876	
   19.4992	0.00263385	   19.4054	0.00254366	   19.3859	0.00247615	   19.4301	0.00255122	   19.4301	   63.7805	
   19.4092	0.00263652	   19.3151	0.00254788	   19.2942	0.00248029	   19.3395	 0.0025549	   19.3395	   63.8724	
   19.3183	0.00263922	   19.2235	0.00255195	   19.2021	0.00248445	   19.2479	0.00255854	   19.2479	   63.9636	
   19.2268	0.00264195	   19.1297	0.00255589	   19.1093	0.00248864	   19.1553	0.00256216	   19.1553	    64.054	
   19.1345	0.00264466	   19.0362	0.00255973	   19.0159	0.00249282	   19.0622	0.00256574	   19.0622	   64.1435	
   19.0415	0.00264735	   18.9432	0.00256349	   18.9216	0.00249698	   18.9688	0.00256927	   18.9688	   64.2319	
   18.9476	0.00264997	   18.8495	0.00256722	   18.8266	0.00250106	   18.8746	0.00257275	   18.8746	   64.3187	
   18.8545	0.00265248	   18.7548	0.00257092	   18.7321	0.00250502	   18.7805	0.00257614	   18.7805	   64.4035	
    18.761	0.00265486	   18.6605	0.00257463	   18.6377	0.00250883	   18.6864	0.00257944	   18.6864	    64.486	
   18.6667	0.00265709	   18.5658	0.00257835	   18.5427	0.00251246	   18.5917	0.00258264	   18.5917	   64.5659	
   18.5722	0.00265919	   18.4697	0.00258206	   18.4484	0.00251591	   18.4968	0.00258572	   18.4968	    64.643	
   18.4761	0.00266116	   18.3718	0.00258573	   18.3542	0.00251921	   18.4007	 0.0025887	   18.4007	   64.7175	
   18.3801	0.00266302	   18.2738	0.00258936	   18.2592	0.00252239	   18.3044	0.00259159	   18.3044	   64.7897	
   18.2831	 0.0026648	   18.1762	0.00259293	   18.1635	0.00252546	   18.2076	 0.0025944	   18.2076	   64.8599	
   18.1855	0.00266655	   18.0776	0.00259638	   18.0673	0.00252849	   18.1101	0.00259714	   18.1101	   64.9285	
   18.0862	0.00266829	   17.9764	0.00259971	   17.9703	0.00253151	    18.011	0.00259984	    18.011	   64.9959	
   17.9857	0.00267001	   17.8746	0.00260292	   17.8729	0.00253454	   17.9111	0.00260249	   17.9111	   65.0622	
   17.8848	0.00267175	   17.7726	  0.002606	   17.7751	0.00253758	   17.8108	0.00260511	   17.8108	   65.1278	
   17.7834	 0.0026735	   17.6698	0.00260897	   17.6753	0.00254064	   17.7095	 0.0026077	   17.7095	   65.1926	
   17.6812	0.00267524	   17.5653	0.00261184	   17.5739	0.00254372	   17.6068	0.00261027	   17.6068	   65.2567	
   17.5786	0.00267693	   17.4601	0.00261464	   17.4723	0.00254679	   17.5036	0.00261279	   17.5036	   65.3196	
   17.4754	0.00267855	   17.3549	0.00261738	   17.3702	0.00254981	   17.4002	0.00261525	   17.4002	   65.3811	
   17.3711	0.00268006	   17.2491	 0.0026201	   17.2657	0.00255275	   17.2953	0.00261764	   17.2953	   65.4409	
    17.266	0.00268143	   17.1425	0.00262281	   17.1597	0.00255559	   17.1894	0.00261994	   17.1894	   65.4986	
   17.1598	0.00268265	   17.0345	0.00262552	   17.0529	0.00255829	   17.0824	0.00262215	   17.0824	   65.5538	
   17.0527	0.00268372	   16.9262	0.00262822	   16.9459	0.00256085	   16.9749	0.00262426	   16.9749	   65.6066	
   16.9453	0.00268465	   16.8165	0.00263092	   16.8389	0.00256325	   16.8669	0.00262627	   16.8669	   65.6568	
   16.8373	0.00268548	   16.7075	0.00263359	   16.7293	 0.0025655	    16.758	0.00262819	    16.758	   65.7048	
    16.729	0.00268623	   16.5977	0.00263621	   16.6192	0.00256766	   16.6487	0.00263003	   16.6487	   65.7508	
   16.6201	0.00268695	   16.4885	0.00263876	   16.5089	0.00256973	   16.5392	0.00263181	   16.5392	   65.7953	
   16.5101	0.00268766	   16.3792	0.00264121	    16.398	0.00257175	   16.4291	0.00263354	   16.4291	   65.8385	
   16.4004	0.00268839	   16.2682	0.00264356	   16.2854	0.00257377	    16.318	0.00263524	    16.318	    65.881	
   16.2899	0.00268916	    16.156	0.00264577	    16.173	0.00257582	   16.2063	0.00263692	   16.2063	   65.9229	
   16.1781	0.00268996	   16.0437	0.00264787	   16.0604	 0.0025779	   16.0941	0.00263858	   16.0941	   65.9644	
   16.0659	0.00269079	   15.9305	0.00264984	   15.9469	0.00258003	   15.9811	0.00264022	   15.9811	   66.0055	
   15.9526	0.00269161	   15.8166	0.00265169	   15.8325	0.00258219	   15.8672	0.00264183	   15.8672	   66.0457	
   15.8387	0.00269239	   15.7027	0.00265346	    15.718	0.00258434	   15.7531	 0.0026434	   15.7531	    66.085	
   15.7237	 0.0026931	    15.588	0.00265517	   15.6027	0.00258647	   15.6381	0.00264491	   15.6381	   66.1228	
   15.6081	 0.0026937	   15.4723	0.00265682	   15.4863	0.00258852	   15.5222	0.00264634	   15.5222	   66.1586	
   15.4918	0.00269416	   15.3563	0.00265843	   15.3685	0.00259045	   15.4055	0.00264768	   15.4055	   66.1921	
   15.3749	0.00269448	   15.2394	0.00266003	   15.2499	0.00259226	   15.2881	0.00264892	   15.2881	    66.223	
   15.2585	0.00269465	    15.123	 0.0026616	   15.1313	0.00259391	   15.1709	0.00265005	   15.1709	   66.2513	
   15.1409	0.00269469	   15.0056	0.00266314	   15.0126	 0.0025954	    15.053	0.00265108	    15.053	   66.2769	
   15.0232	0.00269462	   14.8876	0.00266465	   14.8927	0.00259674	   14.9345	  0.002652	   14.9345	   66.3001	
    14.905	0.00269449	   14.7702	0.00266611	   14.7728	0.00259795	    14.816	0.00265285	    14.816	   66.3213	
   14.7865	0.00269433	   14.6529	0.00266752	   14.6526	0.00259906	   14.6973	0.00265364	   14.6973	   66.3409	
   14.6683	0.00269416	   14.5362	0.00266885	   14.5324	0.00260012	    14.579	0.00265438	    14.579	   66.3594	
   14.5491	0.00269402	   14.4187	 0.0026701	   14.4117	0.00260116	   14.4598	0.00265509	   14.4598	   66.3773	
   14.4288	 0.0026939	   14.3004	0.00267127	   14.2904	 0.0026022	   14.3399	0.00265579	   14.3399	   66.3948	
   14.3072	0.00269382	    14.181	0.00267235	   14.1681	0.00260325	   14.2188	0.00265647	   14.2188	   66.4118	
    14.185	0.00269374	   14.0616	0.00267335	   14.0451	0.00260432	   14.0973	0.00265714	   14.0973	   66.4284	
   14.0624	0.00269364	    13.942	0.00267428	   13.9221	0.00260541	   13.9755	0.00265777	   13.9755	   66.4443	
    13.939	0.00269349	   13.8222	0.00267514	   13.7987	0.00260648	   13.8533	0.00265837	   13.8533	   66.4592	
   13.8146	0.00269325	   13.7021	0.00267593	   13.6746	0.00260748	   13.7304	0.00265889	   13.7304	   66.4722	
   13.6898	 0.0026929	   13.5807	0.00267667	   13.5505	0.00260839	    13.607	0.00265932	    13.607	    66.483	
   13.5649	0.00269242	   13.4585	0.00267737	    13.425	0.00260919	   13.4828	0.00265966	   13.4828	   66.4915	
   13.4395	0.00269178	   13.3359	0.00267802	   13.2985	0.00260987	    13.358	0.00265989	    13.358	   66.4973	
    13.314	0.00269102	   13.2126	0.00267861	   13.1723	0.00261039	    13.233	0.00266001	    13.233	   66.5002	
   13.1879	0.00269014	   13.0887	0.00267917	   13.0463	0.00261078	   13.1077	0.00266003	   13.1077	   66.5007	
   13.0611	0.00268915	   12.9643	0.00267967	     12.92	0.00261104	   12.9818	0.00265995	   12.9818	   66.4989	
   12.9333	 0.0026881	    12.839	0.00268011	   12.7923	0.00261121	   12.8549	 0.0026598	   12.8549	   66.4951	
   12.8053	  0.002687	    12.713	0.00268048	   12.6647	0.00261133	   12.7277	 0.0026596	   12.7277	   66.4901	
   12.6765	0.00268589	   12.5871	0.00268079	    12.538	0.00261145	   12.6005	0.00265937	   12.6005	   66.4843	
   12.5473	0.00268478	   12.4608	0.00268102	   12.4101	0.00261158	   12.4727	0.00265913	   12.4727	   66.4782	
   12.4182	0.00268368	   12.3338	0.00268118	   12.2818	0.00261176	   12.3446	0.00265887	   12.3446	   66.4718	
   12.2885	0.00268258	   12.2065	0.00268125	   12.1528	0.00261201	   12.2159	0.00265861	   12.2159	   66.4654	
   12.1584	0.00268147	   12.0786	0.00268125	   12.0227	0.00261232	   12.0866	0.00265835	   12.0866	   66.4587	
   12.0276	0.00268033	   11.9502	0.00268118	    11.892	0.00261263	   11.9566	0.00265805	   11.9566	   66.4512	
   11.8965	0.00267914	   11.8207	0.00268104	   11.7604	0.00261291	   11.8259	0.00265769	   11.8259	   66.4424	
   11.7651	0.00267784	   11.6906	0.00268084	   11.6285	0.00261313	   11.6947	0.00265727	   11.6947	   66.4318	
   11.6335	0.00267642	   11.5589	0.00268059	    11.496	0.00261322	   11.5628	0.00265674	   11.5628	   66.4186	
   11.5014	0.00267485	   11.4269	0.00268029	   11.3633	0.00261316	   11.4305	 0.0026561	   11.4305	   66.4025	
   11.3689	0.00267313	   11.2943	0.00267996	   11.2307	0.00261291	   11.2979	0.00265533	   11.2979	   66.3833	
   11.2353	0.00267127	   11.1622	0.00267958	   11.0972	0.00261246	   11.1649	0.00265444	   11.1649	   66.3609	
   11.1003	0.00266931	   11.0293	0.00267914	   10.9642	0.00261183	   11.0313	0.00265343	   11.0313	   66.3357	
   10.9638	0.00266727	   10.8956	0.00267865	   10.8312	0.00261105	   10.8969	0.00265233	   10.8969	   66.3081	
    10.826	0.00266522	   10.7621	0.00267809	    10.698	0.00261016	    10.762	0.00265116	    10.762	   66.2789	
   10.6871	0.00266318	   10.6279	0.00267743	   10.5642	0.00260922	   10.6264	0.00264994	   10.6264	   66.2486	
   10.5479	0.00266117	   10.4919	0.00267668	   10.4301	0.00260828	   10.4899	0.00264871	   10.4899	   66.2177	
   10.4084	 0.0026592	   10.3555	0.00267582	   10.2956	0.00260738	   10.3532	0.00264747	   10.3532	   66.1867	
   10.2678	0.00265727	   10.2187	0.00267486	   10.1611	0.00260651	   10.2159	0.00264622	   10.2159	   66.1554	
   10.1264	0.00265535	    10.081	 0.0026738	    10.025	0.00260569	   10.0775	0.00264495	   10.0775	   66.1237	
   9.98664	0.00265341	   9.94341	0.00267265	   9.88843	 0.0026049	   9.93949	0.00264365	   9.93949	   66.0913	
     9.847	0.00265142	   9.80582	0.00267141	   9.75116	0.00260414	   9.80132	0.00264233	   9.80132	   66.0582	
    9.7064	0.00264936	   9.66721	0.00267011	   9.61366	0.00260334	   9.66242	0.00264094	   9.66242	   66.0234	
   9.56582	0.00264716	    9.5281	0.00266876	   9.47565	0.00260246	   9.52319	0.00263946	   9.52319	   65.9864	
   9.42594	0.00264479	   9.38822	0.00266736	   9.33687	0.00260147	   9.38368	0.00263787	   9.38368	   65.9469	
   9.28689	0.00264226	   9.24781	0.00266592	   9.19709	0.00260034	   9.24393	0.00263617	   9.24393	   65.9043	
   9.14782	0.00263955	   9.10759	0.00266444	   9.05681	0.00259903	   9.10407	0.00263434	   9.10407	   65.8586	
   9.00989	0.00263667	   8.96678	0.00266292	   8.91553	0.00259757	   8.96407	0.00263239	   8.96407	   65.8097	
   8.87054	0.00263364	   8.82633	0.00266135	   8.77474	0.00259595	   8.82387	0.00263031	   8.82387	   65.7578	
   8.73032	0.00263051	   8.68567	0.00265972	   8.63337	 0.0025942	   8.68312	0.00262814	   8.68312	   65.7036	
   8.59115	0.00262732	   8.54478	0.00265799	   8.49118	0.00259235	   8.54237	0.00262589	   8.54237	   65.6472	
   8.45242	0.00262408	    8.4041	0.00265615	   8.34844	0.00259045	   8.40165	0.00262356	   8.40165	    65.589	
    8.3126	0.00262087	   8.26261	0.00265421	   8.20441	0.00258849	   8.25987	0.00262119	   8.25987	   65.5298	
   8.17076	0.00261769	   8.12152	0.00265219	   8.06036	0.00258651	   8.11755	 0.0026188	   8.11755	     65.47	
   8.02797	0.00261455	   7.98003	0.00265009	   7.91626	0.00258453	   7.97475	0.00261639	   7.97475	   65.4097	
   7.88641	0.00261144	   7.83836	0.00264792	   7.77159	0.00258253	   7.83212	0.00261397	   7.83212	   65.3491	
   7.74428	0.00260835	   7.69624	0.00264572	    7.6273	0.00258051	   7.68927	0.00261153	   7.68927	   65.2881	
   7.59987	0.00260524	    7.5527	0.00264349	   7.48262	0.00257845	   7.54506	0.00260906	   7.54506	   65.2265	
   7.45454	0.00260205	   7.40876	0.00264125	   7.33825	0.00257633	   7.40052	0.00260654	   7.40052	   65.1636	
   7.31096	0.00259876	    7.2637	0.00263901	   7.19437	0.00257411	   7.25634	0.00260396	   7.25634	    65.099	
    7.1663	0.00259533	   7.11876	0.00263675	   7.04969	0.00257179	   7.11159	0.00260129	   7.11159	   65.0322	
   7.02062	0.00259172	   6.97295	0.00263446	   6.90498	0.00256936	   6.96618	0.00259851	   6.96618	   64.9628	
   6.87492	0.00258791	   6.82677	0.00263211	   6.75994	 0.0025668	   6.82054	0.00259561	   6.82054	   64.8902	
   6.72988	0.00258394	   6.68069	 0.0026297	   6.61505	0.00256412	   6.67521	0.00259258	   6.67521	   64.8146	
   6.58446	0.00257979	   6.53373	0.00262716	    6.4693	0.00256134	   6.52916	0.00258943	   6.52916	   64.7358	
   6.43744	0.00257551	   6.38686	0.00262448	   6.32368	0.00255847	   6.38266	0.00258616	   6.38266	   64.6539	
   6.29181	0.00257114	   6.24006	0.00262164	   6.17742	0.00255553	   6.23643	0.00258277	   6.23643	   64.5693	
   6.14694	 0.0025667	   6.09329	0.00261864	   6.03126	0.00255256	    6.0905	 0.0025793	    6.0905	   64.4825	
   6.00056	0.00256224	   5.94675	0.00261547	    5.8854	0.00254956	   5.94424	0.00257576	   5.94424	   64.3939	
    5.8535	0.00255779	   5.80062	0.00261215	   5.73954	0.00254654	   5.79789	0.00257216	   5.79789	    64.304	
     5.706	0.00255337	   5.65413	0.00260871	   5.59269	0.00254351	   5.65094	0.00256853	   5.65094	   64.2132	
   5.55831	0.00254898	   5.50751	0.00260517	   5.44536	0.00254047	   5.50373	0.00256487	   5.50373	   64.1218	
   5.40969	0.00254461	   5.36001	0.00260157	   5.29878	 0.0025374	   5.35616	0.00256119	   5.35616	   64.0298	
   5.25996	0.00254023	   5.21289	0.00259796	   5.15164	0.00253427	   5.20816	0.00255749	   5.20816	   63.9372	
   5.11038	 0.0025358	    5.0651	0.00259435	   5.00395	0.00253107	   5.05981	0.00255374	   5.05981	   63.8435	
   4.96067	0.00253129	   4.91789	0.00259074	   4.85623	0.00252777	    4.9116	0.00254993	    4.9116	   63.7484	
   4.81083	0.00252664	   4.77093	0.00258715	   4.70794	0.00252435	   4.76323	0.00254605	   4.76323	   63.6512	
   4.66106	0.00252183	   4.62321	0.00258356	   4.55984	 0.0025208	   4.61471	0.00254206	   4.61471	   63.5516	
   4.51112	0.00251684	   4.47477	0.00257995	   4.41164	0.00251711	   4.46584	0.00253796	   4.46584	   63.4491	
   4.36147	0.00251165	   4.32586	0.00257627	    4.2638	0.00251329	   4.31704	0.00253374	   4.31704	   63.3435	
   4.21062	0.00250631	   4.17674	0.00257251	   4.11578	0.00250935	   4.16771	0.00252939	   4.16771	   63.2347	
   4.05961	 0.0025008	   4.02741	0.00256863	   3.96757	 0.0025053	   4.01819	0.00252491	   4.01819	   63.1228	
   3.90843	0.00249519	   3.87785	 0.0025646	   3.81867	0.00250117	   3.86832	0.00252032	   3.86832	    63.008	
   3.75803	 0.0024895	   3.72758	0.00256042	   3.66984	0.00249698	   3.71848	0.00251563	   3.71848	   62.8908	
   3.60739	0.00248378	   3.57712	0.00255607	   3.52032	0.00249274	   3.56827	0.00251086	   3.56827	   62.7716	
   3.45696	0.00247805	   3.42693	0.00255156	   3.37111	0.00248847	   3.41833	0.00250603	   3.41833	   62.6507	
    3.3072	0.00247234	   3.27675	0.00254692	   3.22119	0.00248417	   3.26838	0.00250114	   3.26838	   62.5286	
   3.15707	0.00246664	   3.12582	0.00254217	   3.07204	0.00247984	   3.11831	0.00249622	   3.11831	   62.4054	
   3.00779	0.00246094	   2.97515	0.00253734	   2.92238	0.00247546	   2.96844	0.00249125	   2.96844	   62.2812	
   2.85853	0.00245521	   2.82421	0.00253245	   2.77198	0.00247102	   2.81824	0.00248623	   2.81824	   62.1557	
   2.71023	0.00244941	   2.67228	0.00252752	   2.62208	 0.0024665	    2.6682	0.00248114	    2.6682	   62.0286	
   2.56184	 0.0024435	   2.52063	0.00252258	   2.47141	0.00246187	   2.51796	0.00247598	   2.51796	   61.8996	
    2.4138	0.00243745	   2.36898	0.00251762	   2.32146	0.00245712	   2.36808	0.00247073	   2.36808	   61.7682	
    2.2651	0.00243123	   2.21706	0.00251263	   2.17118	0.00245222	   2.21778	0.00246536	   2.21778	   61.6341	
   2.11553	0.00242483	   2.06466	 0.0025076	   2.02035	0.00244718	   2.06685	0.00245987	   2.06685	   61.4968	
   1.96682	0.00241824	    1.9125	0.00250251	    1.8697	  0.002442	   1.91634	0.00245425	   1.91634	   61.3562	
   1.81743	0.00241146	   1.76079	0.00249732	   1.71945	0.00243668	   1.76589	0.00244849	   1.76589	   61.2122	
   1.66786	0.00240452	   1.60925	  0.002492	   1.56929	0.00243125	   1.61546	0.00244259	   1.61546	   61.0648	
   1.51763	0.00239745	   1.45783	0.00248654	   1.41872	0.00242572	   1.46473	0.00243657	   1.46473	   60.9142	
   1.36605	0.00239027	   1.30676	0.00248092	   1.26847	0.00242011	   1.31376	0.00243043	   1.31376	   60.7608	
   1.21489	0.00238302	   1.15575	0.00247512	   1.11922	0.00241445	   1.16329	 0.0024242	   1.16329	   60.6049	
   1.06265	0.00237573	   1.00453	0.00246915	  0.969663	0.00240874	   1.01228	0.00241787	   1.01228	   60.4468	
  0.909887	0.00236842	  0.853819	0.00246303	  0.819077	0.00240299	  0.860928	0.00241148	  0.860928	    60.287	
  0.757101	0.00236109	  0.702361	0.00245678	  0.668482	 0.0023972	  0.709315	0.00240502	  0.709315	   60.1255	
  0.603804	0.00235375	  0.551392	0.00245041	  0.518337	0.00239136	  0.557844	0.00239851	  0.557844	   59.9627	
  0.450746	 0.0023464	  0.400618	0.00244396	  0.368348	0.00238545	  0.406571	0.00239194	  0.406571	   59.7984	
  0.297176	0.00233897	  0.249283	0.00243746	   0.21872	0.00237946	  0.255059	 0.0023853	  0.255059	   59.6324	
  0.142636	0.00233143	 0.0976522	0.00243091	 0.0686809	0.00237336	   0.10299	0.00237857	   0.10299	   59.4642	
-0.0123239	0.00232376	-0.0545114	0.00242434	-0.0805601	0.00236713	-0.0491318	0.00237174	-0.0491318	   59.2935	
 -0.166234	0.00231592	 -0.206219	0.00241772	 -0.230051	0.00236075	 -0.200835	 0.0023648	 -0.200835	     59.12	
 -0.318946	0.00230791	 -0.357525	0.00241106	 -0.378593	0.00235422	 -0.351688	0.00235773	 -0.351688	   58.9433	
 -0.470812	0.00229974	 -0.509441	0.00240433	 -0.527488	0.00234754	  -0.50258	0.00235054	  -0.50258	   58.7634	
 -0.622151	0.00229142	 -0.661454	0.00239751	 -0.677455	0.00234072	 -0.653687	0.00234321	 -0.653687	   58.5803	
 -0.772301	0.00228295	  -0.81357	0.00239056	 -0.827234	0.00233376	 -0.804368	0.00233576	 -0.804368	   58.3939	
 -0.921862	0.00227441	 -0.964839	0.00238346	 -0.977099	 0.0023267	   -0.9546	0.00232819	   -0.9546	   58.2048	
  -1.07042	0.00226584	  -1.11631	 0.0023762	  -1.12683	0.00231955	  -1.10452	0.00232053	  -1.10452	   58.0132	
  -1.21832	0.00225723	  -1.26821	0.00236875	  -1.27573	0.00231232	  -1.25409	0.00231277	  -1.25409	   57.8192	
  -1.36637	0.00224861	  -1.41982	0.00236113	  -1.42462	0.00230503	   -1.4036	0.00230492	   -1.4036	   57.6231	
  -1.51433	0.00223999	  -1.57165	0.00235335	  -1.57329	0.00229769	  -1.55309	0.00229701	  -1.55309	   57.4252	
  -1.66249	0.00223134	  -1.72322	0.00234544	  -1.72153	 0.0022903	  -1.70241	0.00228903	  -1.70241	   57.2256	
  -1.81038	0.00222259	  -1.87337	0.00233739	  -1.87013	0.00228285	  -1.85129	0.00228094	  -1.85129	   57.0236	
  -1.95757	0.00221371	  -2.02391	0.00232925	  -2.01933	0.00227532	  -2.00027	0.00227276	  -2.00027	   56.8189	
  -2.10558	0.00220463	  -2.17483	0.00232104	   -2.1691	 0.0022677	  -2.14984	0.00226446	  -2.14984	   56.6114	
  -2.25414	0.00219529	  -2.32517	0.00231279	  -2.31774	0.00225996	  -2.29902	0.00225601	  -2.29902	   56.4003	
  -2.40203	0.00218567	  -2.47546	0.00230448	  -2.46609	 0.0022521	  -2.44786	0.00224741	  -2.44786	   56.1853	
  -2.55029	0.00217579	  -2.62574	0.00229613	   -2.6154	0.00224408	  -2.59715	0.00223867	  -2.59715	   55.9667	
  -2.69989	0.00216565	  -2.77651	0.00228775	   -2.7649	0.00223591	   -2.7471	0.00222977	   -2.7471	   55.7443	
  -2.84954	0.00215528	  -2.92702	0.00227932	  -2.91363	0.00222758	  -2.89673	0.00222073	  -2.89673	   55.5182	
  -2.99854	0.00214478	  -3.07708	0.00227083	  -3.06313	0.00221908	  -3.04625	0.00221156	  -3.04625	    55.289	
  -3.14816	0.00213419	  -3.22819	0.00226225	  -3.21167	0.00221045	    -3.196	 0.0022023	    -3.196	   55.0574	
   -3.2991	0.00212359	  -3.37932	0.00225356	  -3.36104	0.00220172	  -3.34649	0.00219295	  -3.34649	   54.8239	
  -3.44888	  0.002113	  -3.52905	0.00224475	     -3.51	0.00219288	  -3.49598	0.00218354	  -3.49598	   54.5886	
  -3.59785	0.00210248	  -3.67847	 0.0022358	  -3.65885	0.00218393	  -3.64505	0.00217407	  -3.64505	   54.3518	
  -3.74585	  0.002092	  -3.82764	 0.0022267	  -3.80761	 0.0021749	   -3.7937	0.00216453	   -3.7937	   54.1133	
  -3.89372	0.00208154	  -3.97707	0.00221742	  -3.95609	0.00216578	  -3.94229	0.00215491	  -3.94229	   53.8728	
  -4.04221	0.00207107	  -4.12532	0.00220796	  -4.10456	0.00215655	   -4.0907	0.00214519	   -4.0907	   53.6298	
  -4.18962	0.00206052	  -4.27372	0.00219832	  -4.25331	 0.0021472	  -4.23888	0.00213535	  -4.23888	   53.3837	
  -4.33582	0.00204983	  -4.42157	0.00218851	  -4.40113	0.00213771	  -4.38617	0.00212535	  -4.38617	   53.1337	
  -4.48238	0.00203895	  -4.56941	0.00217854	  -4.54981	0.00212809	  -4.53387	0.00211519	  -4.53387	   52.8797	
  -4.62884	0.00202782	   -4.7168	0.00216843	   -4.6981	0.00211832	  -4.68125	0.00210486	  -4.68125	   52.6214	
  -4.77547	0.00201643	  -4.86403	 0.0021582	  -4.84703	0.00210842	  -4.82884	0.00209435	  -4.82884	   52.3588	
  -4.92156	0.00200477	  -5.01141	0.00214789	  -4.99609	0.00209839	  -4.97635	0.00208368	  -4.97635	   52.0921	
  -5.06767	0.00199287	  -5.15917	0.00213751	  -5.14481	0.00208822	  -5.12389	0.00207286	  -5.12389	   51.8216	
  -5.21481	0.00198075	  -5.30613	0.00212707	  -5.29421	0.00207793	  -5.27172	0.00206192	  -5.27172	   51.5479	
  -5.36147	0.00196846	  -5.45285	0.00211658	  -5.44282	0.00206756	  -5.41905	0.00205087	  -5.41905	   51.2717	
  -5.50749	0.00195606	  -5.59939	0.00210602	   -5.5912	0.00205712	  -5.56603	0.00203974	  -5.56603	   50.9934	
  -5.65416	 0.0019436	   -5.7458	0.00209541	  -5.73988	0.00204659	  -5.71328	0.00202853	  -5.71328	   50.7133	
  -5.80072	0.00193112	  -5.89259	 0.0020847	  -5.88743	0.00203595	  -5.86025	0.00201726	  -5.86025	   50.4314	
  -5.94747	0.00191865	  -6.03929	0.00207388	  -6.03492	0.00202523	  -6.00723	0.00200592	  -6.00723	    50.148	
  -6.09323	0.00190619	  -6.18547	0.00206294	   -6.1819	0.00201443	  -6.15353	0.00199452	  -6.15353	    49.863	
  -6.23978	0.00189373	   -6.3307	0.00205184	  -6.32942	0.00200356	  -6.29997	0.00198304	  -6.29997	    49.576	
   -6.3859	0.00188125	  -6.47464	0.00204057	  -6.47697	0.00199258	  -6.44583	0.00197147	  -6.44583	   49.2867	
  -6.53141	 0.0018687	  -6.61884	0.00202913	  -6.62362	0.00198151	  -6.59129	0.00195978	  -6.59129	   48.9946	
  -6.67639	0.00185604	  -6.76239	0.00201752	  -6.77019	0.00197035	  -6.73633	0.00194797	  -6.73633	   48.6992	
   -6.8219	0.00184323	   -6.9056	0.00200573	  -6.91625	0.00195907	  -6.88125	0.00193601	  -6.88125	   48.4002	
   -6.9684	0.00183022	  -7.04926	0.00199379	  -7.06259	0.00194766	  -7.02675	0.00192389	  -7.02675	   48.0973	
  -7.11441	  0.001817	  -7.19244	 0.0019817	  -7.20897	0.00193612	  -7.17194	0.00191161	  -7.17194	   47.7902	
  -7.25952	0.00180353	  -7.33567	0.00196949	  -7.35423	0.00192443	  -7.31648	0.00189915	  -7.31648	   47.4788	
   -7.4048	0.00178984	  -7.47902	0.00195718	  -7.49946	0.00191259	  -7.46109	0.00188654	  -7.46109	   47.1634	
  -7.55075	0.00177594	  -7.62154	0.00194478	  -7.64373	0.00190062	  -7.60534	0.00187378	  -7.60534	   46.8445	
  -7.69663	0.00176186	  -7.76406	0.00193232	  -7.78716	 0.0018885	  -7.74928	0.00186089	  -7.74928	   46.5223	
  -7.84273	0.00174764	  -7.90591	0.00191981	  -7.93033	0.00187622	  -7.89299	0.00184789	  -7.89299	   46.1972	
  -7.98857	0.00173334	  -8.04768	0.00190725	  -8.07332	0.00186379	  -8.03652	0.00183479	  -8.03652	   45.8698	
  -8.13423	0.00171898	  -8.18941	0.00189463	  -8.21665	0.00185123	   -8.1801	0.00182162	   -8.1801	   45.5404	
  -8.27949	0.00170461	   -8.3302	0.00188195	  -8.36035	0.00183855	  -8.32335	0.00180837	  -8.32335	   45.2093	
  -8.42324	0.00169024	  -8.47113	0.00186918	  -8.50322	0.00182575	  -8.46586	0.00179506	  -8.46586	   44.8765	
  -8.56755	0.00167587	  -8.61127	0.00185629	  -8.64609	0.00181285	  -8.60831	0.00178167	  -8.60831	   44.5417	
  -8.71098	0.00166146	  -8.75147	0.00184326	  -8.78733	0.00179985	  -8.74993	0.00176819	  -8.74993	   44.2048	
  -8.85364	  0.001647	  -8.89105	0.00183006	  -8.92831	0.00178678	    -8.891	0.00175461	    -8.891	   43.8653	
  -8.99611	0.00163245	  -9.02986	0.00181669	  -9.06911	0.00177363	   -9.0317	0.00174092	   -9.0317	    43.523	
  -9.13798	0.00161775	  -9.16876	0.00180313	  -9.20883	 0.0017604	  -9.17185	0.00172709	  -9.17185	   43.1774	
   -9.2803	0.00160287	  -9.30754	0.00178944	   -9.3476	 0.0017471	  -9.31181	0.00171313	  -9.31181	   42.8283	
  -9.42163	0.00158777	  -9.44651	0.00177561	  -9.48652	 0.0017337	  -9.45156	0.00169903	  -9.45156	   42.4757	
  -9.56115	0.00157245	  -9.58452	0.00176164	  -9.62372	0.00172021	   -9.5898	0.00168477	   -9.5898	   42.1192	
  -9.70001	0.00155689	  -9.72146	0.00174754	  -9.76034	0.00170661	  -9.72727	0.00167035	  -9.72727	   41.7587	
  -9.83855	0.00154112	  -9.85819	0.00173338	  -9.89602	0.00169289	  -9.86426	0.00165579	  -9.86426	   41.3948	
  -9.97711	0.00152516	  -9.99287	0.00171911	  -10.0326	0.00167902	  -10.0009	 0.0016411	  -10.0009	   41.0274	
  -10.1153	0.00150906	  -10.1269	0.00170471	  -10.1698	0.00166501	  -10.1373	0.00162626	  -10.1373	   40.6566	
  -10.2526	0.00149286	  -10.2598	 0.0016902	  -10.3054	0.00165086	  -10.2726	0.00161131	  -10.2726	   40.2827	
  -10.3893	 0.0014766	  -10.3928	0.00167556	   -10.441	0.00163657	  -10.4077	0.00159624	  -10.4077	    39.906	
  -10.5258	 0.0014603	  -10.5245	0.00166073	  -10.5764	0.00162214	  -10.5423	0.00158106	  -10.5423	   39.5264	
  -10.6619	  0.001444	  -10.6548	0.00164574	  -10.7115	0.00160759	   -10.676	0.00156577	   -10.676	   39.1443	
  -10.7979	0.00142769	  -10.7854	0.00163058	  -10.8464	0.00159293	  -10.8099	 0.0015504	  -10.8099	     38.76	
  -10.9335	0.00141136	  -10.9185	0.00161525	   -10.981	0.00157817	  -10.9443	0.00153493	  -10.9443	   38.3731	
  -11.0681	0.00139498	  -11.0517	0.00159977	  -11.1147	0.00156333	  -11.0782	0.00151936	  -11.0782	   37.9841	
  -11.2027	0.00137853	  -11.1826	0.00158422	  -11.2483	0.00154841	  -11.2112	0.00150372	  -11.2112	   37.5929	
  -11.3364	0.00136196	  -11.3158	0.00156858	   -11.381	 0.0015334	  -11.3444	0.00148798	  -11.3444	   37.1995	
  -11.4694	0.00134525	  -11.4521	0.00155288	  -11.5132	0.00151831	  -11.4782	0.00147215	  -11.4782	   36.8037	
  -11.6018	0.00132835	   -11.589	0.00153716	  -11.6447	0.00150313	  -11.6118	0.00145622	  -11.6118	   36.4054	
  -11.7343	0.00131126	  -11.7229	0.00152143	  -11.7756	0.00148785	  -11.7443	0.00144018	  -11.7443	   36.0045	
  -11.8663	0.00129397	  -11.8562	0.00150565	  -11.9062	0.00147245	  -11.8762	0.00142403	  -11.8762	   35.6007	
  -11.9969	 0.0012765	   -11.991	0.00148984	  -12.0355	0.00145693	  -12.0078	0.00140775	  -12.0078	   35.1939	
  -12.1274	0.00125886	  -12.1248	0.00147394	  -12.1647	0.00144127	   -12.139	0.00139136	   -12.139	   34.7839	
  -12.2565	0.00124109	  -12.2564	 0.0014579	  -12.2941	0.00142548	   -12.269	0.00137482	   -12.269	   34.3706	
  -12.3852	0.00122321	  -12.3865	 0.0014417	   -12.423	0.00140956	  -12.3983	0.00135816	  -12.3983	   33.9539	
  -12.5149	0.00120528	  -12.5152	0.00142532	  -12.5522	0.00139351	  -12.5274	0.00134137	  -12.5274	   33.5343	
  -12.6429	 0.0011873	  -12.6433	0.00140874	  -12.6806	0.00137735	  -12.6556	0.00132446	  -12.6556	   33.1116	
   -12.771	 0.0011693	  -12.7687	0.00139193	  -12.8084	0.00136107	  -12.7827	0.00130743	  -12.7827	   32.6858	
  -12.8992	0.00115128	  -12.8929	 0.0013749	  -12.9358	0.00134473	  -12.9093	 0.0012903	  -12.9093	   32.2576	
  -13.0261	0.00113325	  -13.0184	0.00135768	   -13.062	0.00132831	  -13.0355	0.00127308	  -13.0355	    31.827	
  -13.1521	0.00111518	  -13.1431	 0.0013403	  -13.1872	0.00131179	  -13.1608	0.00125576	  -13.1608	   31.3939	
  -13.2776	0.00109705	  -13.2665	 0.0013228	  -13.3121	0.00129521	  -13.2854	0.00123835	  -13.2854	   30.9588	
  -13.4037	0.00107882	  -13.3893	0.00130523	  -13.4361	0.00127854	  -13.4097	0.00122086	  -13.4097	   30.5216	
  -13.5291	0.00106048	  -13.5131	0.00128762	  -13.5596	0.00126177	  -13.5339	0.00120329	  -13.5339	   30.0822	
  -13.6543	0.00104198	  -13.6369	   0.00127	  -13.6823	0.00124487	  -13.6578	0.00118562	  -13.6578	   29.6404	
  -13.7794	0.00102333	  -13.7604	0.00125239	  -13.8047	0.00122785	  -13.7815	0.00116785	  -13.7815	   29.1963	
   -13.903	 0.0010045	  -13.8833	0.00123478	  -13.9265	0.00121067	  -13.9042	0.00114998	  -13.9042	   28.7496	
  -14.0258	0.000985511	  -14.0065	0.00121716	  -14.0487	0.00119333	   -14.027	  0.001132	   -14.027	   28.3001	
  -14.1487	0.00096637	  -14.1298	0.00119951	  -14.1717	0.00117583	  -14.1501	 0.0011139	  -14.1501	   27.8476	
  -14.2702	0.000947102	  -14.2513	0.00118177	  -14.2944	0.00115818	   -14.272	0.00109568	   -14.272	   27.3921	
   -14.391	0.000927737	  -14.3722	0.00116391	   -14.417	0.00114038	  -14.3934	0.00107734	  -14.3934	   26.9336	
  -14.5116	0.000908302	  -14.4937	 0.0011459	  -14.5385	0.00112247	  -14.5146	0.00105889	  -14.5146	   26.4723	
  -14.6318	0.000888824	  -14.6153	0.00112767	  -14.6591	0.00110449	  -14.6354	0.00104033	  -14.6354	   26.0082	
  -14.7518	0.000869325	  -14.7351	0.00110921	  -14.7795	0.00108644	  -14.7555	0.00102166	  -14.7555	   25.5415	
  -14.8707	0.000849809	  -14.8545	0.00109057	  -14.8988	0.00106837	  -14.8747	0.00100292	  -14.8747	   25.0729	
  -14.9895	0.000830277	  -14.9738	0.00107176	  -15.0172	0.00105029	  -14.9935	0.000984107	  -14.9935	   24.6027	
  -15.1076	0.000810736	  -15.0938	 0.0010528	  -15.1349	0.00103219	  -15.1121	0.000965242	  -15.1121	   24.1311	
  -15.2248	0.000791188	  -15.2137	0.00103377	  -15.2519	0.00101407	  -15.2302	0.00094634	  -15.2302	   23.6585	
  -15.3422	0.00077158	  -15.3326	 0.0010147	  -15.3685	0.000995906	  -15.3478	0.000927397	  -15.3478	   23.1849	
  -15.4581	0.000751871	  -15.4514	0.000995641	  -15.4845	0.000977677	  -15.4647	0.000908396	  -15.4647	   22.7099	
  -15.5736	0.000732044	  -15.5705	0.000976592	  -15.6001	0.000959339	  -15.5814	0.000889325	  -15.5814	   22.2331	
  -15.6892	0.000712065	  -15.6887	0.000957572	  -15.7157	0.000940873	  -15.6979	0.00087017	  -15.6979	   21.7543	
  -15.8031	0.000691918	  -15.8059	0.000938563	  -15.8305	0.000922257	  -15.8132	0.000850913	  -15.8132	   21.2728	
  -15.9166	0.00067159	  -15.9214	0.000919546	  -15.9448	0.000903474	  -15.9276	0.000831537	  -15.9276	   20.7884	
  -16.0294	0.000651093	  -16.0353	0.000900525	  -16.0575	0.000884524	  -16.0407	0.000812047	  -16.0407	   20.3012	
  -16.1411	0.000630448	   -16.149	0.000881471	  -16.1697	0.000865424	  -16.1533	0.000792448	  -16.1533	   19.8112	
   -16.253	0.000609688	  -16.2613	0.000862322	  -16.2806	0.000846195	   -16.265	0.000772735	   -16.265	   19.3184	
  -16.3647	0.000588862	  -16.3724	0.000843039	  -16.3905	0.000826865	  -16.3758	0.000752922	  -16.3758	   18.8231	
  -16.4758	0.000568008	  -16.4816	0.000823634	  -16.4999	0.000807474	  -16.4858	0.000733039	  -16.4858	    18.326	
  -16.5866	0.000547154	  -16.5891	0.000804076	  -16.6082	0.000788056	  -16.5947	0.000713095	  -16.5947	   17.8274	
  -16.6963	0.000526342	  -16.6951	0.00078435	  -16.7149	0.000768635	  -16.7021	0.000693109	  -16.7021	   17.3277	
  -16.8055	 0.0005056	  -16.7995	0.000764462	  -16.8209	0.000749234	  -16.8087	0.000673099	  -16.8087	   16.8275	
  -16.9138	0.000484931	  -16.9041	0.000744431	  -16.9263	0.000729858	  -16.9147	0.000653073	  -16.9147	   16.3268	
  -17.0216	0.000464315	  -17.0078	0.000724291	  -17.0315	0.000710499	  -17.0203	0.000633035	  -17.0203	   15.8259	
  -17.1291	0.00044372	  -17.1096	0.000704051	  -17.1361	0.000691223	  -17.1249	0.000612998	  -17.1249	   15.3249	
  -17.2347	0.000423112	  -17.2109	0.000683765	  -17.2393	0.000671976	  -17.2283	0.000592951	  -17.2283	   14.8238	
  -17.3396	0.00040245	  -17.3123	0.000663463	  -17.3414	0.000652704	  -17.3311	0.000572873	  -17.3311	   14.3218	
  -17.4436	0.000381692	  -17.4147	0.000643172	  -17.4416	0.000633347	  -17.4333	0.000552737	  -17.4333	   13.8184	
  -17.5464	0.000360783	  -17.5151	0.000622925	  -17.5414	0.000613871	  -17.5343	0.000532526	  -17.5343	   13.3132	
  -17.6485	0.000339613	  -17.6159	0.000602727	   -17.638	0.000594247	  -17.6342	0.000512196	  -17.6342	   12.8049	
  -17.7499	0.00031822	  -17.7186	0.00058258	  -17.7316	0.000574403	  -17.7333	0.000491734	  -17.7333	   12.2934	
  -17.8502	0.000296648	  -17.8209	0.000562454	  -17.8255	0.000554354	  -17.8322	0.000471152	  -17.8322	   11.7788	
  -17.9497	0.000274941	  -17.9199	0.000542312	  -17.9212	0.000534129	  -17.9303	0.000450461	  -17.9303	   11.2615	
  -18.0483	0.000253171	   -18.019	0.000522137	  -18.0144	0.000513752	  -18.0273	0.000429687	  -18.0273	   10.7422	
  -18.1474	0.000231407	  -18.1186	0.000501885	  -18.1051	0.000493299	  -18.1237	0.000408864	  -18.1237	   10.2216	
  -18.2458	0.000209761	  -18.2171	0.000481534	  -18.1969	0.000472826	  -18.2199	0.00038804	  -18.2199	   9.70101	
   -18.344	0.000188275	  -18.3126	0.000461064	  -18.2936	0.000452381	  -18.3167	0.00036724	  -18.3167	   9.18101	
  -18.4414	0.000166958	  -18.4078	0.000440455	  -18.3914	0.000432038	  -18.4135	0.000346484	  -18.4135	   8.66209	
  -18.5375	0.000145805	  -18.5039	0.000419719	  -18.4851	0.000411859	  -18.5088	0.000325794	  -18.5088	   8.14485	
  -18.6324	0.000124758	  -18.5996	0.000398868	  -18.5786	0.000391875	  -18.6035	0.000305167	  -18.6035	   7.62917	
  -18.7269	0.000103771	  -18.6927	0.000377938	  -18.6757	0.000372051	  -18.6984	0.000284587	  -18.6984	   7.11467	
  -18.8208	8.27946e-05	   -18.785	0.000356967	  -18.7731	0.000352355	   -18.793	0.000264039	   -18.793	   6.60098	
  -18.9138	6.17224e-05	  -18.8773	0.000335987	  -18.8689	0.000332748	  -18.8867	0.000243486	  -18.8867	   6.08714	
  -19.0057	4.04602e-05	  -18.9697	0.000315042	  -18.9642	0.000313155	  -18.9799	0.000222886	  -18.9799	   5.57214	
  -19.0978	1.89524e-05	   -19.061	0.000294153	  -19.0602	0.00029352	   -19.073	0.000202209	   -19.073	   5.05522	
  -19.1883	-2.80118e-06	  -19.1515	0.000273341	  -19.1553	0.000273771	   -19.165	0.000181437	   -19.165	   4.53592	
  -19.2775	-2.47896e-05	  -19.2429	0.000252603	  -19.2471	0.000253848	  -19.2558	0.000160554	  -19.2558	   4.01384	
  -19.3663	-4.69809e-05	  -19.3337	0.000231924	  -19.3377	0.000233721	  -19.3459	0.000139555	  -19.3459	   3.48887	
  -19.4534	-6.92959e-05	  -19.4219	0.000211281	  -19.4276	0.000213391	  -19.4343	0.000118459	  -19.4343	   2.96147	
  -19.5397	-9.16529e-05	  -19.5086	0.000190635	  -19.5167	0.000192887	  -19.5217	9.72897e-05	  -19.5217	   2.43224	
  -19.6259	-0.000113949	  -19.5953	0.000169957	  -19.6037	0.00017224	  -19.6083	7.60826e-05	  -19.6083	   1.90207	
  -19.7108	-0.000136092	  -19.6822	0.000149214	  -19.6887	0.000151513	  -19.6939	5.48781e-05	  -19.6939	   1.37195	
  -19.7952	-0.000158024	  -19.7671	0.000128381	  -19.7735	0.000130783	  -19.7786	3.37133e-05	  -19.7786	  0.842832	
  -19.8794	-0.000179715	  -19.8519	0.000107447	  -19.8567	0.000110111	  -19.8627	1.26146e-05	  -19.8627	  0.315365	
  -19.9627	-0.000201163	  -19.9372	8.64112e-05	  -19.9387	8.95546e-05	  -19.9462	-8.39901e-06	  -19.9462	 -0.209975	
  -20.0453	-0.000222386	  -20.0204	6.52903e-05	  -20.0211	6.91517e-05	  -20.0289	-2.93147e-05	  -20.0289	 -0.732868	
  -20.1263	-0.000243447	  -20.1013	4.41156e-05	  -20.1042	4.89093e-05	  -20.1106	-5.01408e-05	  -20.1106	  -1.25352	
  -20.2068	-0.000264425	  -20.1814	2.29208e-05	  -20.1864	2.88153e-05	  -20.1915	-7.08961e-05	  -20.1915	   -1.7724	
  -20.2869	-0.000285399	  -20.2612	1.74417e-06	   -20.266	8.83996e-06	  -20.2713	-9.16049e-05	  -20.2713	  -2.29012	
   -20.366	-0.000306449	  -20.3401	-1.93791e-05	  -20.3448	-1.10725e-05	  -20.3503	-0.0001123	  -20.3503	  -2.80751	
   -20.445	-0.000327629	  -20.4176	-4.0425e-05	  -20.4252	-3.09891e-05	  -20.4293	-0.000133014	  -20.4293	  -3.32536	
  -20.5228	-0.000348961	  -20.4931	-6.13818e-05	  -20.5053	-5.09612e-05	   -20.507	-0.000153768	   -20.507	   -3.8442	
  -20.6007	-0.000370451	  -20.5683	-8.22482e-05	  -20.5841	-7.10294e-05	  -20.5844	-0.000174576	  -20.5844	   -4.3644	
  -20.6779	-0.000392072	  -20.6432	-0.000103036	  -20.6618	-9.12286e-05	   -20.661	-0.000195446	   -20.661	  -4.88614	
  -20.7542	-0.000413766	  -20.7174	-0.00012377	  -20.7394	-0.000111568	   -20.737	-0.000216368	   -20.737	   -5.4092	
  -20.8299	-0.00043546	  -20.7904	-0.000144473	  -20.8169	-0.000132029	  -20.8124	-0.000237321	  -20.8124	  -5.93302	
   -20.905	-0.000457086	  -20.8625	-0.000165177	  -20.8917	-0.000152576	  -20.8864	-0.00025828	  -20.8864	    -6.457	
  -20.9797	-0.000478579	   -20.934	-0.000185909	  -20.9657	-0.000173159	  -20.9598	-0.000279216	  -20.9598	   -6.9804	
  -21.0541	-0.000499877	  -21.0042	-0.000206689	  -21.0397	-0.000193717	  -21.0327	-0.000300094	  -21.0327	  -7.50236	
   -21.126	-0.000520945	  -21.0738	-0.000227523	  -21.1134	-0.000214204	  -21.1044	-0.000320891	  -21.1044	  -8.02227	
  -21.1974	-0.000541776	  -21.1424	-0.000248407	  -21.1858	-0.000234578	  -21.1752	-0.000341587	  -21.1752	  -8.53967	
  -21.2675	-0.000562383	  -21.2101	-0.000269325	  -21.2568	-0.000254811	  -21.2448	-0.000362173	  -21.2448	  -9.05432	
  -21.3369	-0.000582811	  -21.2764	-0.000290252	  -21.3267	-0.000274894	  -21.3133	-0.000382652	  -21.3133	  -9.56631	
  -21.4061	-0.000603118	  -21.3423	-0.00031116	  -21.3966	-0.000294853	  -21.3817	-0.000403044	  -21.3817	  -10.0761	
  -21.4737	-0.000623366	  -21.4077	-0.000332021	  -21.4649	-0.00031472	  -21.4488	-0.000423369	  -21.4488	  -10.5842	
   -21.541	-0.000643613	  -21.4715	-0.000352809	  -21.5322	-0.000334533	  -21.5149	-0.000443652	  -21.5149	  -11.0913	
  -21.6073	-0.000663921	  -21.5345	-0.000373503	  -21.5992	-0.000354337	  -21.5803	-0.00046392	  -21.5803	   -11.598	
  -21.6722	-0.00068432	  -21.5973	-0.000394096	  -21.6648	-0.000374176	  -21.6448	-0.000484197	  -21.6448	  -12.1049	
  -21.7365	-0.00070482	  -21.6589	-0.000414583	  -21.7299	-0.00039408	  -21.7084	-0.000504494	  -21.7084	  -12.6124	
  -21.8005	-0.000725411	    -21.72	-0.000434971	  -21.7933	-0.000414064	  -21.7713	-0.000524815	  -21.7713	  -13.1204	
  -21.8627	-0.000746058	  -21.7797	-0.000455276	  -21.8565	-0.000434133	   -21.833	-0.000545156	   -21.833	  -13.6289	
  -21.9243	-0.000766708	  -21.8389	-0.000475514	  -21.9192	-0.000454263	  -21.8942	-0.000565495	  -21.8942	  -14.1374	
  -21.9846	-0.000787299	   -21.898	-0.000495708	  -21.9799	-0.000474403	  -21.9542	-0.000585803	  -21.9542	  -14.6451	
  -22.0447	-0.00080777	  -21.9568	-0.000515875	  -22.0395	-0.000494526	  -22.0136	-0.000606057	  -22.0136	  -15.1514	
  -22.1039	-0.000828063	  -22.0143	-0.00053603	  -22.0983	-0.000514591	  -22.0722	-0.000626228	  -22.0722	  -15.6557	
  -22.1622	-0.000848142	  -22.0713	-0.000556177	  -22.1563	-0.000534547	  -22.1299	-0.000646288	  -22.1299	  -16.1572	
    -22.22	-0.000867991	  -22.1268	-0.000576316	  -22.2134	-0.000554361	  -22.1867	-0.000666223	  -22.1867	  -16.6556	
  -22.2766	-0.000887613	  -22.1817	-0.00059644	  -22.2694	-0.000574022	  -22.2426	-0.000686025	  -22.2426	  -17.1506	
  -22.3327	-0.000907033	  -22.2356	-0.000616532	  -22.3257	-0.000593522	   -22.298	-0.000705696	   -22.298	  -17.6424	
  -22.3882	-0.000926299	  -22.2886	-0.000636572	  -22.3806	-0.000612927	  -22.3525	-0.000725266	  -22.3525	  -18.1316	
  -22.4422	-0.000945466	  -22.3413	-0.000656541	  -22.4342	-0.000632247	  -22.4059	-0.000744751	  -22.4059	  -18.6188	
  -22.4953	-0.000964591	  -22.3928	-0.00067642	   -22.487	-0.00065149	  -22.4583	-0.000764167	  -22.4583	  -19.1042	
  -22.5466	-0.000983725	  -22.4445	-0.000696192	  -22.5392	-0.000670642	  -22.5101	-0.00078352	  -22.5101	   -19.588	
   -22.597	-0.0010029	  -22.4948	-0.000715852	  -22.5905	-0.000689747	  -22.5607	-0.000802833	  -22.5607	  -20.0708	
   -22.646	-0.00102213	  -22.5441	-0.000735395	  -22.6409	-0.000708827	  -22.6103	-0.000822116	  -22.6103	  -20.5529	
  -22.6947	-0.0010414	  -22.5925	-0.000754828	  -22.6903	-0.000727837	  -22.6592	-0.000841354	  -22.6592	  -21.0338	
  -22.7428	-0.00106068	  -22.6404	-0.00077416	  -22.7382	-0.000746774	  -22.7071	-0.000860538	  -22.7071	  -21.5134	
  -22.7888	-0.00107993	  -22.6872	-0.000793408	  -22.7848	-0.00076563	  -22.7536	-0.000879655	  -22.7536	  -21.9914	
  -22.8333	-0.00109908	  -22.7337	-0.00081259	  -22.8314	-0.000784383	  -22.7995	-0.000898685	  -22.7995	  -22.4671	
  -22.8779	-0.0011181	   -22.779	-0.000831719	  -22.8774	-0.000803039	  -22.8447	-0.000917618	  -22.8447	  -22.9405	
  -22.9212	-0.00113692	  -22.8228	-0.000850805	   -22.922	-0.000821594	  -22.8887	-0.000936439	  -22.8887	   -23.411	
  -22.9644	-0.00115551	  -22.8661	-0.000869853	  -22.9666	-0.000840036	  -22.9324	-0.000955133	  -22.9324	  -23.8783	
   -23.006	-0.00117387	  -22.9088	-0.000888861	  -23.0102	-0.000858377	   -22.975	-0.000973702	   -22.975	  -24.3426	
  -23.0471	 -0.001192	  -22.9509	-0.000907819	  -23.0529	-0.000876654	  -23.0169	-0.000992157	  -23.0169	  -24.8039	
   -23.088	-0.00120993	  -22.9914	-0.000926715	  -23.0944	-0.000894916	  -23.0579	-0.00101052	  -23.0579	   -25.263	
  -23.1277	-0.00122769	  -23.0311	-0.000945532	  -23.1349	-0.000913152	  -23.0979	-0.00102879	  -23.0979	  -25.7198	
  -23.1677	-0.00124535	  -23.0693	-0.000964251	  -23.1743	-0.000931384	  -23.1371	-0.00104699	  -23.1371	  -26.1749	
  -23.2069	-0.00126294	  -23.1067	-0.000982858	  -23.2124	-0.00094963	  -23.1753	-0.00106514	  -23.1753	  -26.6286	
  -23.2447	-0.00128051	  -23.1432	-0.00100134	  -23.2487	-0.000967876	  -23.2122	-0.00108324	  -23.2122	   -27.081	
  -23.2817	-0.00129808	  -23.1783	-0.00101968	  -23.2843	-0.000986111	  -23.2481	-0.00110129	  -23.2481	  -27.5323	
  -23.3172	-0.00131567	  -23.2117	-0.00103788	  -23.3194	-0.00100429	  -23.2828	-0.00111928	  -23.2828	   -27.982	
  -23.3519	-0.00133327	  -23.2447	-0.00105594	  -23.3532	-0.00102237	  -23.3166	-0.0011372	  -23.3166	  -28.4299	
  -23.3865	-0.00135084	  -23.2775	-0.00107389	  -23.3865	-0.00104029	  -23.3502	-0.00115501	  -23.3502	  -28.8752	
  -23.4203	-0.00136836	  -23.3099	-0.00109173	  -23.4184	-0.00105803	  -23.3829	-0.00117271	  -23.3829	  -29.3177	
   -23.452	-0.00138578	  -23.3408	-0.00110948	   -23.449	-0.00107556	  -23.4139	-0.00119028	  -23.4139	  -29.7569	
   -23.483	-0.00140305	  -23.3706	-0.00112716	  -23.4797	-0.00109287	  -23.4444	-0.00120769	  -23.4444	  -30.1923	
  -23.5128	-0.00142014	  -23.3997	-0.00114477	  -23.5099	-0.00110995	  -23.4742	-0.00122495	  -23.4742	  -30.6239	
  -23.5419	-0.00143702	   -23.427	-0.0011623	  -23.5394	-0.00112686	  -23.5028	-0.00124206	  -23.5028	  -31.0515	
  -23.5693	-0.00145368	  -23.4537	-0.00117976	  -23.5674	-0.00114361	  -23.5301	-0.00125902	  -23.5301	  -31.4754	
  -23.5959	-0.00147012	  -23.4793	-0.00119714	  -23.5946	-0.00116024	  -23.5566	-0.00127583	  -23.5566	  -31.8958	
   -23.622	-0.00148636	  -23.5038	-0.00121444	  -23.6208	-0.0011768	  -23.5822	-0.00129253	  -23.5822	  -32.3133	
  -23.6464	-0.00150243	  -23.5279	-0.00123164	  -23.6454	-0.00119332	  -23.6066	-0.00130913	  -23.6066	  -32.7282	
  -23.6702	-0.00151838	  -23.5514	-0.00124873	  -23.6691	-0.00120983	  -23.6302	-0.00132564	  -23.6302	  -33.1411	
  -23.6932	-0.00153424	  -23.5737	-0.00126572	  -23.6921	-0.00122634	   -23.653	-0.0013421	   -23.653	  -33.5525	
  -23.7154	-0.00155005	  -23.5956	-0.00128259	   -23.715	-0.00124287	  -23.6753	-0.00135851	  -23.6753	  -33.9627	
  -23.7364	-0.00156583	  -23.6168	-0.00129936	  -23.7369	-0.00125938	  -23.6967	-0.00137486	  -23.6967	  -34.3714	
  -23.7566	-0.00158158	  -23.6375	-0.00131601	  -23.7573	-0.00127585	  -23.7171	-0.00139115	  -23.7171	  -34.7787	
  -23.7763	-0.00159731	  -23.6566	-0.00133255	  -23.7766	-0.00129226	  -23.7365	-0.00140738	  -23.7365	  -35.1844	
  -23.7943	-0.00161299	   -23.676	-0.00134897	  -23.7946	-0.00130856	   -23.755	-0.00142351	   -23.755	  -35.5877	
  -23.8119	-0.00162858	  -23.6946	-0.00136528	  -23.8116	-0.00132472	  -23.7727	-0.00143953	  -23.7727	  -35.9882	
  -23.8279	-0.00164406	   -23.712	-0.00138149	  -23.8279	-0.0013407	  -23.7893	-0.00145542	  -23.7893	  -36.3854	
  -23.8429	-0.0016594	  -23.7292	-0.00139759	  -23.8434	-0.00135649	  -23.8052	-0.00147116	  -23.8052	   -36.779	
  -23.8573	-0.00167457	  -23.7452	-0.00141358	  -23.8582	-0.00137208	  -23.8203	-0.00148674	  -23.8203	  -37.1686	
  -23.8703	-0.00168954	  -23.7601	-0.00142946	  -23.8722	-0.00138747	  -23.8342	-0.00150216	  -23.8342	   -37.554	
  -23.8819	-0.00170433	  -23.7745	-0.00144522	  -23.8841	-0.00140269	  -23.8469	-0.00151741	  -23.8469	  -37.9353	
  -23.8937	-0.00171891	  -23.7878	-0.00146087	  -23.8956	-0.00141776	  -23.8591	-0.00153251	  -23.8591	  -38.3128	
  -23.9042	-0.0017333	  -23.8006	-0.00147639	  -23.9059	-0.00143272	  -23.8702	-0.00154747	  -23.8702	  -38.6868	
  -23.9142	-0.00174755	  -23.8115	-0.00149177	   -23.915	-0.00144761	  -23.8802	-0.00156231	  -23.8802	  -39.0578	
  -23.9239	-0.00176164	  -23.8214	-0.00150703	  -23.9236	-0.00146245	  -23.8896	-0.00157704	  -23.8896	   -39.426	
  -23.9331	-0.0017756	  -23.8304	-0.00152217	  -23.9303	-0.00147727	   -23.898	-0.00159168	   -23.898	   -39.792	
  -23.9411	-0.00178946	   -23.839	-0.00153717	  -23.9362	-0.00149207	  -23.9054	-0.00160623	  -23.9054	  -40.1559	
  -23.9479	-0.00180323	  -23.8461	-0.00155205	  -23.9404	-0.00150686	  -23.9115	-0.00162071	  -23.9115	  -40.5178	
  -23.9541	-0.0018169	  -23.8518	-0.00156682	  -23.9434	-0.00152162	  -23.9164	-0.00163511	  -23.9164	  -40.8778	
  -23.9599	-0.00183047	  -23.8569	-0.00158149	  -23.9457	-0.00153631	  -23.9209	-0.00164942	  -23.9209	  -41.2356	
  -23.9652	-0.00184395	  -23.8614	-0.00159605	  -23.9469	-0.00155091	  -23.9245	-0.00166364	  -23.9245	  -41.5909	
  -23.9695	-0.00185731	  -23.8645	-0.00161051	  -23.9468	-0.00156538	  -23.9269	-0.00167773	  -23.9269	  -41.9434	
  -23.9723	-0.00187056	   -23.867	-0.00162489	  -23.9463	-0.00157968	  -23.9286	-0.00169171	  -23.9286	  -42.2928	
  -23.9736	-0.00188366	  -23.8691	-0.00163917	  -23.9447	-0.00159381	  -23.9291	-0.00170555	  -23.9291	  -42.6387	
  -23.9748	-0.00189662	    -23.87	-0.00165336	  -23.9427	-0.00160773	  -23.9292	-0.00171924	  -23.9292	  -42.9809	
  -23.9749	-0.00190942	  -23.8692	-0.00166744	    -23.94	-0.00162145	   -23.928	-0.00173277	   -23.928	  -43.3193	
  -23.9728	-0.00192206	  -23.8673	-0.00168142	  -23.9363	-0.00163499	  -23.9255	-0.00174616	  -23.9255	  -43.6539	
  -23.9703	-0.00193455	  -23.8644	-0.00169527	   -23.932	-0.00164837	  -23.9222	-0.0017594	  -23.9222	  -43.9849	
  -23.9659	-0.0019469	  -23.8607	 -0.001709	  -23.9255	-0.00166162	  -23.9173	-0.00177251	  -23.9173	  -44.3127	
  -23.9598	-0.00195913	  -23.8555	-0.0017226	  -23.9181	-0.00167479	  -23.9111	-0.0017855	  -23.9111	  -44.6376	
  -23.9514	-0.00197124	  -23.8498	-0.00173606	  -23.9095	-0.0016879	  -23.9036	-0.0017984	  -23.9036	    -44.96	
  -23.9422	-0.00198325	  -23.8434	-0.00174939	  -23.9007	-0.00170097	  -23.8954	-0.0018112	  -23.8954	    -45.28	
  -23.9331	-0.00199515	  -23.8358	-0.0017626	  -23.8916	-0.00171402	  -23.8868	-0.00182392	  -23.8868	   -45.598	
  -23.9228	-0.00200696	  -23.8271	-0.00177567	  -23.8815	-0.00172705	  -23.8771	-0.00183656	  -23.8771	   -45.914	
  -23.9121	-0.00201867	  -23.8176	-0.00178863	  -23.8712	-0.00174005	   -23.867	-0.00184912	   -23.867	  -46.2279	
  -23.9004	-0.00203027	  -23.8064	-0.00180148	  -23.8593	-0.00175299	  -23.8554	-0.00186158	  -23.8554	  -46.5396	
  -23.8877	-0.00204176	  -23.7951	-0.00181424	  -23.8472	-0.00176584	  -23.8433	-0.00187395	  -23.8433	  -46.8487	
  -23.8749	-0.00205311	  -23.7832	-0.0018269	  -23.8344	-0.00177857	  -23.8308	-0.0018862	  -23.8308	  -47.1549	
  -23.8604	-0.00206433	  -23.7702	-0.00183948	  -23.8211	-0.00179115	  -23.8172	-0.00189832	  -23.8172	   -47.458	
   -23.846	-0.0020754	  -23.7561	-0.00185198	  -23.8073	-0.00180355	  -23.8031	-0.00191031	  -23.8031	  -47.7578	
  -23.8305	-0.00208633	  -23.7412	-0.00186439	  -23.7931	-0.00181576	  -23.7883	-0.00192216	  -23.7883	   -48.054	
  -23.8146	-0.00209712	  -23.7262	-0.0018767	  -23.7779	-0.00182778	  -23.7729	-0.00193387	  -23.7729	  -48.3467	
  -23.7979	-0.00210778	  -23.7096	-0.00188892	   -23.762	-0.00183961	  -23.7565	-0.00194544	  -23.7565	  -48.6359	
  -23.7803	-0.00211832	  -23.6916	-0.00190102	  -23.7446	-0.00185129	  -23.7388	-0.00195688	  -23.7388	  -48.9219	
   -23.762	-0.00212875	  -23.6728	 -0.001913	  -23.7273	-0.00186283	  -23.7207	-0.0019682	  -23.7207	  -49.2049	
   -23.743	-0.00213909	  -23.6522	-0.00192486	  -23.7093	-0.00187427	  -23.7015	-0.00197941	  -23.7015	  -49.4852	
  -23.7227	-0.00214933	  -23.6315	-0.00193658	  -23.6895	-0.00188565	  -23.6812	-0.00199052	  -23.6812	   -49.763	
  -23.7017	-0.00215949	  -23.6099	-0.00194815	  -23.6686	-0.00189697	  -23.6601	-0.00200154	  -23.6601	  -50.0385	
  -23.6797	-0.00216955	  -23.5883	-0.0019596	  -23.6462	-0.00190825	  -23.6381	-0.00201247	  -23.6381	  -50.3117	
  -23.6563	-0.00217952	  -23.5656	-0.00197091	  -23.6231	-0.00191949	   -23.615	-0.00202331	   -23.615	  -50.5827	
  -23.6329	-0.00218938	  -23.5417	-0.0019821	  -23.5994	-0.00193069	  -23.5913	-0.00203406	  -23.5913	  -50.8515	
  -23.6079	-0.0021991	  -23.5171	-0.00199318	  -23.5739	-0.00194182	  -23.5663	-0.0020447	  -23.5663	  -51.1175	
  -23.5824	-0.00220869	  -23.4915	-0.00200415	  -23.5474	-0.00195286	  -23.5404	-0.00205523	  -23.5404	  -51.3808	
  -23.5556	-0.00221813	  -23.4649	-0.00201503	    -23.52	-0.00196378	  -23.5135	-0.00206565	  -23.5135	  -51.6412	
   -23.528	-0.00222741	  -23.4378	-0.00202583	  -23.4912	-0.00197456	  -23.4856	-0.00207593	  -23.4856	  -51.8983	
  -23.4989	-0.00223652	   -23.409	-0.00203655	  -23.4617	-0.00198518	  -23.4565	-0.00208608	  -23.4565	   -52.152	
  -23.4693	-0.00224547	  -23.3799	-0.00204719	   -23.432	-0.00199563	  -23.4271	-0.0020961	  -23.4271	  -52.4024	
  -23.4393	-0.0022543	    -23.35	-0.00205776	  -23.4014	-0.00200591	  -23.3969	-0.00210599	  -23.3969	  -52.6497	
  -23.4084	 -0.002263	  -23.3189	-0.00206826	  -23.3691	-0.00201603	  -23.3655	-0.00211576	  -23.3655	   -52.894	
  -23.3766	-0.0022716	  -23.2881	-0.00207868	  -23.3348	 -0.002026	  -23.3332	-0.00212542	  -23.3332	  -53.1356	
  -23.3437	-0.00228013	  -23.2558	 -0.002089	  -23.2999	-0.00203586	  -23.2998	 -0.002135	  -23.2998	  -53.3749	
  -23.3103	-0.0022886	  -23.2226	-0.00209922	  -23.2641	-0.00204563	  -23.2657	-0.00214448	  -23.2657	  -53.6121	
  -23.2761	-0.00229703	  -23.1888	-0.00210932	  -23.2271	-0.00205532	  -23.2307	-0.00215389	  -23.2307	  -53.8472	
  -23.2418	-0.00230542	  -23.1538	-0.0021193	  -23.1896	-0.00206496	   -23.195	-0.00216323	   -23.195	  -54.0806	
  -23.2059	-0.00231376	   -23.118	-0.00212914	  -23.1511	-0.00207456	  -23.1584	-0.00217249	  -23.1584	  -54.3122	
  -23.1696	-0.00232204	  -23.0813	-0.00213885	  -23.1125	-0.00208412	  -23.1212	-0.00218167	  -23.1212	  -54.5417	
  -23.1321	-0.00233023	  -23.0433	-0.0021484	  -23.0733	-0.00209362	  -23.0829	-0.00219075	  -23.0829	  -54.7688	
   -23.093	-0.00233834	  -23.0048	-0.00215782	  -23.0322	-0.00210306	  -23.0433	-0.00219974	  -23.0433	  -54.9935	
   -23.054	-0.00234632	  -22.9651	-0.00216712	  -22.9901	-0.0021124	  -23.0031	-0.00220861	  -23.0031	  -55.2153	
  -23.0144	-0.00235416	  -22.9243	-0.0021763	  -22.9476	-0.00212163	  -22.9621	-0.00221736	  -22.9621	   -55.434	
  -22.9745	-0.00236183	   -22.882	-0.00218538	  -22.9045	-0.00213072	  -22.9203	-0.00222598	  -22.9203	  -55.6494	
  -22.9338	-0.00236933	  -22.8386	-0.00219438	  -22.8602	-0.00213966	  -22.8775	-0.00223446	  -22.8775	  -55.8614	
  -22.8917	-0.00237667	  -22.7942	-0.0022033	  -22.8151	-0.00214845	  -22.8337	-0.00224281	  -22.8337	  -56.0701	
  -22.8488	-0.00238385	  -22.7485	-0.00221214	  -22.7698	-0.00215709	   -22.789	-0.00225103	   -22.789	  -56.2756	
  -22.8041	-0.00239088	  -22.7024	-0.00222091	  -22.7232	-0.00216558	  -22.7432	-0.00225912	  -22.7432	  -56.4781	
  -22.7577	-0.00239779	  -22.6559	-0.00222958	  -22.6758	-0.00217395	  -22.6965	-0.0022671	  -22.6965	  -56.6776	
  -22.7115	-0.00240461	  -22.6086	-0.00223814	  -22.6277	-0.00218222	  -22.6492	-0.00227499	  -22.6492	  -56.8747	
  -22.6649	-0.00241135	  -22.5598	-0.00224661	  -22.5782	-0.00219041	   -22.601	-0.00228279	   -22.601	  -57.0697	
  -22.6173	-0.00241804	  -22.5099	-0.00225499	  -22.5277	-0.00219856	  -22.5517	-0.00229053	  -22.5517	  -57.2633	
  -22.5691	-0.0024247	  -22.4591	-0.00226328	  -22.4764	-0.00220667	  -22.5015	-0.00229822	  -22.5015	  -57.4555	
  -22.5192	-0.00243133	  -22.4087	-0.00227148	  -22.4249	-0.00221475	  -22.4509	-0.00230585	  -22.4509	  -57.6463	
   -22.469	-0.00243792	  -22.3576	-0.00227963	  -22.3723	-0.00222278	  -22.3997	-0.00231344	  -22.3997	  -57.8361	
  -22.4167	-0.00244446	  -22.3058	-0.00228774	  -22.3185	-0.00223074	   -22.347	-0.00232098	   -22.347	  -58.0246	
  -22.3639	-0.00245095	  -22.2524	-0.0022958	  -22.2641	-0.00223862	  -22.2934	-0.00232846	  -22.2934	  -58.2114	
  -22.3099	-0.00245734	  -22.1982	-0.00230382	  -22.2095	-0.00224639	  -22.2392	-0.00233585	  -22.2392	  -58.3962	
  -22.2537	-0.00246361	  -22.1444	-0.00231175	  -22.1532	-0.00225402	  -22.1838	-0.00234313	  -22.1838	  -58.5782	
  -22.1965	-0.00246976	  -22.0897	-0.0023196	  -22.0957	-0.00226151	  -22.1273	-0.00235029	  -22.1273	  -58.7572	
  -22.1377	-0.00247575	  -22.0336	-0.00232736	  -22.0364	-0.00226884	  -22.0692	-0.00235732	  -22.0692	  -58.9329	
  -22.0784	-0.00248159	  -21.9771	-0.00233501	   -21.976	-0.00227602	  -22.0105	-0.00236421	  -22.0105	  -59.1052	
  -22.0188	-0.00248727	  -21.9197	-0.00234251	  -21.9151	-0.00228307	  -21.9512	-0.00237095	  -21.9512	  -59.2738	
  -21.9583	-0.0024928	  -21.8616	-0.00234986	  -21.8532	-0.00228999	   -21.891	-0.00237755	   -21.891	  -59.4388	
  -21.8976	-0.0024982	  -21.8028	-0.00235705	  -21.7911	-0.00229681	  -21.8305	-0.00238402	  -21.8305	  -59.6005	
  -21.8357	-0.0025035	  -21.7417	-0.00236409	  -21.7269	-0.00230355	  -21.7681	-0.00239038	  -21.7681	  -59.7595	
  -21.7726	-0.00250872	    -21.68	 -0.002371	  -21.6625	-0.00231023	   -21.705	-0.00239665	   -21.705	  -59.9162	
  -21.7089	-0.00251388	  -21.6159	-0.00237778	  -21.5967	-0.00231685	  -21.6405	-0.00240284	  -21.6405	  -60.0709	
  -21.6436	-0.00251899	  -21.5508	-0.00238446	  -21.5303	-0.00232343	  -21.5749	-0.00240896	  -21.5749	   -60.224	
  -21.5783	-0.00252408	  -21.4847	-0.00239108	   -21.463	-0.00232997	  -21.5087	-0.00241504	  -21.5087	  -60.3761	
  -21.5118	-0.00252915	  -21.4172	-0.00239764	  -21.3966	-0.00233647	  -21.4419	-0.00242109	  -21.4419	  -60.5273	
  -21.4437	-0.0025342	  -21.3492	-0.00240418	  -21.3283	-0.00234293	  -21.3737	-0.0024271	  -21.3737	  -60.6776	
   -21.375	-0.00253921	  -21.2796	-0.00241069	  -21.2594	-0.00234933	  -21.3047	-0.00243308	  -21.3047	  -60.8269	
   -21.306	-0.00254416	  -21.2086	-0.00241718	    -21.19	-0.00235568	  -21.2349	 -0.002439	  -21.2349	  -60.9751	
   -21.236	-0.00254902	   -21.138	-0.00242364	    -21.12	-0.00236194	  -21.1647	-0.00244487	  -21.1647	  -61.1217	
  -21.1663	-0.00255377	  -21.0665	-0.00243007	  -21.0499	-0.00236812	  -21.0942	-0.00245065	  -21.0942	  -61.2663	
  -21.0947	-0.0025584	  -20.9945	-0.00243643	  -20.9786	-0.00237419	  -21.0226	-0.00245634	  -21.0226	  -61.4085	
  -21.0225	-0.00256289	  -20.9217	-0.00244271	   -20.907	-0.00238013	  -20.9504	-0.00246191	  -20.9504	  -61.5477	
  -20.9492	-0.00256722	  -20.8488	-0.00244887	  -20.8341	-0.00238594	  -20.8774	-0.00246734	  -20.8774	  -61.6835	
  -20.8744	-0.00257142	  -20.7762	-0.00245488	  -20.7604	-0.00239161	  -20.8037	-0.00247264	  -20.8037	  -61.8159	
  -20.7991	-0.00257548	  -20.7026	-0.00246075	  -20.6867	-0.00239715	  -20.7295	-0.00247779	  -20.7295	  -61.9448	
  -20.7233	-0.00257943	  -20.6297	-0.00246644	  -20.6114	-0.0024026	  -20.6548	-0.00248282	  -20.6548	  -62.0706	
  -20.6469	-0.0025833	  -20.5555	-0.00247195	  -20.5352	-0.00240795	  -20.5792	-0.00248773	  -20.5792	  -62.1933	
  -20.5707	-0.00258712	  -20.4805	-0.0024773	  -20.4576	-0.0024132	  -20.5029	-0.00249254	  -20.5029	  -62.3135	
  -20.4928	-0.00259089	  -20.4049	-0.00248252	  -20.3789	-0.0024184	  -20.4256	-0.00249727	  -20.4256	  -62.4318	
  -20.4138	-0.00259465	  -20.3282	-0.00248761	     -20.3	-0.00242355	  -20.3473	-0.00250194	  -20.3473	  -62.5484	
  -20.3331	-0.00259838	  -20.2508	-0.00249262	    -20.22	-0.00242865	  -20.2679	-0.00250655	  -20.2679	  -62.6638	
  -20.2526	-0.0026021	  -20.1714	-0.00249759	  -20.1398	-0.0024337	  -20.1879	-0.00251113	  -20.1879	  -62.7783	
  -20.1714	-0.00260578	  -20.0909	-0.00250253	  -20.0593	-0.0024387	  -20.1072	-0.00251567	  -20.1072	  -62.8917	
  -20.0887	-0.0026094	    -20.01	-0.00250747	   -19.977	-0.00244364	  -20.0252	-0.00252017	  -20.0252	  -63.0042	
  -20.0055	-0.00261295	  -19.9271	-0.00251243	  -19.8946	-0.0024485	  -19.9424	-0.00252463	  -19.9424	  -63.1157	
  -19.9216	-0.0026164	   -19.843	-0.0025174	   -19.811	-0.00245326	  -19.8585	-0.00252902	  -19.8585	  -63.2256	
  -19.8372	-0.00261973	  -19.7578	-0.00252236	   -19.727	-0.00245792	   -19.774	-0.00253334	   -19.774	  -63.3334	
  -19.7526	-0.00262293	  -19.6714	-0.00252728	  -19.6424	-0.00246248	  -19.6888	-0.00253756	  -19.6888	   -63.439	
  -19.6677	-0.00262599	  -19.5835	-0.00253214	  -19.5566	-0.00246693	  -19.6026	-0.00254169	  -19.6026	  -63.5421	
  -19.5832	-0.00262892	  -19.4951	-0.0025369	  -19.4694	-0.00247127	  -19.5159	-0.0025457	  -19.5159	  -63.6424	
  -19.4984	-0.00263174	  -19.4061	-0.00254151	  -19.3821	-0.00247552	  -19.4289	-0.00254959	  -19.4289	  -63.7397	
  -19.4116	-0.00263446	  -19.3164	-0.00254598	  -19.2943	-0.00247969	  -19.3408	-0.00255337	  -19.3408	  -63.8343	
   -19.324	-0.00263709	   -19.225	-0.0025503	  -19.2061	-0.00248378	  -19.2517	-0.00255706	  -19.2517	  -63.9264	
  -19.2352	-0.00263967	  -19.1335	-0.00255445	  -19.1172	-0.00248782	   -19.162	-0.00256065	   -19.162	  -64.0162	
  -19.1455	-0.00264221	  -19.0424	-0.00255848	   -19.028	-0.00249181	   -19.072	-0.00256417	   -19.072	  -64.1042	
  -19.0553	-0.00264472	  -18.9503	-0.0025624	  -18.9382	-0.00249576	  -18.9813	-0.00256763	  -18.9813	  -64.1907	
  -18.9642	-0.0026472	  -18.8563	-0.00256622	  -18.8471	-0.00249968	  -18.8892	-0.00257104	  -18.8892	  -64.2759	
  -18.8728	-0.00264966	  -18.7621	-0.00256997	  -18.7558	-0.00250356	  -18.7969	-0.0025744	  -18.7969	    -64.36	
  -18.7804	-0.00265207	  -18.6682	-0.0025737	  -18.6624	-0.00250739	  -18.7037	-0.00257772	  -18.7037	   -64.443	
  -18.6874	-0.00265443	  -18.5733	-0.00257741	   -18.569	-0.00251116	  -18.6099	 -0.002581	  -18.6099	   -64.525	
  -18.5942	-0.00265673	  -18.4763	-0.00258111	  -18.4751	-0.00251485	  -18.5152	-0.00258423	  -18.5152	  -64.6057	
  -18.4999	-0.00265894	  -18.3801	-0.00258481	  -18.3802	-0.00251846	  -18.4201	-0.0025874	  -18.4201	   -64.685	
  -18.4053	-0.00266106	  -18.2827	-0.00258849	  -18.2841	-0.00252197	   -18.324	-0.00259051	   -18.324	  -64.7626	
  -18.3093	-0.00266307	  -18.1836	-0.00259213	  -18.1878	-0.00252539	  -18.2269	-0.00259353	  -18.2269	  -64.8382	
  -18.2124	-0.00266497	  -18.0839	-0.00259573	  -18.0902	-0.0025287	  -18.1289	-0.00259647	  -18.1289	  -64.9117	
  -18.1149	-0.00266676	  -17.9842	-0.00259928	  -17.9925	-0.00253192	  -18.0305	-0.00259932	  -18.0305	   -64.983	
  -18.0163	-0.00266845	   -17.884	-0.00260274	  -17.8942	-0.00253505	  -17.9315	-0.00260208	  -17.9315	   -65.052	
   -17.917	-0.00267006	  -17.7829	-0.00260609	  -17.7949	-0.00253809	  -17.8316	-0.00260475	  -17.8316	  -65.1187	
  -17.8169	-0.00267159	  -17.6806	-0.00260934	  -17.6948	-0.00254107	  -17.7308	-0.00260733	  -17.7308	  -65.1833	
  -17.7161	-0.00267307	  -17.5783	-0.00261247	  -17.5938	-0.00254397	  -17.6294	-0.00260984	  -17.6294	  -65.2459	
  -17.6147	-0.00267451	  -17.4764	-0.00261547	  -17.4917	-0.0025468	  -17.5276	-0.00261226	  -17.5276	  -65.3065	
  -17.5127	-0.00267591	  -17.3737	-0.00261837	  -17.3895	-0.00254958	  -17.4253	-0.00261462	  -17.4253	  -65.3655	
  -17.4103	-0.0026773	  -17.2706	-0.00262117	   -17.286	-0.0025523	  -17.3223	-0.00261692	  -17.3223	   -65.423	
  -17.3073	-0.00267865	  -17.1666	-0.00262387	  -17.1824	-0.00255496	  -17.2188	-0.00261916	  -17.2188	   -65.479	
  -17.2032	-0.00267998	  -17.0635	-0.0026265	  -17.0783	-0.00255756	   -17.115	-0.00262135	   -17.115	  -65.5337	
  -17.0989	-0.00268127	  -16.9597	-0.00262909	  -16.9735	-0.00256011	  -17.0107	-0.00262349	  -17.0107	  -65.5872	
  -16.9929	-0.0026825	  -16.8552	-0.00263163	  -16.8681	-0.0025626	  -16.9054	-0.00262558	  -16.9054	  -65.6394	
   -16.886	-0.00268367	  -16.7507	-0.00263414	  -16.7624	-0.00256505	  -16.7997	-0.00262762	  -16.7997	  -65.6905	
  -16.7797	-0.00268477	  -16.6449	-0.00263664	  -16.6562	-0.00256744	  -16.6936	-0.00262962	  -16.6936	  -65.7404	
  -16.6727	-0.00268577	  -16.5378	-0.00263911	  -16.5493	-0.00256977	  -16.5866	-0.00263155	  -16.5866	  -65.7888	
  -16.5655	-0.00268669	  -16.4302	-0.00264155	  -16.4419	-0.00257205	  -16.4792	-0.00263343	  -16.4792	  -65.8358	
  -16.4579	-0.00268752	  -16.3222	-0.00264396	  -16.3337	-0.00257427	  -16.3713	-0.00263525	  -16.3713	  -65.8813	
  -16.3501	-0.00268826	  -16.2137	-0.00264633	   -16.225	-0.00257643	  -16.2629	-0.00263701	  -16.2629	  -65.9252	
  -16.2411	-0.00268894	  -16.1036	-0.00264863	  -16.1162	-0.00257851	  -16.1536	-0.00263869	  -16.1536	  -65.9673	
  -16.1319	-0.00268956	  -15.9931	-0.00265085	  -16.0062	-0.00258051	  -16.0437	-0.00264031	  -16.0437	  -66.0077	
  -16.0221	-0.00269014	  -15.8818	-0.00265299	  -15.8954	-0.00258248	  -15.9331	-0.00264187	  -15.9331	  -66.0468	
  -15.9119	-0.00269071	  -15.7697	-0.00265504	  -15.7838	-0.0025844	  -15.8218	-0.00264338	  -15.8218	  -66.0845	
  -15.8004	-0.00269125	  -15.6577	-0.00265698	  -15.6708	-0.00258623	  -15.7096	-0.00264482	  -15.7096	  -66.1205	
  -15.6883	-0.00269177	  -15.5446	-0.00265883	  -15.5579	-0.00258801	  -15.5969	-0.00264621	  -15.5969	  -66.1551	
   -15.575	-0.00269226	  -15.4316	-0.0026606	  -15.4443	-0.00258976	  -15.4836	-0.00264754	  -15.4836	  -66.1885	
   -15.461	-0.00269271	  -15.3182	-0.0026623	    -15.33	-0.00259142	  -15.3698	-0.00264881	  -15.3698	  -66.2202	
  -15.3474	-0.00269308	  -15.2036	-0.00266393	  -15.2152	-0.00259296	  -15.2554	-0.00264999	  -15.2554	  -66.2498	
  -15.2328	-0.00269337	   -15.088	-0.00266551	  -15.0991	-0.00259438	    -15.14	-0.00265109	    -15.14	  -66.2772	
  -15.1179	-0.00269357	   -14.972	-0.00266704	  -14.9833	-0.00259567	  -15.0244	-0.00265209	  -15.0244	  -66.3023	
  -15.0024	-0.00269367	  -14.8558	-0.00266852	  -14.8674	-0.00259681	  -14.9085	 -0.002653	  -14.9085	   -66.325	
  -14.8859	-0.00269367	    -14.74	-0.00266996	  -14.7496	-0.00259781	  -14.7918	-0.00265381	  -14.7918	  -66.3453	
  -14.7689	-0.00269359	  -14.6225	-0.00267137	  -14.6312	-0.00259868	  -14.6742	-0.00265454	  -14.6742	  -66.3636	
   -14.651	-0.00269342	  -14.5052	-0.00267276	  -14.5112	-0.00259942	  -14.5558	-0.0026552	  -14.5558	    -66.38	
  -14.5327	-0.00269317	  -14.3872	-0.00267413	  -14.3906	-0.00260011	  -14.4368	-0.0026558	  -14.4368	   -66.395	
  -14.4139	-0.00269286	  -14.2681	-0.00267543	  -14.2703	-0.00260079	  -14.3174	-0.00265636	  -14.3174	   -66.409	
   -14.294	-0.00269253	  -14.1485	-0.00267666	  -14.1488	-0.00260148	  -14.1971	-0.00265689	  -14.1971	  -66.4222	
  -14.1734	-0.00269217	  -14.0277	-0.0026778	  -14.0264	-0.00260221	  -14.0758	-0.00265739	  -14.0758	  -66.4349	
   -14.052	-0.0026918	  -13.9065	-0.00267883	  -13.9038	-0.00260302	  -13.9541	-0.00265788	  -13.9541	  -66.4471	
  -13.9298	-0.00269141	   -13.785	-0.00267972	  -13.7811	-0.0026039	  -13.8319	-0.00265834	  -13.8319	  -66.4586	
  -13.8076	-0.00269102	  -13.6624	-0.00268048	  -13.6574	-0.00260481	  -13.7091	-0.00265877	  -13.7091	  -66.4692	
  -13.6844	-0.0026906	  -13.5394	-0.00268112	  -13.5331	-0.00260574	  -13.5857	-0.00265915	  -13.5857	  -66.4788	
  -13.5614	-0.00269013	  -13.4155	-0.00268164	  -13.4088	-0.00260665	  -13.4619	-0.00265947	  -13.4619	  -66.4868	
  -13.4382	-0.0026896	  -13.2916	-0.00268206	  -13.2846	-0.00260748	  -13.3381	-0.00265972	  -13.3381	  -66.4929	
  -13.3138	 -0.002689	  -13.1675	-0.00268242	  -13.1596	-0.00260822	  -13.2136	-0.00265988	  -13.2136	   -66.497	
  -13.1891	-0.00268831	  -13.0416	-0.00268273	  -13.0344	-0.00260881	  -13.0884	-0.00265995	  -13.0884	  -66.4987	
  -13.0638	-0.00268751	  -12.9155	-0.00268301	  -12.9086	-0.00260921	  -12.9626	-0.00265991	  -12.9626	  -66.4977	
  -12.9376	-0.00268661	  -12.7892	-0.0026833	  -12.7834	-0.00260939	  -12.8368	-0.00265977	  -12.8368	  -66.4942	
  -12.8107	-0.00268559	  -12.6626	-0.00268361	  -12.6588	-0.00260936	  -12.7107	-0.00265952	  -12.7107	   -66.488	
  -12.6825	-0.00268446	  -12.5359	-0.00268391	  -12.5348	-0.00260914	  -12.5844	-0.00265917	  -12.5844	  -66.4793	
  -12.5539	-0.00268322	  -12.4087	-0.0026842	  -12.4106	-0.00260875	  -12.4577	-0.00265873	  -12.4577	  -66.4681	
  -12.4242	-0.00268187	  -12.2807	-0.00268447	  -12.2862	-0.00260825	  -12.3304	-0.0026582	  -12.3304	  -66.4549	
  -12.2941	-0.00268044	  -12.1522	-0.00268468	  -12.1615	-0.0026077	  -12.2026	-0.00265761	  -12.2026	  -66.4402	
  -12.1638	-0.00267896	  -12.0224	-0.00268482	  -12.0353	-0.00260716	  -12.0738	-0.00265698	  -12.0738	  -66.4244	
  -12.0325	-0.00267746	  -11.8924	-0.00268485	  -11.9082	-0.00260666	  -11.9444	-0.00265632	  -11.9444	  -66.4081	
  -11.9012	-0.00267597	  -11.7621	-0.00268474	  -11.7791	-0.0026063	  -11.8141	-0.00265567	  -11.8141	  -66.3917	
  -11.7695	-0.00267452	  -11.6318	-0.00268449	  -11.6485	-0.00260603	  -11.6833	-0.00265501	  -11.6833	  -66.3753	
  -11.6377	-0.0026731	  -11.5016	-0.0026841	  -11.5172	-0.00260585	  -11.5522	-0.00265435	  -11.5522	  -66.3588	
  -11.5056	-0.00267173	  -11.3701	-0.00268359	   -11.386	-0.00260574	  -11.4206	-0.00265368	  -11.4206	  -66.3421	
  -11.3728	-0.00267036	  -11.2382	-0.00268296	  -11.2535	-0.00260567	  -11.2882	-0.00265299	  -11.2882	  -66.3249	
  -11.2392	-0.00266897	  -11.1059	-0.00268224	    -11.12	-0.00260556	   -11.155	-0.00265225	   -11.155	  -66.3063	
  -11.1053	-0.00266751	  -10.9736	-0.00268146	  -10.9851	-0.00260533	  -11.0213	-0.00265143	  -11.0213	  -66.2858	
    -10.97	-0.00266595	   -10.841	-0.00268065	  -10.8481	-0.00260496	  -10.8864	-0.00265052	  -10.8864	   -66.263	
  -10.8344	-0.00266428	  -10.7078	-0.00267982	  -10.7108	-0.00260442	   -10.751	-0.00264951	   -10.751	  -66.2377	
  -10.6978	-0.00266245	  -10.5745	-0.00267899	  -10.5738	-0.00260367	  -10.6154	-0.00264837	  -10.6154	  -66.2092	
  -10.5613	-0.00266043	  -10.4405	-0.00267815	   -10.436	-0.00260272	  -10.4793	-0.0026471	  -10.4793	  -66.1775	
  -10.4246	-0.00265821	  -10.3058	-0.0026773	  -10.2971	-0.0026016	  -10.3425	-0.00264571	  -10.3425	  -66.1426	
  -10.2867	-0.00265584	  -10.1716	-0.00267642	  -10.1585	-0.00260034	  -10.2056	-0.0026442	  -10.2056	   -66.105	
  -10.1484	-0.00265332	   -10.037	-0.00267549	  -10.0209	 -0.002599	  -10.0688	-0.0026426	  -10.0688	  -66.0651	
  -10.0091	-0.0026507	  -9.90227	-0.00267448	  -9.88351	-0.00259766	  -9.93164	-0.00264094	  -9.93164	  -66.0236	
  -9.86944	-0.00264799	  -9.76759	-0.00267337	  -9.74459	-0.00259633	  -9.79387	-0.00263923	  -9.79387	  -65.9809	
  -9.73049	-0.00264527	  -9.63214	-0.00267216	  -9.60827	-0.00259507	  -9.65697	-0.0026375	  -9.65697	  -65.9375	
  -9.59097	-0.00264253	  -9.49665	-0.00267082	  -9.47309	-0.0025939	  -9.52024	-0.00263575	  -9.52024	  -65.8938	
  -9.45159	-0.00263978	  -9.36058	-0.00266936	  -9.33744	-0.00259283	   -9.3832	-0.00263399	   -9.3832	  -65.8498	
  -9.31203	-0.00263706	  -9.22439	-0.00266779	  -9.20034	-0.00259184	  -9.24559	-0.00263223	  -9.24559	  -65.8057	
  -9.17132	-0.00263436	  -9.08777	-0.00266611	  -9.06376	-0.00259088	  -9.10762	-0.00263045	  -9.10762	  -65.7613	
  -9.03091	-0.00263166	  -8.95046	-0.00266435	  -8.92808	-0.00258991	  -8.96982	-0.00262864	  -8.96982	   -65.716	
  -8.88882	-0.00262895	  -8.81294	-0.00266253	  -8.79004	-0.00258885	   -8.8306	-0.00262678	   -8.8306	  -65.6695	
  -8.74633	-0.00262621	  -8.67563	-0.00266067	  -8.65023	-0.00258766	  -8.69073	-0.00262485	  -8.69073	  -65.6212	
  -8.60366	-0.00262341	  -8.53751	-0.00265879	  -8.51043	-0.0025863	  -8.55054	-0.00262283	  -8.55054	  -65.5708	
  -8.46007	-0.0026205	  -8.39978	-0.00265689	  -8.37131	-0.00258474	  -8.41039	-0.00262071	  -8.41039	  -65.5178	
  -8.31679	-0.00261745	  -8.26113	-0.00265498	  -8.23107	-0.00258297	  -8.26966	-0.00261847	  -8.26966	  -65.4617	
   -8.1735	-0.00261427	  -8.12232	-0.00265305	  -8.08951	-0.00258101	  -8.12845	-0.00261611	  -8.12845	  -65.4027	
  -8.03041	-0.00261093	  -7.98353	-0.00265108	  -7.94789	-0.00257889	  -7.98728	-0.00261363	  -7.98728	  -65.3408	
  -7.88747	-0.00260744	  -7.84399	-0.00264907	  -7.80665	-0.00257666	  -7.84603	-0.00261106	  -7.84603	  -65.2764	
  -7.74412	-0.00260384	  -7.70393	-0.00264698	  -7.66329	-0.00257437	  -7.70378	-0.00260839	  -7.70378	  -65.2099	
  -7.60181	-0.00260012	  -7.56408	-0.00264481	  -7.51916	-0.00257207	  -7.56168	-0.00260566	  -7.56168	  -65.1416	
  -7.45896	-0.00259632	  -7.42412	-0.00264254	  -7.37642	-0.0025698	  -7.41983	-0.00260288	  -7.41983	  -65.0721	
  -7.31509	-0.00259247	  -7.28377	-0.00264014	  -7.23373	-0.00256759	  -7.27753	-0.00260007	  -7.27753	  -65.0017	
  -7.17289	-0.0025886	  -7.14276	-0.00263763	  -7.09151	-0.00256546	  -7.13572	-0.00259723	  -7.13572	  -64.9307	
  -7.03002	-0.00258472	  -7.00206	 -0.002635	  -6.94752	-0.00256338	   -6.9932	-0.00259437	   -6.9932	  -64.8592	
  -6.88671	-0.00258085	  -6.86159	-0.00263227	  -6.80426	-0.00256134	  -6.85085	-0.00259149	  -6.85085	  -64.7872	
   -6.7437	-0.00257699	  -6.72128	-0.00262945	  -6.66164	-0.00255928	  -6.70887	-0.00258857	  -6.70887	  -64.7143	
  -6.60042	-0.00257312	  -6.58132	-0.00262656	  -6.51763	-0.00255716	  -6.56645	-0.00258562	  -6.56645	  -64.6404	
  -6.45637	-0.00256923	  -6.43993	-0.00262362	  -6.37326	-0.00255492	  -6.42319	-0.00258259	  -6.42319	  -64.5648	
  -6.31231	-0.00256529	  -6.29838	-0.00262065	  -6.22925	-0.00255252	  -6.27998	-0.00257949	  -6.27998	  -64.4872	
  -6.16794	-0.00256127	  -6.15688	-0.00261764	  -6.08575	-0.00254992	  -6.13686	-0.00257628	  -6.13686	  -64.4069	
  -6.02301	-0.00255714	  -6.01537	-0.00261462	  -5.94198	-0.00254711	  -5.99345	-0.00257295	  -5.99345	  -64.3238	
  -5.87776	-0.00255287	  -5.87332	-0.00261156	  -5.79671	-0.00254409	  -5.84926	-0.00256951	  -5.84926	  -64.2376	
  -5.73291	-0.00254846	  -5.73002	-0.00260845	  -5.65146	-0.00254089	  -5.70479	-0.00256593	  -5.70479	  -64.1483	
  -5.58742	-0.00254388	  -5.58671	-0.0026053	  -5.50667	-0.00253754	  -5.56027	-0.00256224	  -5.56027	   -64.056	
  -5.44156	-0.00253915	  -5.44336	-0.00260206	  -5.36132	-0.00253409	  -5.41541	-0.00255844	  -5.41541	  -63.9609	
  -5.29602	-0.00253429	  -5.29872	-0.00259873	  -5.21588	-0.00253059	  -5.27021	-0.00255454	  -5.27021	  -63.8635	
  -5.15052	-0.00252932	  -5.15406	-0.00259529	  -5.06985	-0.00252709	  -5.12481	-0.00255057	  -5.12481	  -63.7641	
  -5.00406	-0.00252427	   -5.0091	-0.00259173	  -4.92468	-0.00252359	  -4.97928	-0.00254653	  -4.97928	  -63.6633	
  -4.85763	-0.00251917	  -4.86406	-0.00258805	  -4.77882	-0.00252014	   -4.8335	-0.00254245	   -4.8335	  -63.5613	
  -4.70976	-0.00251405	  -4.71964	-0.00258424	  -4.63182	-0.00251671	  -4.68707	-0.00253833	  -4.68707	  -63.4584	
  -4.56149	-0.00250889	  -4.57454	-0.00258029	  -4.48469	-0.00251317	  -4.54024	-0.00253412	  -4.54024	  -63.3529	
  -4.41283	-0.00250373	   -4.4295	-0.00257627	  -4.33813	-0.00250962	  -4.39349	-0.00252987	  -4.39349	  -63.2468	
  -4.26426	-0.00249855	  -4.28472	-0.00257219	  -4.19134	-0.00250606	  -4.24678	-0.0025256	  -4.24678	    -63.14	
  -4.11408	-0.00249336	  -4.13871	-0.00256806	  -4.04527	-0.00250246	  -4.09935	-0.0025213	  -4.09935	  -63.0324	
  -3.96358	-0.00248817	    -3.992	-0.0025639	  -3.89887	-0.00249877	  -3.95148	-0.00251695	  -3.95148	  -62.9237	
