# User: ACHyster
# File name: C:/ACHYSTER/ACHyster SENS/SHAMS/CoFe2O4-1gl-water-Zero Glycerol- Sens-07-03-2023/CoFe2O4-1gl-water-zero Glycerol- 10_100F- 24kAm -Sens-07-03-20230006#1.txt
# Saved at: ma. mar. 7 14:49:58 2023
# Hyster Loop (3 iterations). Intensity: 24.0 kA/m; Tuned frequency: 79.9 kHz
# Units x axis: (kA/m)
# Units y axis: "Repeats y" & "Average y" (10^(-3)Am^2); "Mass avg y" (Am^2/kg)
# Magnetic mass: 4e-05 g
# Parameter      	Repeat   1	Repeat   2	Repeat   3	Average   	Sigma     
# H_C (kA/m)     	      17.9	      17.8	      18.3	      18.0	       0.2
# M_R (Am^2/kg)  	      59.1	      60.2	      60.1	      59.8	       0.5
# M_max (Am^2/kg)	      56.1	      57.3	      54.8	      56.1	       1.0
# Area (mJ/kg)   	    5334.4	    5416.4	    5460.0	    5403.6	      52.1
# SAR (W/g)      	     426.4	     432.9	     436.4	     431.9	       4.2
#Repeat 1 x	Repeat 1 y	Repeat 2 x	Repeat 2 y	Repeat 3 x	Repeat 3 y	Average x 	Average y 	Mass avg x 	Mass avg y 
  -3.57608	-0.00254208	  -3.54526	-0.00258602	  -3.63592	-0.00257976	  -3.58575	-0.00256929	  -3.58575	  -64.2322	
  -3.42893	-0.00253548	  -3.39737	-0.00257993	  -3.48681	-0.00257343	   -3.4377	-0.00256295	   -3.4377	  -64.0737	
  -3.28248	-0.00252882	  -3.24941	-0.0025737	  -3.33803	-0.00256711	  -3.28998	-0.00255654	  -3.28998	  -63.9136	
  -3.13561	-0.00252209	  -3.10137	-0.00256727	  -3.18899	-0.00256078	  -3.14199	-0.00255005	  -3.14199	  -63.7512	
  -2.98832	-0.00251527	  -2.95322	-0.00256055	  -3.03969	-0.00255442	  -2.99374	-0.00254342	  -2.99374	  -63.5854	
  -2.84113	-0.00250834	  -2.80493	-0.00255354	  -2.89012	-0.00254801	   -2.8454	-0.00253663	   -2.8454	  -63.4157	
   -2.6927	-0.00250128	  -2.65649	-0.00254627	  -2.74029	-0.00254148	  -2.69649	-0.00252968	  -2.69649	  -63.2419	
  -2.54387	-0.0024941	  -2.50736	-0.00253879	   -2.5907	-0.00253479	  -2.54731	-0.00252256	  -2.54731	  -63.0641	
   -2.3957	-0.00248681	   -2.3581	-0.00253123	  -2.44184	-0.00252793	  -2.39855	-0.00251532	  -2.39855	   -62.883	
  -2.24707	-0.00247941	  -2.20868	-0.00252366	  -2.29311	-0.00252087	  -2.24962	-0.00250798	  -2.24962	  -62.6995	
  -2.09797	-0.00247193	  -2.05961	-0.00251615	  -2.14498	-0.00251364	  -2.10085	-0.00250057	  -2.10085	  -62.5144	
  -1.94843	-0.00246438	  -1.91033	-0.00250876	  -1.99633	-0.00250625	  -1.95169	-0.00249313	  -1.95169	  -62.3283	
  -1.79897	-0.00245676	  -1.76082	-0.00250145	  -1.84717	-0.00249876	  -1.80232	-0.00248566	  -1.80232	  -62.1415	
  -1.64956	-0.00244906	  -1.61107	-0.00249415	   -1.6991	-0.0024912	  -1.65324	-0.00247814	  -1.65324	  -61.9535	
  -1.49992	-0.00244126	  -1.46096	-0.00248678	  -1.55067	-0.0024836	  -1.50385	-0.00247055	  -1.50385	  -61.7637	
  -1.34977	-0.00243334	  -1.31113	-0.00247925	  -1.40164	-0.00247597	  -1.35418	-0.00246286	  -1.35418	  -61.5714	
  -1.19914	-0.00242529	  -1.16155	-0.00247148	  -1.25255	-0.00246832	  -1.20441	-0.00245503	  -1.20441	  -61.3757	
  -1.04909	-0.00241708	  -1.01217	-0.00246342	  -1.10284	-0.00246062	   -1.0547	-0.00244704	   -1.0547	   -61.176	
 -0.899021	-0.00240871	 -0.862418	-0.0024551	 -0.952556	-0.00245282	 -0.904665	-0.00243888	 -0.904665	   -60.972	
 -0.748913	-0.0024002	 -0.712307	-0.00244657	 -0.802233	-0.00244491	 -0.754485	-0.00243056	 -0.754485	  -60.7641	
 -0.598751	-0.00239157	 -0.562887	-0.00243789	 -0.650808	-0.00243686	 -0.604149	-0.00242211	 -0.604149	  -60.5527	
  -0.44956	-0.00238285	 -0.414079	-0.00242915	 -0.500446	-0.00242864	 -0.454695	-0.00241355	 -0.454695	  -60.3387	
 -0.300974	-0.00237407	 -0.264496	-0.00242042	  -0.35039	-0.00242024	 -0.305287	-0.00240491	 -0.305287	  -60.1227	
 -0.151607	-0.00236525	 -0.115483	-0.00241173	 -0.200716	-0.00241168	 -0.155935	-0.00239622	 -0.155935	  -59.9055	
-0.00201949	-0.0023564	  0.033556	-0.00240308	-0.0503211	-0.00240298	-0.00626154	-0.00238749	-0.00626154	  -59.6872	
  0.147797	-0.0023475	  0.182647	-0.00239445	 0.0997076	-0.00239417	  0.143384	-0.00237871	  0.143384	  -59.4676	
  0.297324	-0.00233854	  0.331808	-0.00238576	  0.249946	-0.00238527	  0.293026	-0.00236986	  0.293026	  -59.2464	
   0.44556	-0.00232949	  0.481063	-0.00237692	    0.4004	-0.00237631	  0.442341	-0.00236091	  0.442341	  -59.0227	
  0.594214	-0.0023203	   0.63043	-0.00236788	  0.550553	-0.00236729	  0.591733	-0.00235182	  0.591733	  -58.7956	
  0.743276	-0.00231095	  0.779924	-0.00235858	  0.700452	-0.00235822	  0.741217	-0.00234258	  0.741217	  -58.5645	
  0.893267	-0.00230139	  0.928905	-0.00234901	  0.849619	-0.00234907	  0.890597	-0.00233316	  0.890597	  -58.3289	
   1.04308	-0.00229164	    1.0781	-0.0023392	  0.998662	-0.00233982	   1.03995	-0.00232356	   1.03995	  -58.0889	
   1.19277	-0.00228172	   1.22751	-0.00232921	   1.14814	-0.00233045	   1.18947	-0.00231379	   1.18947	  -57.8448	
   1.34288	-0.00227165	   1.37663	-0.00231909	   1.29804	-0.00232091	   1.33918	-0.00230388	   1.33918	  -57.5971	
    1.4934	-0.00226146	    1.5255	-0.00230892	   1.44784	-0.00231119	   1.48891	-0.00229386	   1.48891	  -57.3465	
    1.6438	-0.0022512	   1.67364	-0.00229874	   1.59703	-0.00230129	   1.63816	-0.00228374	   1.63816	  -57.0936	
   1.79411	-0.00224087	   1.82168	-0.00228858	    1.7457	-0.00229119	   1.78716	-0.00227355	   1.78716	  -56.8386	
   1.94489	-0.00223049	   1.96938	-0.0022784	   1.89457	-0.00228095	   1.93628	-0.00226328	   1.93628	  -56.5819	
   2.09506	-0.00222004	   2.11707	-0.00226817	     2.043	-0.00227057	   2.08504	-0.00225292	   2.08504	  -56.3231	
   2.24522	-0.0022095	   2.26479	-0.00225781	   2.19157	-0.0022601	   2.23386	-0.00224247	   2.23386	  -56.0617	
    2.3954	-0.00219884	   2.41307	-0.00224727	   2.34031	-0.00224956	   2.38293	-0.00223189	   2.38293	  -55.7973	
   2.54563	-0.00218804	   2.56139	-0.0022365	   2.48922	-0.00223896	   2.53208	-0.00222117	   2.53208	  -55.5292	
   2.69538	-0.00217707	   2.70925	-0.00222547	   2.63884	-0.0022283	   2.68116	-0.00221028	   2.68116	   -55.257	
   2.84474	-0.00216592	   2.85723	-0.00221419	    2.7881	-0.00221755	   2.83002	-0.00219922	   2.83002	  -54.9805	
   2.99322	-0.00215458	   3.00484	-0.00220269	   2.93704	-0.00220669	   2.97837	-0.00218799	   2.97837	  -54.6997	
   3.14185	-0.00214307	   3.15213	-0.00219104	   3.08651	-0.00219569	   3.12683	-0.0021766	   3.12683	   -54.415	
   3.28973	-0.00213141	   3.29916	-0.00217929	   3.23623	-0.00218452	   3.27504	-0.00216508	   3.27504	  -54.1269	
   3.43748	-0.00211964	   3.44599	-0.0021675	    3.3862	-0.00217317	   3.42322	-0.00215344	   3.42322	  -53.8359	
   3.58513	-0.00210776	   3.59319	-0.0021557	    3.5359	-0.00216162	   3.57141	-0.00214169	   3.57141	  -53.5423	
    3.7322	-0.00209579	   3.73972	-0.00214386	    3.6859	-0.0021499	   3.71928	-0.00212985	   3.71928	  -53.2462	
   3.87877	-0.00208373	    3.8862	-0.00213195	   3.83568	-0.00213803	   3.86688	-0.0021179	   3.86688	  -52.9476	
   4.02545	-0.00207157	   4.03212	-0.00211994	    3.9858	-0.00212602	   4.01446	-0.00210584	   4.01446	  -52.6461	
   4.17277	-0.00205929	   4.17811	-0.00210775	   4.13573	-0.0021139	    4.1622	-0.00209365	    4.1622	  -52.3412	
   4.31994	-0.00204687	   4.32393	-0.00209534	   4.28564	-0.0021017	   4.30984	-0.0020813	   4.30984	  -52.0326	
   4.46726	-0.00203428	    4.4699	-0.00208267	   4.43543	-0.00208942	   4.45753	-0.00206879	   4.45753	  -51.7197	
   4.61475	-0.00202151	   4.61551	-0.00206974	   4.58566	-0.00207705	    4.6053	-0.0020561	    4.6053	  -51.4025	
   4.76243	-0.00200858	   4.76084	-0.00205656	   4.73525	-0.00206459	   4.75284	-0.00204324	   4.75284	  -51.0811	
   4.91083	-0.00199547	   4.90646	-0.00204319	    4.8843	-0.00205201	   4.90053	-0.00203022	   4.90053	  -50.7556	
   5.05889	-0.00198222	   5.05188	-0.00202968	    5.0334	-0.00203928	   5.04806	-0.00201706	   5.04806	  -50.4266	
   5.20614	-0.00196885	   5.19715	-0.00201608	   5.18204	-0.00202639	   5.19511	-0.00200377	   5.19511	  -50.0944	
   5.35372	-0.00195538	   5.34178	-0.00200242	   5.32976	-0.00201332	   5.34175	-0.00199037	   5.34175	  -49.7593	
   5.50111	-0.00194181	   5.48601	-0.0019887	    5.4772	-0.00200007	   5.48811	-0.00197686	   5.48811	  -49.4216	
   5.64836	-0.00192815	   5.62978	-0.00197492	   5.62441	-0.00198665	   5.63419	-0.00196324	   5.63419	   -49.081	
   5.79499	-0.00191436	    5.7737	-0.00196102	   5.77092	-0.00197308	   5.77987	-0.00194948	   5.77987	  -48.7371	
   5.94162	-0.00190043	   5.91727	-0.00194695	   5.91735	-0.00195936	   5.92541	-0.00193558	   5.92541	  -48.3895	
   6.08879	-0.00188634	   6.06058	-0.00193268	   6.06321	-0.00194553	   6.07086	-0.00192151	   6.07086	  -48.0379	
   6.23597	-0.00187206	   6.20367	-0.0019182	   6.20859	-0.00193159	   6.21608	-0.00190728	   6.21608	   -47.682	
   6.38215	-0.0018576	   6.34716	-0.00190351	   6.35409	-0.00191753	   6.36113	-0.00189288	   6.36113	   -47.322	
   6.52849	-0.00184296	   6.48999	-0.00188864	   6.49869	-0.00190337	   6.50572	-0.00187832	   6.50572	  -46.9581	
   6.67475	-0.00182816	   6.63267	-0.00187362	   6.64251	-0.00188909	   6.64998	-0.00186363	   6.64998	  -46.5906	
   6.82072	-0.00181324	   6.77538	-0.00185848	   6.78617	-0.00187468	   6.79409	-0.0018488	   6.79409	    -46.22	
   6.96697	-0.00179821	   6.91712	-0.00184323	   6.92974	-0.00186013	   6.93795	-0.00183386	   6.93795	  -45.8464	
   7.11248	-0.00178308	   7.05907	-0.0018279	   7.07222	-0.00184543	   7.08126	-0.0018188	   7.08126	  -45.4701	
   7.25787	-0.00176786	   7.20126	-0.00181248	   7.21427	-0.00183057	   7.22447	-0.00180364	   7.22447	  -45.0909	
   7.40319	-0.00175253	   7.34372	-0.00179698	   7.35651	-0.00181556	    7.3678	-0.00178836	    7.3678	  -44.7089	
   7.54795	-0.00173708	   7.48596	-0.00178136	    7.4979	-0.0018004	   7.51061	-0.00177294	   7.51061	  -44.3236	
   7.69225	-0.00172148	   7.62753	-0.00176558	   7.63963	-0.00178509	   7.65314	-0.00175738	   7.65314	  -43.9346	
   7.83589	-0.00170572	   7.76878	-0.00174963	   7.78094	-0.00176964	    7.7952	-0.00174166	    7.7952	  -43.5415	
   7.97873	-0.00168978	   7.91058	-0.00173346	   7.92268	 -0.001754	   7.93733	-0.00172574	   7.93733	  -43.1436	
   8.12191	-0.00167364	   8.05241	-0.00171704	   8.06385	-0.0017382	   8.07939	-0.00170962	   8.07939	  -42.7406	
   8.26441	-0.00165731	   8.19328	-0.00170037	   8.20557	-0.00172226	   8.22109	-0.00169331	   8.22109	  -42.3329	
   8.40633	-0.00164081	   8.33331	-0.00168346	   8.34786	-0.00170612	    8.3625	-0.0016768	    8.3625	    -41.92	
   8.54778	-0.00162415	   8.47368	-0.00166636	   8.48967	-0.00168987	   8.50371	-0.00166012	   8.50371	  -41.5031	
   8.68883	-0.00160734	   8.61389	-0.00164911	   8.63215	-0.0016735	   8.64496	-0.00164332	   8.64496	   -41.083	
   8.82932	-0.00159043	   8.75258	-0.00163176	   8.77554	-0.00165705	   8.78581	-0.00162641	   8.78581	  -40.6604	
   8.96909	-0.00157341	   8.89083	-0.00161437	    8.9185	-0.00164056	   8.92614	-0.00160945	   8.92614	  -40.2362	
   9.10772	-0.0015563	   9.02824	-0.00159696	   9.06218	-0.00162399	   9.06605	-0.00159242	   9.06605	  -39.8105	
   9.24589	-0.0015391	   9.16598	-0.00157951	   9.20655	-0.0016074	   9.20614	-0.00157533	   9.20614	  -39.3834	
   9.38424	-0.00152179	   9.30303	-0.00156201	   9.34845	-0.00159072	   9.34524	-0.00155817	   9.34524	  -38.9543	
    9.5228	-0.00150435	   9.43953	-0.00154437	   9.48761	-0.00157387	   9.48332	-0.00154086	   9.48332	  -38.5215	
   9.66162	-0.00148675	   9.57559	-0.00152654	   9.62747	-0.00155682	   9.62156	-0.00152337	   9.62156	  -38.0842	
   9.80022	-0.00146897	   9.71079	-0.00150848	    9.7654	-0.00153951	    9.7588	-0.00150565	    9.7588	  -37.6414	
   9.93868	-0.00145101	   9.84592	-0.00149016	   9.89965	-0.00152188	   9.89475	-0.00148768	   9.89475	  -37.1921	
   10.0766	-0.00143286	   9.98095	-0.00147159	   10.0336	-0.00150393	   10.0304	-0.00146946	   10.0304	  -36.7364	
   10.2139	-0.00141452	   10.1159	-0.0014528	   10.1674	-0.00148565	   10.1658	-0.00145099	   10.1658	  -36.2748	
   10.3499	-0.00139603	    10.251	-0.00143389	   10.3001	-0.00146715	   10.3003	-0.00143236	   10.3003	  -35.8089	
   10.4857	-0.0013774	   10.3861	-0.0014149	   10.4323	-0.00144848	   10.4347	-0.00141359	   10.4347	  -35.3398	
   10.6203	-0.00135865	   10.5209	-0.00139586	   10.5652	-0.00142974	   10.5688	-0.00139475	   10.5688	  -34.8687	
    10.755	-0.00133981	   10.6555	-0.0013768	   10.6984	-0.00141103	   10.7029	-0.00137588	   10.7029	   -34.397	
   10.8888	-0.00132088	   10.7893	-0.00135772	   10.8318	-0.00139239	   10.8366	 -0.001357	   10.8366	  -33.9249	
   11.0219	-0.00130187	   10.9228	-0.00133857	   10.9658	-0.00137385	   10.9702	-0.0013381	   10.9702	  -33.4524	
   11.1539	-0.00128275	   11.0553	-0.0013193	   11.0992	-0.00135535	   11.1028	-0.00131914	   11.1028	  -32.9784	
   11.2854	-0.00126352	   11.1876	-0.00129983	   11.2326	-0.0013368	   11.2352	-0.00130005	   11.2352	  -32.5013	
   11.4166	-0.00124414	   11.3196	-0.00128012	   11.3654	-0.00131812	   11.3672	-0.00128079	   11.3672	  -32.0198	
   11.5476	-0.00122461	   11.4517	-0.00126013	   11.4974	-0.00129916	   11.4989	-0.0012613	   11.4989	  -31.5325	
   11.6785	-0.00120491	   11.5837	-0.00123989	   11.6282	-0.00127988	   11.6301	-0.00124156	   11.6301	   -31.039	
   11.8088	-0.00118504	   11.7153	-0.00121941	   11.7584	-0.00126026	   11.7609	-0.00122157	   11.7609	  -30.5392	
   11.9382	-0.00116502	   11.8466	-0.00119877	   11.8878	-0.00124028	   11.8909	-0.00120136	   11.8909	   -30.034	
   12.0674	-0.00114486	   11.9773	-0.00117804	   12.0165	-0.00122006	   12.0204	-0.00118099	   12.0204	  -29.5246	
    12.197	-0.00112459	   12.1075	-0.00115727	   12.1451	-0.00119966	   12.1498	-0.00116051	   12.1498	  -29.0127	
   12.3259	-0.00110421	   12.2382	-0.0011365	   12.2727	-0.0011792	   12.2789	-0.00113997	   12.2789	  -28.4992	
   12.4539	-0.00108374	   12.3675	-0.00111573	   12.3999	-0.00115875	   12.4071	-0.00111941	   12.4071	  -27.9852	
   12.5811	-0.00106319	   12.4966	-0.00109493	    12.527	-0.00113837	   12.5349	-0.00109883	   12.5349	  -27.4707	
   12.7077	-0.00104256	   12.6252	-0.00107405	    12.654	-0.00111805	   12.6623	-0.00107822	   12.6623	  -26.9554	
   12.8333	-0.00102182	   12.7532	-0.00105303	   12.7805	-0.00109778	    12.789	-0.00105754	    12.789	  -26.4385	
   12.9586	-0.00100098	   12.8804	-0.00103182	   12.9071	-0.00107746	   12.9154	-0.00103675	   12.9154	  -25.9188	
   13.0837	-0.000980004	    13.007	-0.00101038	   13.0339	-0.00105704	   13.0415	-0.00101581	   13.0415	  -25.3952	
   13.2088	-0.000958936	   13.1331	-0.000988719	     13.16	-0.00103641	   13.1673	-0.000994688	   13.1673	  -24.8672	
   13.3334	-0.000937749	   13.2583	-0.00096684	    13.285	-0.00101551	   13.2922	-0.000973368	   13.2922	  -24.3342	
   13.4572	-0.00091642	   13.3822	-0.000944786	   13.4102	-0.000994326	   13.4165	-0.000951844	   13.4165	  -23.7961	
   13.5803	-0.000894963	   13.5056	-0.000922604	   13.5341	-0.000972858	     13.54	-0.000930142	     13.54	  -23.2535	
   13.7024	-0.000873378	   13.6297	-0.000900343	   13.6575	-0.000951171	   13.6632	-0.000908297	   13.6632	  -22.7074	
   13.8237	-0.000851634	   13.7535	-0.000878041	   13.7804	-0.000929341	   13.7859	-0.000886339	   13.7859	  -22.1585	
   13.9439	-0.000829745	   13.8771	-0.000855718	   13.9036	-0.000907445	   13.9082	-0.000864303	   13.9082	  -21.6076	
   14.0633	-0.000807724	   13.9999	-0.000833375	   14.0271	-0.000885565	   14.0301	-0.000842221	   14.0301	  -21.0555	
   14.1821	-0.000785604	   14.1217	-0.000810992	   14.1499	-0.000863739	   14.1512	-0.000820112	   14.1512	  -20.5028	
   14.3007	-0.000763396	   14.2429	-0.000788536	   14.2728	-0.000841974	   14.2721	-0.000797969	   14.2721	  -19.9492	
   14.4179	-0.000741104	   14.3634	-0.000765964	   14.3949	-0.000820235	   14.3921	-0.000775768	   14.3921	  -19.3942	
   14.5344	-0.000718762	   14.4831	-0.000743241	   14.5158	-0.000798458	   14.5111	-0.000753487	   14.5111	  -18.8372	
   14.6509	-0.000696386	   14.6016	-0.000720345	   14.6362	-0.000776576	   14.6296	-0.000731103	   14.6296	  -18.2776	
   14.7671	-0.000673965	   14.7196	-0.000697272	   14.7558	-0.00075452	   14.7475	-0.000708586	   14.7475	  -17.7146	
   14.8825	-0.00065149	   14.8371	-0.000674037	   14.8743	-0.000732242	   14.8646	-0.000685923	   14.8646	  -17.1481	
   14.9968	-0.000628948	    14.954	-0.00065067	   14.9919	-0.000709733	   14.9809	-0.000663117	   14.9809	  -16.5779	
   15.1109	-0.000606309	   15.0699	-0.000627221	   15.1087	-0.000687011	   15.0965	-0.00064018	   15.0965	  -16.0045	
   15.2243	-0.000583537	    15.185	-0.00060373	   15.2261	-0.000664133	   15.2118	-0.000617133	   15.2118	  -15.4283	
   15.3377	-0.000560614	      15.3	-0.00058023	   15.3436	-0.000641166	   15.3271	-0.000594003	   15.3271	  -14.8501	
   15.4503	-0.000537541	   15.4147	-0.000556736	   15.4602	-0.000618181	   15.4417	-0.000570819	   15.4417	  -14.2705	
   15.5628	-0.000514325	    15.529	-0.00053324	   15.5756	-0.000595236	   15.5558	-0.0005476	   15.5558	    -13.69	
   15.6753	-0.000490998	   15.6428	-0.000509713	   15.6902	-0.000572357	   15.6694	-0.000524356	   15.6694	  -13.1089	
   15.7875	-0.0004676	   15.7561	-0.00048612	   15.8048	-0.000549542	   15.7828	-0.000501088	   15.7828	  -12.5272	
   15.8996	-0.000444165	   15.8687	-0.000462418	   15.9189	-0.000526757	   15.8957	-0.00047778	   15.8957	  -11.9445	
   16.0117	-0.000420718	   15.9807	-0.000438578	    16.032	-0.000503941	   16.0081	-0.000454412	   16.0081	  -11.3603	
   16.1224	-0.000397246	   16.0918	-0.000414587	    16.145	-0.000481034	   16.1197	-0.000430956	   16.1197	  -10.7739	
   16.2324	-0.000373757	   16.2018	-0.000390454	   16.2575	-0.000457982	   16.2306	-0.000407397	   16.2306	  -10.1849	
    16.342	-0.00035021	   16.3113	-0.000366207	   16.3691	-0.000434752	   16.3408	-0.000383723	   16.3408	  -9.59307	
   16.4509	-0.00032657	   16.4196	-0.000341887	   16.4801	-0.000411344	   16.4502	-0.000359934	   16.4502	  -8.99834	
   16.5593	-0.000302857	    16.528	-0.00031754	   16.5901	-0.000387781	   16.5591	-0.000336059	   16.5591	  -8.40149	
   16.6675	-0.000279071	   16.6354	-0.000293206	   16.6992	-0.000364117	   16.6673	-0.000312131	   16.6673	  -7.80329	
    16.775	-0.000255214	   16.7421	-0.000268908	   16.8072	-0.000340411	   16.7748	-0.000288177	   16.7748	  -7.20444	
   16.8821	-0.000231308	    16.848	-0.000244649	   16.9145	-0.000316719	   16.8816	-0.000264225	   16.8816	  -6.60564	
   16.9879	-0.000207376	   16.9533	-0.000220407	   17.0207	-0.000293088	   16.9873	-0.000240291	   16.9873	  -6.00726	
   17.0938	-0.000183411	   17.0581	-0.000196152	   17.1256	-0.000269528	   17.0925	-0.000216364	   17.0925	  -5.40909	
   17.1982	-0.000159426	   17.1626	-0.000171847	   17.2301	-0.00024603	    17.197	-0.000192434	    17.197	  -4.81086	
   17.3016	-0.000135418	   17.2662	-0.000147461	   17.3336	-0.000222565	   17.3005	-0.000168481	   17.3005	  -4.21203	
   17.4042	-0.000111346	   17.3688	-0.00012297	   17.4361	-0.000199082	   17.4031	-0.000144466	   17.4031	  -3.61165	
   17.5058	-8.72033e-05	    17.471	-9.83713e-05	   17.5382	-0.000175536	    17.505	-0.00012037	    17.505	  -3.00925	
   17.6071	-6.29962e-05	   17.5728	-7.36808e-05	   17.6391	-0.000151882	   17.6063	-9.61864e-05	   17.6063	  -2.40466	
   17.7078	-3.87164e-05	   17.6739	-4.8931e-05	   17.7397	-0.000128101	   17.7071	-7.1916e-05	   17.7071	   -1.7979	
   17.8086	-1.44072e-05	   17.7742	-2.41608e-05	   17.8396	-0.000104197	   17.8075	-4.75885e-05	   17.8075	  -1.18971	
   17.9093	9.92346e-06	   17.8737	5.91648e-07	   17.9381	-8.02002e-05	    17.907	-2.32284e-05	    17.907	 -0.580709	
   18.0089	3.42236e-05	   17.9724	2.5299e-05	    18.036	-5.61547e-05	   18.0057	1.12261e-06	   18.0057	 0.0280653	
   18.1077	5.84525e-05	   18.0698	4.99495e-05	    18.133	-3.21123e-05	   18.1035	2.54299e-05	   18.1035	  0.635748	
    18.206	8.2609e-05	   18.1658	7.45455e-05	   18.2294	-8.11675e-06	   18.2004	4.96793e-05	   18.2004	   1.24198	
   18.3038	0.000106676	   18.2611	9.91063e-05	   18.3256	1.57986e-05	   18.2968	7.38604e-05	   18.2968	   1.84651	
    18.401	0.000130687	   18.3561	0.000123663	   18.4216	3.96302e-05	   18.3929	9.79933e-05	   18.3929	   2.44983	
   18.4974	0.000154662	   18.4505	0.000148245	   18.5172	6.33928e-05	   18.4884	 0.0001221	   18.4884	    3.0525	
   18.5927	0.000178661	   18.5445	0.000172879	   18.6126	8.71211e-05	   18.5833	0.000146221	   18.5833	   3.65551	
   18.6872	0.000202716	   18.6379	0.000197575	   18.7069	0.000110862	   18.6773	0.000170384	   18.6773	   4.25961	
   18.7807	0.000226834	   18.7304	0.000222328	   18.8011	0.000134652	   18.7707	0.000194605	   18.7707	   4.86512	
   18.8734	0.000251045	   18.8223	0.000247118	   18.8942	0.000158519	   18.8633	0.000218894	   18.8633	   5.47235	
   18.9654	0.000275325	   18.9132	0.000271912	   18.9871	0.000182475	   18.9552	0.000243238	   18.9552	   6.08094	
   19.0566	0.000299635	   19.0025	0.000296673	   19.0795	0.000206504	   19.0462	0.000267604	   19.0462	    6.6901	
   19.1464	0.000323945	   19.0911	0.000321366	   19.1711	0.000230571	   19.1362	0.000291961	   19.1362	   7.29902	
   19.2361	0.000348194	   19.1793	0.00034597	   19.2617	0.000254629	   19.2257	0.000316264	   19.2257	   7.90661	
   19.3243	0.000372357	   19.2667	0.00037048	   19.3511	0.000278636	    19.314	0.000340491	    19.314	   8.51228	
    19.412	0.000396399	   19.3532	0.000394909	     19.44	0.000302558	   19.4018	0.000364622	   19.4018	   9.11555	
   19.4989	0.000420294	   19.4397	0.000419275	   19.5284	0.000326375	    19.489	0.000388648	    19.489	    9.7162	
   19.5852	0.000444063	   19.5252	0.000443609	   19.6158	0.000350087	   19.5754	0.000412586	   19.5754	   10.3147	
    19.671	0.000467722	   19.6098	0.00046794	   19.7027	0.000373712	   19.6612	0.000436458	   19.6612	   10.9115	
   19.7562	0.000491303	   19.6942	0.000492287	   19.7887	0.000397274	   19.7464	0.000460288	   19.7464	   11.5072	
   19.8403	0.000514863	   19.7776	0.000516655	   19.8742	0.000420807	   19.8307	0.000484108	   19.8307	   12.1027	
   19.9245	0.000538437	   19.8602	0.000541031	   19.9595	0.00044435	   19.9147	0.00050794	   19.9147	   12.6985	
   20.0075	0.000562061	   19.9418	0.000565392	   20.0443	0.000467933	   19.9979	0.000531795	   19.9979	   13.2949	
   20.0896	0.000585729	   20.0223	0.000589702	   20.1283	0.000491572	   20.0801	0.000555668	   20.0801	   13.8917	
   20.1707	0.000609424	   20.1026	0.00061393	   20.2118	0.000515263	   20.1617	0.000579539	   20.1617	   14.4885	
   20.2506	0.00063312	   20.1823	0.000638048	   20.2937	0.000538985	   20.2422	0.000603384	   20.2422	   15.0846	
   20.3297	0.000656759	   20.2619	0.000662044	   20.3743	0.00056274	    20.322	0.000627181	    20.322	   15.6795	
   20.4083	0.000680295	   20.3409	0.000685914	   20.4545	0.000586462	   20.4012	0.00065089	   20.4012	   16.2723	
   20.4856	0.000703689	   20.4188	0.000709675	   20.5339	0.000610078	   20.4794	0.000674481	   20.4794	    16.862	
   20.5625	0.000726916	   20.4953	0.000733349	   20.6125	0.000633561	   20.5567	0.000697942	   20.5567	   17.4485	
   20.6393	0.000749988	   20.5708	0.000756952	   20.6899	0.000656898	   20.6333	0.000721279	   20.6333	    18.032	
   20.7152	0.000772924	   20.6461	0.00078051	   20.7661	0.00068005	   20.7091	0.000744495	   20.7091	   18.6124	
   20.7906	0.000795766	   20.7211	0.000804034	   20.8415	0.000703033	   20.7844	0.000767611	   20.7844	   19.1903	
   20.8652	0.000818569	   20.7956	0.000827524	   20.9157	0.000725886	   20.8588	0.000790659	   20.8588	   19.7665	
   20.9387	0.000841361	    20.869	0.000850961	   20.9889	0.000748666	   20.9322	0.000813663	   20.9322	   20.3416	
   21.0116	0.000864171	    20.942	0.000874323	   21.0606	0.000771422	   21.0047	0.000836639	   21.0047	    20.916	
   21.0832	  0.000887	   21.0143	0.000897589	   21.1319	0.000794193	   21.0765	0.000859594	   21.0765	   21.4898	
    21.154	0.000909822	   21.0853	0.000920731	   21.2021	0.000817004	   21.1471	0.000882519	   21.1471	    22.063	
   21.2231	0.000932601	   21.1554	0.000943736	   21.2725	0.000839865	    21.217	0.000905401	    21.217	    22.635	
   21.2917	0.000955283	   21.2254	0.000966599	   21.3423	0.000862743	   21.2865	0.000928209	   21.2865	   23.2052	
     21.36	0.000977825	   21.2941	0.000989325	   21.4109	0.000885589	    21.355	0.000950913	    21.355	   23.7728	
   21.4272	0.00100019	   21.3619	0.00101193	   21.4787	0.000908357	   21.4226	0.000973492	   21.4226	   24.3373	
    21.494	0.00102235	   21.4285	0.00103443	   21.5444	0.000930995	    21.489	0.000995926	    21.489	   24.8982	
   21.5594	0.00104431	   21.4944	0.00105686	   21.6096	0.000953457	   21.5545	0.00101821	   21.5545	   25.4552	
    21.624	0.00106609	   21.5589	0.00107924	   21.6741	0.00097573	    21.619	0.00104035	    21.619	   26.0088	
   21.6879	0.00108773	    21.623	0.00110156	   21.7377	0.000997812	   21.6829	0.00106237	   21.6829	   26.5592	
   21.7507	0.00110926	    21.686	0.00112383	   21.8008	0.00101973	   21.7458	0.00108427	   21.7458	   27.1068	
   21.8137	0.00113074	   21.7477	  0.001146	   21.8628	0.00104151	    21.808	0.00110608	    21.808	   27.6521	
   21.8756	0.00115218	   21.8086	0.00116804	   21.9234	0.00106322	   21.8692	0.00112781	   21.8692	   28.1953	
   21.9364	0.00117361	   21.8686	0.00118991	   21.9833	0.00108488	   21.9294	0.00114946	   21.9294	   28.7366	
   21.9963	0.00119501	    21.927	0.00121156	    22.042	0.00110653	   21.9884	0.00117103	   21.9884	   29.2758	
   22.0543	0.00121637	   21.9844	0.00123299	   22.1001	0.00112816	   22.0462	0.00119251	   22.0462	   29.8127	
   22.1114	0.00123766	    22.041	0.00125421	    22.157	0.00114977	   22.1031	0.00121388	   22.1031	    30.347	
   22.1679	0.00125881	   22.0967	0.00127525	    22.213	0.00117132	   22.1592	0.00123513	   22.1592	   30.8783	
   22.2233	 0.0012798	    22.152	0.00129616	   22.2687	0.00119276	   22.2147	0.00125624	   22.2147	    31.406	
   22.2779	0.00130059	   22.2061	0.00131699	   22.3228	0.00121402	    22.269	 0.0012772	    22.269	     31.93	
   22.3322	0.00132117	   22.2586	0.00133779	   22.3768	0.00123508	   22.3225	0.00129801	   22.3225	   32.4503	
   22.3857	0.00134156	     22.31	0.00135855	   22.4292	0.00125588	    22.375	0.00131866	    22.375	   32.9666	
   22.4385	0.00136176	   22.3606	0.00137928	   22.4808	0.00127644	   22.4266	0.00133916	   22.4266	    33.479	
   22.4895	 0.0013818	   22.4098	0.00139996	   22.5314	0.00129678	   22.4769	0.00135951	   22.4769	   33.9878	
   22.5398	0.00140175	   22.4586	0.00142052	   22.5811	0.00131694	   22.5265	0.00137974	   22.5265	   34.4934	
   22.5887	 0.0014216	   22.5063	0.00144094	   22.6301	0.00133698	   22.5751	0.00139984	   22.5751	    34.996	
   22.6373	0.00144137	   22.5528	0.00146116	   22.6785	0.00135684	   22.6228	0.00141979	   22.6228	   35.4948	
   22.6848	0.00146107	   22.5986	0.00148116	   22.7261	0.00137662	   22.6698	0.00143962	   22.6698	   35.9904	
   22.7311	0.00148067	   22.6441	0.00150097	   22.7727	0.00139639	    22.716	0.00145934	    22.716	   36.4835	
   22.7764	0.00150014	   22.6884	0.00152056	   22.8183	0.00141611	    22.761	0.00147893	    22.761	   36.9734	
   22.8219	0.00151945	   22.7327	0.00153995	   22.8633	 0.0014358	    22.806	 0.0014984	    22.806	     37.46	
    22.866	0.00153856	   22.7754	0.00155921	   22.9072	0.00145549	   22.8495	0.00151775	   22.8495	   37.9438	
   22.9087	0.00155749	   22.8175	0.00157835	   22.9499	0.00147513	    22.892	0.00153699	    22.892	   38.4247	
   22.9515	0.00157621	   22.8588	0.00159739	   22.9918	0.00149469	   22.9341	 0.0015561	   22.9341	   38.9024	
   22.9938	0.00159476	   22.8994	0.00161635	    23.033	0.00151406	   22.9754	0.00157506	   22.9754	   39.3764	
   23.0348	0.00161315	   22.9397	0.00163521	   23.0733	0.00153321	   23.0159	0.00159386	   23.0159	   39.8464	
   23.0746	 0.0016314	   22.9791	0.00165399	   23.1137	0.00155212	   23.0558	 0.0016125	   23.0558	   40.3125	
   23.1138	0.00164953	   23.0173	0.00167263	   23.1531	0.00157072	   23.0947	0.00163096	   23.0947	    40.774	
   23.1512	0.00166756	   23.0539	0.00169111	   23.1914	0.00158898	   23.1322	0.00164922	   23.1322	   41.2304	
   23.1877	0.00168548	   23.0895	0.00170942	    23.228	0.00160695	   23.1684	0.00166728	   23.1684	   41.6821	
   23.2244	0.00170329	    23.125	0.00172751	    23.264	0.00162468	   23.2045	0.00168516	   23.2045	    42.129	
   23.2602	0.00172097	   23.1594	0.00174538	   23.2993	0.00164226	   23.2396	0.00170287	   23.2396	   42.5717	
   23.2944	0.00173849	   23.1926	0.00176305	   23.3339	0.00165972	   23.2736	0.00172042	   23.2736	   43.0105	
   23.3281	0.00175585	   23.2246	0.00178051	   23.3676	0.00167715	   23.3068	0.00173784	   23.3068	   43.4459	
   23.3607	0.00177302	   23.2548	0.00179781	   23.4004	0.00169459	   23.3387	0.00175514	   23.3387	   43.8784	
   23.3916	   0.00179	   23.2844	0.00181497	    23.432	0.00171201	   23.3694	0.00177232	   23.3694	   44.3081	
   23.4214	0.00180677	   23.3134	0.00183203	   23.4627	0.00172939	   23.3992	 0.0017894	   23.3992	    44.735	
   23.4501	0.00182337	   23.3411	0.00184902	   23.4919	0.00174668	   23.4277	0.00180636	   23.4277	   45.1589	
   23.4778	 0.0018398	   23.3675	0.00186594	   23.5202	0.00176382	   23.4552	0.00182319	   23.4552	   45.5797	
   23.5043	0.00185609	   23.3932	0.00188276	   23.5476	0.00178074	   23.4817	0.00183986	   23.4817	   45.9966	
   23.5303	0.00187224	   23.4182	0.00189947	   23.5741	 0.0017974	   23.5075	0.00185637	   23.5075	   46.4092	
   23.5546	0.00188829	   23.4429	0.00191601	   23.5991	0.00181378	   23.5322	0.00187269	   23.5322	   46.8173	
   23.5779	0.00190421	   23.4657	0.00193235	   23.6226	0.00182991	   23.5554	0.00188883	   23.5554	   47.2206	
   23.5998	0.00192002	   23.4879	0.00194844	   23.6453	0.00184583	   23.5777	0.00190476	   23.5777	    47.619	
   23.6212	0.00193568	   23.5093	0.00196432	   23.6671	0.00186159	   23.5992	0.00192053	   23.5992	   48.0132	
   23.6426	0.00195118	   23.5304	0.00197999	    23.688	0.00187725	   23.6203	0.00193614	   23.6203	   48.4036	
   23.6634	0.00196651	   23.5502	0.00199545	   23.7074	0.00189285	   23.6404	 0.0019516	   23.6404	     48.79	
   23.6836	0.00198164	   23.5697	0.00201079	   23.7261	0.00190839	   23.6598	0.00196694	   23.6598	   49.1734	
   23.7032	0.00199657	   23.5889	  0.002026	    23.744	0.00192387	   23.6787	0.00198214	   23.6787	   49.5536	
    23.722	 0.0020113	   23.6078	0.00204106	    23.761	0.00193927	   23.6969	0.00199721	   23.6969	   49.9302	
   23.7399	0.00202586	    23.627	0.00205599	   23.7776	0.00195452	   23.7148	0.00201212	   23.7148	   50.3031	
    23.756	0.00204025	   23.6447	0.00207076	   23.7923	0.00196959	    23.731	0.00202687	    23.731	   50.6716	
    23.771	 0.0020545	   23.6626	0.00208534	   23.8058	0.00198443	   23.7465	0.00204142	   23.7465	   51.0356	
   23.7856	0.00206862	   23.6809	0.00209973	   23.8191	0.00199901	   23.7619	0.00205579	   23.7619	   51.3947	
   23.7991	0.00208262	   23.6961	0.00211392	   23.8318	0.00201335	   23.7757	0.00206996	   23.7757	   51.7491	
   23.8116	 0.0020965	   23.7083	0.00212797	   23.8437	0.00202747	   23.7879	0.00208398	   23.7879	   52.0995	
   23.8226	0.00211023	   23.7203	0.00214189	    23.855	 0.0020414	   23.7993	0.00209784	   23.7993	    52.446	
   23.8327	 0.0021238	   23.7305	0.00215571	   23.8651	0.00205519	   23.8094	0.00211157	   23.8094	   52.7892	
   23.8421	 0.0021372	   23.7368	0.00216947	   23.8739	0.00206888	   23.8176	0.00212518	   23.8176	   53.1296	
   23.8506	0.00215041	   23.7432	0.00218315	   23.8826	 0.0020825	   23.8255	0.00213869	   23.8255	   53.4672	
   23.8579	0.00216343	   23.7493	0.00219675	   23.8903	0.00209608	   23.8325	0.00215209	   23.8325	   53.8021	
   23.8645	0.00217626	   23.7524	0.00221023	    23.897	0.00210959	    23.838	0.00216536	    23.838	    54.134	
   23.8704	0.00218892	   23.7549	0.00222355	   23.9032	0.00212301	   23.8428	0.00217849	   23.8428	   54.4623	
   23.8757	0.00220143	   23.7584	0.00223666	   23.9086	 0.0021363	   23.8476	0.00219146	   23.8476	   54.7865	
   23.8799	0.00221379	   23.7601	0.00224953	    23.913	0.00214942	    23.851	0.00220424	    23.851	   55.1061	
   23.8836	0.00222602	   23.7608	0.00226215	   23.9167	0.00216233	   23.8537	0.00221683	   23.8537	   55.4207	
   23.8865	0.00223812	   23.7628	0.00227454	   23.9201	  0.002175	   23.8565	0.00222922	   23.8565	   55.7304	
   23.8884	 0.0022501	   23.7633	0.00228671	   23.9228	0.00218743	   23.8582	0.00224141	   23.8582	   56.0353	
     23.89	0.00226194	   23.7622	0.00229872	   23.9247	0.00219963	    23.859	0.00225343	    23.859	   56.3358	
   23.8892	0.00227364	   23.7613	0.00231061	   23.9261	0.00221163	   23.8589	0.00226529	   23.8589	   56.6324	
   23.8871	0.00228519	   23.7596	0.00232243	   23.9257	0.00222348	   23.8575	0.00227703	   23.8575	   56.9258	
   23.8845	0.00229657	   23.7555	0.00233419	   23.9249	0.00223522	    23.855	0.00228866	    23.855	   57.2165	
   23.8809	0.00230779	   23.7509	0.00234589	   23.9232	0.00224687	   23.8517	0.00230018	   23.8517	   57.5046	
   23.8759	0.00231884	   23.7452	0.00235751	   23.9206	0.00225847	   23.8472	 0.0023116	   23.8472	   57.7901	
     23.87	0.00232973	   23.7375	0.00236901	   23.9174	0.00226999	   23.8416	0.00232291	   23.8416	   58.0728	
   23.8629	0.00234048	   23.7291	0.00238034	    23.913	0.00228142	    23.835	0.00233408	    23.835	   58.3519	
   23.8542	0.00235108	     23.72	0.00239147	    23.907	0.00229271	   23.8271	0.00234508	   23.8271	   58.6271	
   23.8445	0.00236155	   23.7088	0.00240236	   23.8994	0.00230383	   23.8176	0.00235591	   23.8176	   58.8978	
   23.8334	0.00237189	   23.6977	0.00241301	   23.8905	0.00231475	   23.8072	0.00236655	   23.8072	   59.1638	
   23.8217	0.00238211	   23.6863	0.00242344	   23.8809	0.00232547	   23.7963	0.00237701	   23.7963	   59.4252	
   23.8088	0.00239222	   23.6736	0.00243369	   23.8707	0.00233597	   23.7844	0.00238729	   23.7844	   59.6823	
   23.7955	 0.0024022	   23.6602	0.00244379	   23.8594	0.00234629	   23.7717	0.00239742	   23.7717	   59.9356	
   23.7812	0.00241204	    23.647	0.00245379	   23.8474	0.00235645	   23.7585	0.00240743	   23.7585	   60.1856	
   23.7655	0.00242175	   23.6327	0.00246371	    23.834	0.00236649	   23.7441	0.00241732	   23.7441	    60.433	
   23.7488	0.00243132	    23.618	 0.0024736	   23.8199	0.00237644	   23.7289	0.00242712	   23.7289	    60.678	
   23.7315	0.00244073	   23.6025	0.00248344	   23.8042	0.00238631	   23.7127	0.00243683	   23.7127	   60.9207	
   23.7134	   0.00245	   23.5862	0.00249319	   23.7871	0.00239611	   23.6956	0.00244644	   23.6956	   61.1609	
   23.6945	0.00245913	   23.5689	0.00250283	   23.7698	0.00240582	   23.6778	0.00245593	   23.6778	   61.3982	
   23.6755	0.00246811	   23.5506	 0.0025123	   23.7519	 0.0024154	   23.6593	0.00246527	   23.6593	   61.6318	
   23.6565	0.00247698	    23.532	0.00252158	   23.7334	0.00242482	   23.6406	0.00247446	   23.6406	   61.8614	
   23.6365	0.00248572	   23.5124	0.00253063	   23.7143	0.00243404	   23.6211	0.00248346	   23.6211	   62.0866	
   23.6157	0.00249435	   23.4927	0.00253945	   23.6939	0.00244304	   23.6008	0.00249228	   23.6008	   62.3071	
   23.5936	0.00250288	    23.472	0.00254808	   23.6728	0.00245184	   23.5795	0.00250093	   23.5795	   62.5233	
    23.571	0.00251128	   23.4504	0.00255655	   23.6495	0.00246046	    23.557	0.00250943	    23.557	   62.7357	
   23.5474	0.00251957	    23.428	0.00256489	   23.6244	0.00246894	   23.5333	 0.0025178	   23.5333	    62.945	
    23.523	0.00252772	    23.405	0.00257316	   23.5982	0.00247734	   23.5088	0.00252607	   23.5088	   63.1518	
   23.4974	0.00253573	   23.3816	0.00258136	   23.5696	0.00248569	   23.4828	0.00253426	   23.4828	   63.3566	
   23.4712	0.00254362	   23.3572	0.00258952	   23.5397	0.00249402	    23.456	0.00254239	    23.456	   63.5597	
   23.4441	0.00255136	   23.3321	0.00259762	   23.5089	0.00250233	   23.4284	0.00255044	   23.4284	   63.7609	
   23.4153	0.00255897	   23.3064	0.00260562	   23.4778	0.00251059	   23.3999	0.00255839	   23.3999	   63.9598	
   23.3855	0.00256647	   23.2792	 0.0026135	   23.4461	0.00251875	   23.3703	0.00256624	   23.3703	   64.1559	
   23.3544	0.00257384	   23.2507	 0.0026212	   23.4134	0.00252674	   23.3395	0.00257393	   23.3395	   64.3481	
   23.3227	0.00258113	   23.2217	0.00262872	   23.3798	0.00253455	   23.3081	0.00258147	   23.3081	   64.5367	
   23.2905	0.00258837	   23.1917	0.00263603	   23.3467	0.00254214	   23.2763	0.00258885	   23.2763	   64.7211	
    23.258	0.00259548	   23.1609	0.00264314	    23.314	 0.0025495	   23.2443	0.00259604	   23.2443	    64.901	
   23.2251	0.00260252	    23.129	0.00265009	   23.2805	0.00255667	   23.2115	0.00260309	   23.2115	   65.0773	
   23.1917	0.00260944	   23.0961	0.00265689	   23.2457	 0.0025637	   23.1778	0.00261001	   23.1778	   65.2503	
   23.1584	 0.0026162	   23.0625	 0.0026636	   23.2103	0.00257062	   23.1437	0.00261681	   23.1437	   65.4202	
   23.1258	0.00262277	   23.0279	0.00267024	   23.1739	0.00257747	   23.1092	0.00262349	   23.1092	   65.5874	
   23.0925	0.00262907	   22.9918	0.00267681	   23.1362	0.00258427	   23.0735	0.00263005	   23.0735	   65.7513	
   23.0575	0.00263515	    22.955	0.00268332	   23.0969	0.00259104	   23.0365	 0.0026365	   23.0365	   65.9125	
   23.0233	0.00264104	   22.9167	0.00268975	   23.0568	0.00259777	   22.9989	0.00264285	   22.9989	   66.0714	
   22.9867	0.00264679	   22.8782	0.00269609	   23.0161	0.00260442	   22.9603	 0.0026491	   22.9603	   66.2275	
   22.9465	0.00265251	    22.839	0.00270231	   22.9735	0.00261097	   22.9197	0.00265527	   22.9197	   66.3816	
   22.9069	0.00265828	   22.7988	 0.0027084	   22.9302	0.00261739	   22.8786	0.00266136	   22.8786	   66.5339	
   22.8646	0.00266415	   22.7579	0.00271433	   22.8855	0.00262363	    22.836	0.00266737	    22.836	   66.6843	
    22.818	0.00267014	   22.7154	0.00272009	   22.8396	 0.0026297	    22.791	0.00267331	    22.791	   66.8328	
   22.7696	0.00267618	   22.6722	0.00272567	   22.7926	 0.0026356	   22.7448	0.00267915	   22.7448	   66.9787	
   22.7204	 0.0026822	   22.6283	0.00273112	    22.745	0.00264135	   22.6979	0.00268489	   22.6979	   67.1222	
   22.6699	 0.0026881	   22.5831	0.00273643	   22.6968	0.00264698	   22.6499	 0.0026905	   22.6499	   67.2626	
   22.6191	0.00269375	   22.5366	0.00274168	   22.6488	0.00265254	   22.6015	0.00269599	   22.6015	   67.3997	
   22.5687	0.00269909	   22.4889	0.00274692	      22.6	0.00265804	   22.5525	0.00270135	   22.5525	   67.5338	
   22.5187	0.00270407	     22.44	0.00275214	   22.5496	0.00266351	   22.5028	0.00270658	   22.5028	   67.6644	
   22.4683	0.00270871	   22.3907	0.00275736	   22.4991	0.00266896	   22.4527	0.00271168	   22.4527	   67.7919	
   22.4187	0.00271309	   22.3402	0.00276252	   22.4471	0.00267436	    22.402	0.00271666	    22.402	   67.9164	
   22.3684	0.00271732	   22.2887	0.00276757	   22.3942	0.00267969	   22.3504	0.00272153	   22.3504	   68.0382	
   22.3171	0.00272152	   22.2349	0.00277249	   22.3394	0.00268493	   22.2971	0.00272631	   22.2971	   68.1579	
   22.2657	0.00272581	   22.1802	0.00277721	   22.2843	0.00269002	   22.2434	0.00273101	   22.2434	   68.2753	
   22.2126	0.00273024	   22.1244	0.00278173	   22.2283	0.00269495	   22.1884	0.00273564	   22.1884	    68.391	
    22.158	0.00273484	   22.0678	0.00278605	   22.1715	0.00269968	   22.1324	0.00274019	   22.1324	   68.5048	
   22.1024	0.00273953	   22.0101	0.00279021	   22.1143	0.00270425	   22.0756	0.00274466	   22.0756	   68.6165	
   22.0455	0.00274421	   21.9515	0.00279425	   22.0568	0.00270865	    22.018	0.00274904	    22.018	   68.7259	
   21.9878	0.00274877	   21.8929	0.00279826	   21.9987	0.00271293	   21.9598	0.00275332	   21.9598	    68.833	
   21.9288	0.00275308	   21.8334	0.00280227	   21.9393	0.00271716	   21.9005	0.00275751	   21.9005	   68.9376	
   21.8684	0.00275709	   21.7727	0.00280632	   21.8783	 0.0027214	   21.8398	 0.0027616	   21.8398	   69.0401	
   21.8074	0.00276075	   21.7106	0.00281041	   21.8154	0.00272566	   21.7778	0.00276561	   21.7778	   69.1402	
   21.7456	0.00276407	   21.6474	0.00281453	   21.7517	0.00272997	   21.7149	0.00276952	   21.7149	   69.2381	
   21.6837	0.00276721	   21.5837	0.00281861	   21.6872	0.00273429	   21.6515	0.00277337	   21.6515	   69.3343	
   21.6209	 0.0027702	     21.52	0.00282259	   21.6217	0.00273861	   21.5876	0.00277713	   21.5876	   69.4284	
    21.557	 0.0027732	   21.4555	0.00282643	   21.5557	0.00274282	   21.5228	0.00278082	   21.5228	   69.5204	
   21.4928	0.00277633	     21.39	0.00283009	   21.4894	0.00274686	   21.4574	0.00278443	   21.4574	   69.6107	
   21.4274	0.00277964	   21.3242	0.00283353	   21.4226	0.00275071	   21.3914	0.00278796	   21.3914	    69.699	
   21.3613	0.00278315	   21.2584	0.00283679	   21.3544	0.00275431	   21.3247	0.00279141	   21.3247	   69.7854	
   21.2941	0.00278683	   21.1912	0.00283988	   21.2851	0.00275768	   21.2568	 0.0027948	   21.2568	   69.8699	
   21.2257	0.00279054	    21.123	0.00284289	   21.2147	0.00276087	   21.1878	 0.0027981	   21.1878	   69.9525	
   21.1563	 0.0027942	   21.0547	0.00284585	   21.1433	0.00276395	   21.1181	0.00280134	   21.1181	   70.0334	
   21.0852	0.00279761	   20.9848	0.00284883	   21.0714	0.00276699	   21.0471	0.00280448	   21.0471	   70.1119	
   21.0129	0.00280066	   20.9143	0.00285184	   20.9992	0.00277005	   20.9755	0.00280752	   20.9755	   70.1879	
   20.9396	 0.0028033	   20.8429	0.00285489	   20.9264	0.00277317	    20.903	0.00281045	    20.903	   70.2612	
   20.8652	0.00280552	   20.7704	0.00285794	   20.8539	0.00277636	   20.8298	0.00281327	   20.8298	   70.3318	
   20.7905	0.00280744	   20.6972	0.00286095	   20.7808	0.00277958	   20.7562	0.00281599	   20.7562	   70.3998	
   20.7147	0.00280918	   20.6235	0.00286388	   20.7075	0.00278279	   20.6819	0.00281862	   20.6819	   70.4654	
   20.6379	0.00281091	   20.5489	0.00286667	   20.6328	0.00278592	   20.6066	0.00282116	   20.6066	   70.5291	
   20.5598	0.00281279	   20.4734	0.00286928	   20.5569	0.00278889	     20.53	0.00282366	     20.53	   70.5914	
   20.4816	0.00281491	   20.3963	0.00287172	   20.4807	0.00279168	   20.4528	 0.0028261	   20.4528	   70.6526	
   20.4021	0.00281729	    20.319	  0.002874	   20.4033	0.00279425	   20.3748	0.00282851	   20.3748	   70.7129	
   20.3211	0.00281988	   20.2413	0.00287616	   20.3257	0.00279663	    20.296	0.00283089	    20.296	   70.7723	
    20.238	0.00282257	   20.1624	0.00287823	   20.2466	0.00279887	   20.2157	0.00283322	   20.2157	   70.8306	
   20.1548	0.00282521	   20.0827	0.00288026	   20.1663	0.00280102	   20.1346	 0.0028355	   20.1346	   70.8874	
   20.0707	0.00282765	   20.0019	0.00288228	   20.0853	0.00280315	   20.0526	0.00283769	   20.0526	   70.9424	
   19.9857	0.00282977	   19.9201	0.00288432	   20.0032	0.00280531	   19.9697	 0.0028398	   19.9697	    70.995	
   19.9001	 0.0028315	   19.8375	0.00288637	   19.9206	0.00280754	   19.8861	 0.0028418	   19.8861	   71.0451	
   19.8141	0.00283286	   19.7544	 0.0028884	   19.8371	0.00280982	   19.8019	 0.0028437	   19.8019	   71.0924	
   19.7281	0.00283395	   19.6701	0.00289039	   19.7527	0.00281214	    19.717	0.00284549	    19.717	   71.1373	
   19.6413	 0.0028349	    19.585	0.00289228	   19.6676	0.00281443	   19.6313	 0.0028472	   19.6313	   71.1801	
   19.5541	0.00283586	   19.4994	0.00289404	   19.5806	0.00281664	   19.5447	0.00284884	   19.5447	   71.2211	
   19.4657	0.00283694	   19.4121	0.00289565	   19.4933	 0.0028187	    19.457	0.00285043	    19.457	   71.2608	
   19.3765	0.00283823	   19.3234	0.00289711	   19.4053	0.00282059	   19.3684	0.00285198	   19.3684	   71.2994	
   19.2869	0.00283973	   19.2339	0.00289843	   19.3169	0.00282229	   19.2792	0.00285348	   19.2792	   71.3371	
   19.1961	0.00284138	   19.1444	0.00289965	   19.2281	0.00282382	   19.1895	0.00285495	   19.1895	   71.3738	
   19.1051	0.00284312	   19.0536	0.00290081	   19.1376	0.00282523	   19.0987	0.00285639	   19.0987	   71.4096	
   19.0137	0.00284481	   18.9625	0.00290194	   19.0463	0.00282656	   19.0075	0.00285777	   19.0075	   71.4443	
   18.9223	0.00284626	   18.8708	0.00290308	   18.9548	0.00282788	   18.9159	0.00285907	   18.9159	   71.4768	
   18.8301	0.00284741	   18.7784	0.00290423	   18.8627	0.00282923	   18.8237	0.00286029	   18.8237	   71.5073	
   18.7374	0.00284821	   18.6852	0.00290539	   18.7693	0.00283064	   18.7306	0.00286141	   18.7306	   71.5353	
   18.6431	0.00284862	   18.5909	0.00290652	   18.6757	0.00283211	   18.6366	0.00286242	   18.6366	   71.5605	
    18.548	0.00284875	   18.4963	 0.0029076	   18.5809	0.00283361	   18.5418	0.00286332	   18.5418	    71.583	
   18.4521	0.00284869	   18.4009	0.00290859	    18.485	0.00283508	    18.446	0.00286412	    18.446	    71.603	
   18.3552	0.00284863	   18.3046	0.00290945	   18.3885	0.00283646	   18.3494	0.00286485	   18.3494	   71.6212	
   18.2573	0.00284869	   18.2077	0.00291018	   18.2915	0.00283772	   18.2522	0.00286553	   18.2522	   71.6383	
   18.1586	0.00284894	   18.1102	0.00291078	   18.1936	0.00283881	   18.1541	0.00286618	   18.1541	   71.6544	
   18.0597	0.00284945	   18.0118	0.00291125	    18.094	0.00283973	   18.0552	0.00286681	   18.0552	   71.6703	
   17.9604	0.00285019	   17.9124	0.00291164	   17.9932	0.00284051	   17.9553	0.00286745	   17.9553	   71.6861	
   17.8601	0.00285104	   17.8127	0.00291197	   17.8913	0.00284118	   17.8547	0.00286806	   17.8547	   71.7016	
   17.7592	0.00285188	   17.7122	0.00291228	   17.7897	0.00284179	   17.7537	0.00286865	   17.7537	   71.7162	
   17.6579	0.00285255	   17.6103	0.00291258	    17.687	0.00284241	   17.6517	0.00286918	   17.6517	   71.7295	
   17.5561	0.00285296	   17.5081	0.00291289	   17.5836	0.00284306	   17.5493	0.00286964	   17.5493	   71.7409	
   17.4537	0.00285304	   17.4048	0.00291319	    17.479	0.00284377	   17.4458	   0.00287	   17.4458	     71.75	
   17.3505	 0.0028528	   17.3004	0.00291346	    17.373	0.00284451	   17.3413	0.00287026	   17.3413	   71.7564	
    17.247	 0.0028523	   17.1947	0.00291364	   17.2667	0.00284525	   17.2361	 0.0028704	   17.2361	   71.7599	
    17.143	0.00285168	   17.0882	 0.0029137	   17.1598	0.00284595	   17.1303	0.00287044	   17.1303	   71.7611	
    17.038	0.00285105	   16.9815	0.00291366	   17.0525	0.00284656	    17.024	0.00287042	    17.024	   71.7606	
   16.9318	0.00285053	   16.8743	0.00291352	   16.9454	0.00284702	   16.9172	0.00287036	   16.9172	    71.759	
   16.8243	 0.0028502	   16.7665	0.00291331	   16.8374	0.00284733	   16.8094	0.00287028	   16.8094	    71.757	
   16.7169	0.00285008	   16.6579	0.00291306	   16.7289	0.00284748	   16.7012	 0.0028702	   16.7012	   71.7551	
    16.609	0.00285011	   16.5484	0.00291279	   16.6202	 0.0028475	   16.5926	0.00287013	   16.5926	   71.7533	
      16.5	 0.0028502	   16.4385	0.00291253	   16.5103	0.00284744	   16.4829	0.00287005	   16.4829	   71.7514	
   16.3897	0.00285023	   16.3286	0.00291228	   16.4001	0.00284734	   16.3728	0.00286995	   16.3728	   71.7486	
   16.2797	0.00285008	   16.2181	0.00291202	   16.2894	0.00284724	   16.2624	0.00286978	   16.2624	   71.7445	
   16.1683	0.00284969	   16.1062	0.00291173	   16.1791	0.00284718	   16.1512	0.00286953	   16.1512	   71.7383	
   16.0558	  0.002849	   15.9934	0.00291134	   16.0675	0.00284715	   16.0389	0.00286916	   16.0389	   71.7291	
   15.9434	0.00284805	   15.8808	0.00291083	   15.9556	0.00284713	   15.9266	0.00286867	   15.9266	   71.7169	
   15.8303	0.00284692	   15.7677	0.00291019	   15.8434	 0.0028471	   15.8138	0.00286807	   15.8138	   71.7018	
   15.7164	0.00284569	   15.6534	 0.0029094	   15.7301	0.00284702	      15.7	0.00286737	      15.7	   71.6843	
   15.6017	 0.0028445	   15.5378	0.00290848	   15.6157	0.00284687	   15.5851	0.00286662	   15.5851	   71.6654	
   15.4866	 0.0028434	   15.4215	0.00290747	   15.5006	0.00284672	   15.4696	0.00286586	   15.4696	   71.6466	
    15.371	0.00284246	   15.3055	 0.0029064	   15.3844	 0.0028465	   15.3536	0.00286512	   15.3536	    71.628	
   15.2547	0.00284167	   15.1889	0.00290531	    15.268	0.00284617	   15.2372	0.00286438	   15.2372	   71.6096	
   15.1382	0.00284097	   15.0712	0.00290424	   15.1518	0.00284573	   15.1204	0.00286365	   15.1204	   71.5911	
   15.0215	0.00284028	   14.9535	 0.0029032	   15.0362	0.00284517	   15.0037	0.00286288	   15.0037	   71.5721	
   14.9038	0.00283951	    14.835	0.00290219	    14.923	0.00284446	   14.8873	0.00286205	   14.8873	   71.5513	
   14.7852	0.00283857	   14.7158	0.00290117	   14.8098	0.00284365	   14.7703	0.00286113	   14.7703	   71.5282	
   14.6655	0.00283741	   14.5957	0.00290011	   14.6938	0.00284272	   14.6517	0.00286008	   14.6517	    71.502	
   14.5443	0.00283603	   14.4753	0.00289898	   14.5789	0.00284174	   14.5329	0.00285892	   14.5329	   71.4729	
   14.4226	0.00283446	    14.355	0.00289775	   14.4658	0.00284073	   14.4144	0.00285765	   14.4144	   71.4411	
   14.2998	0.00283276	    14.234	0.00289639	   14.3475	0.00283973	   14.2938	0.00285629	   14.2938	   71.4073	
    14.177	0.00283101	   14.1119	0.00289491	   14.2269	0.00283878	   14.1719	 0.0028549	   14.1719	   71.3726	
   14.0534	0.00282931	   13.9891	0.00289333	   14.1077	0.00283792	     14.05	0.00285352	     14.05	    71.338	
   13.9295	 0.0028277	   13.8665	0.00289167	   13.9843	 0.0028371	   13.9268	0.00285215	   13.9268	   71.3038	
   13.8053	0.00282621	   13.7431	0.00288995	   13.8576	0.00283631	    13.802	0.00285082	    13.802	   71.2706	
   13.6802	0.00282482	   13.6199	0.00288822	   13.7313	0.00283549	   13.6771	0.00284951	   13.6771	   71.2378	
   13.5551	0.00282348	   13.4961	0.00288649	   13.6044	 0.0028346	   13.5518	0.00284819	   13.5518	   71.2048	
   13.4294	0.00282212	   13.3717	0.00288476	   13.4772	0.00283357	   13.4261	0.00284682	   13.4261	   71.1705	
   13.3036	0.00282066	   13.2464	0.00288304	   13.3508	 0.0028324	   13.3003	0.00284536	   13.3003	   71.1341	
   13.1781	0.00281902	    13.121	0.00288129	   13.2235	0.00283107	   13.1742	0.00284379	   13.1742	   71.0948	
   13.0518	0.00281717	   12.9943	 0.0028795	   13.0952	0.00282959	   13.0471	0.00284209	   13.0471	   71.0522	
   12.9256	0.00281513	   12.8673	0.00287764	   12.9674	0.00282798	   12.9201	0.00284025	   12.9201	   71.0062	
    12.799	0.00281292	     12.74	0.00287569	   12.8394	 0.0028263	   12.7928	 0.0028383	   12.7928	   70.9576	
   12.6718	0.00281061	   12.6123	0.00287363	   12.7118	0.00282461	   12.6653	0.00283628	   12.6653	   70.9071	
    12.544	0.00280828	   12.4851	0.00287148	   12.5849	0.00282293	    12.538	0.00283423	    12.538	   70.8557	
   12.4157	  0.002806	   12.3568	0.00286923	   12.4575	0.00282126	     12.41	0.00283216	     12.41	   70.8041	
   12.2867	0.00280382	   12.2278	0.00286691	   12.3284	0.00281961	    12.281	0.00283012	    12.281	   70.7529	
   12.1574	0.00280175	   12.0986	0.00286455	   12.1994	0.00281797	   12.1518	0.00282809	   12.1518	   70.7023	
   12.0279	0.00279975	   11.9688	0.00286216	   12.0703	0.00281631	   12.0223	0.00282607	   12.0223	   70.6518	
   11.8975	0.00279776	   11.8382	0.00285976	   11.9395	0.00281458	   11.8917	0.00282403	   11.8917	   70.6009	
   11.7672	0.00279572	   11.7078	0.00285735	   11.8085	0.00281276	   11.7612	0.00282194	   11.7612	   70.5485	
   11.6365	0.00279354	   11.5771	0.00285492	   11.6774	0.00281083	   11.6303	0.00281976	   11.6303	   70.4941	
   11.5052	0.00279118	    11.446	0.00285245	   11.5459	 0.0028088	    11.499	0.00281748	    11.499	    70.437	
   11.3729	0.00278863	   11.3146	0.00284993	   11.4139	0.00280668	   11.3671	0.00281508	   11.3671	    70.377	
   11.2395	0.00278588	   11.1827	0.00284733	    11.281	 0.0028045	   11.2344	0.00281257	   11.2344	   70.3143	
    11.106	  0.002783	   11.0507	0.00284464	   11.1488	0.00280228	   11.1018	0.00280998	   11.1018	   70.2494	
   10.9719	0.00278005	    10.918	0.00284186	   11.0155	0.00280001	   10.9685	 0.0028073	   10.9685	   70.1826	
   10.8377	0.00277708	   10.7857	0.00283897	   10.8823	0.00279771	   10.8352	0.00280459	   10.8352	   70.1147	
   10.7027	0.00277417	   10.6526	  0.002836	   10.7489	0.00279537	   10.7014	0.00280185	   10.7014	   70.0461	
   10.5681	0.00277132	   10.5198	0.00283296	    10.615	0.00279296	   10.5676	0.00279908	   10.5676	    69.977	
   10.4332	0.00276853	    10.387	0.00282987	   10.4813	 0.0027905	   10.4338	 0.0027963	   10.4338	   69.9075	
   10.2979	0.00276578	   10.2538	0.00282675	   10.3469	0.00278796	   10.2995	0.00279349	   10.2995	   69.8373	
   10.1622	0.00276299	   10.1205	0.00282359	   10.2117	0.00278533	   10.1648	0.00279064	   10.1648	    69.766	
    10.026	0.00276012	    9.9867	0.00282042	   10.0768	 0.0027826	   10.0298	0.00278771	   10.0298	   69.6928	
   9.89047	 0.0027571	   9.85223	 0.0028172	   9.94142	0.00277974	   9.89471	0.00278468	   9.89471	    69.617	
   9.75432	 0.0027539	    9.7171	0.00281394	   9.80512	0.00277681	   9.75885	0.00278155	   9.75885	   69.5387	
   9.61754	0.00275052	   9.58077	0.00281061	   9.66895	0.00277379	   9.62242	0.00277831	   9.62242	   69.4577	
   9.48014	  0.002747	    9.4438	0.00280719	   9.53227	 0.0027707	    9.4854	0.00277496	    9.4854	   69.3741	
   9.34261	0.00274336	   9.30669	0.00280367	   9.39508	0.00276764	   9.34813	0.00277156	   9.34813	   69.2889	
   9.20504	0.00273967	   9.16951	0.00280005	   9.25788	0.00276458	   9.21081	 0.0027681	   9.21081	   69.2026	
   9.06671	0.00273599	   9.03156	0.00279634	   9.12006	0.00276155	   9.07278	0.00276463	   9.07278	   69.1157	
   8.92761	0.00273235	   8.89388	0.00279254	   8.98214	0.00275857	   8.93454	0.00276115	   8.93454	   69.0288	
   8.78828	0.00272876	   8.75585	0.00278867	   8.84354	0.00275559	   8.79589	0.00275767	   8.79589	   68.9418	
   8.64867	0.00272521	   8.61797	0.00278475	   8.70479	0.00275256	   8.65714	0.00275417	   8.65714	   68.8543	
   8.50927	0.00272165	   8.48016	0.00278078	   8.56635	0.00274941	   8.51859	0.00275062	   8.51859	   68.7654	
   8.37002	0.00271804	   8.34183	0.00277678	   8.42761	0.00274611	   8.37982	0.00274698	   8.37982	   68.6744	
    8.2303	0.00271432	   8.20348	0.00277274	   8.28854	0.00274264	   8.24077	0.00274323	   8.24077	   68.5808	
   8.09049	0.00271045	   8.06452	0.00276864	   8.14859	0.00273898	    8.1012	0.00273936	    8.1012	   68.4839	
   7.95016	 0.0027064	   7.92443	0.00276449	   8.00828	0.00273516	   7.96096	0.00273535	   7.96096	   68.3838	
   7.80876	0.00270218	   7.78376	0.00276025	   7.86656	0.00273124	   7.81969	0.00273122	   7.81969	   68.2806	
   7.66634	0.00269782	   7.64302	0.00275592	   7.72451	0.00272725	   7.67796	  0.002727	   7.67796	   68.1749	
   7.52344	0.00269336	   7.50218	0.00275148	   7.58266	0.00272327	   7.53609	 0.0027227	   7.53609	   68.0676	
   7.38006	0.00268885	   7.36065	0.00274692	   7.43987	0.00271932	   7.39353	0.00271837	   7.39353	   67.9591	
   7.23672	0.00268434	   7.21845	0.00274225	   7.29671	0.00271541	   7.25062	  0.002714	   7.25062	   67.8501	
   7.09296	0.00267985	   7.07571	0.00273749	   7.15276	0.00271153	   7.10714	0.00270962	   7.10714	   67.7406	
   6.94919	0.00267539	   6.93177	0.00273266	   7.00844	0.00270762	   6.96313	0.00270522	   6.96313	   67.6306	
   6.80588	0.00267094	   6.78721	0.00272777	   6.86427	0.00270362	   6.81912	0.00270078	   6.81912	   67.5195	
   6.66294	0.00266647	   6.64152	0.00272287	   6.72018	0.00269949	   6.67488	0.00269627	   6.67488	   67.4069	
   6.51977	0.00266191	   6.49527	0.00271797	   6.57613	0.00269517	   6.53039	0.00269168	   6.53039	   67.2921	
   6.37583	0.00265724	   6.34795	0.00271307	   6.43311	0.00269066	   6.38563	0.00268699	   6.38563	   67.1747	
   6.23113	 0.0026524	   6.20118	0.00270815	   6.28943	0.00268596	   6.24058	0.00268217	   6.24058	   67.0543	
   6.08675	0.00264741	   6.05437	0.00270319	    6.1451	0.00268111	   6.09541	0.00267723	   6.09541	   66.9308	
   5.94195	0.00264225	   5.90735	0.00269813	   6.00038	0.00267616	   5.94989	0.00267218	   5.94989	   66.8045	
   5.79687	0.00263696	   5.76075	0.00269295	   5.85502	0.00267117	   5.80421	0.00266702	   5.80421	   66.6756	
   5.65148	0.00263158	   5.61452	0.00268759	   5.70954	0.00266618	   5.65851	0.00266178	   5.65851	   66.5445	
   5.50577	0.00262615	   5.46806	0.00268207	   5.56287	0.00266121	   5.51223	0.00265648	   5.51223	   66.4119	
   5.35973	0.00262071	   5.32239	0.00267638	   5.41611	0.00265626	   5.36608	0.00265112	   5.36608	    66.278	
   5.21336	0.00261529	   5.17743	0.00267055	   5.26925	 0.0026513	   5.22001	0.00264571	   5.22001	   66.1428	
   5.06663	0.00260986	   5.03306	0.00266463	   5.12172	0.00264628	    5.0738	0.00264026	    5.0738	   66.0064	
   4.91955	0.00260442	   4.88869	0.00265865	   4.97408	0.00264115	   4.92744	0.00263474	   4.92744	   65.8685	
   4.77224	0.00259893	   4.74465	0.00265263	   4.82591	0.00263586	   4.78093	0.00262914	   4.78093	   65.7285	
   4.62456	0.00259333	   4.60101	0.00264661	   4.67815	0.00263039	   4.63457	0.00262345	   4.63457	   65.5861	
   4.47755	0.00258761	   4.45664	0.00264057	   4.52968	0.00262473	   4.48795	0.00261764	   4.48795	   65.4409	
   4.33061	0.00258172	   4.31052	0.00263451	   4.38157	0.00261889	    4.3409	 0.0026117	    4.3409	   65.2926	
   4.18264	0.00257567	   4.16536	0.00262839	   4.23325	0.00261291	   4.19375	0.00260566	   4.19375	   65.1414	
   4.03475	0.00256946	   4.02001	0.00262219	   4.08522	0.00260683	   4.04666	0.00259949	   4.04666	   64.9873	
    3.8869	0.00256314	   3.87286	0.00261587	   3.93692	0.00260071	   3.89889	0.00259324	   3.89889	    64.831	
   3.73958	0.00255673	   3.72614	0.00260943	   3.78885	0.00259456	   3.75152	 0.0025869	   3.75152	   64.6726	
   3.59207	0.00255027	   3.57989	0.00260282	   3.64071	 0.0025884	   3.60422	 0.0025805	   3.60422	   64.5125	
   3.44394	 0.0025438	   3.43287	0.00259608	   3.49221	0.00258224	   3.45634	0.00257404	   3.45634	    64.351	
   3.29576	0.00253733	    3.2872	0.00258918	   3.34387	0.00257603	   3.30895	0.00256751	   3.30895	   64.1878	
   3.14802	0.00253084	   3.14012	0.00258216	   3.19514	0.00256976	   3.16109	0.00256092	   3.16109	   64.0229	
   2.99961	0.00252431	   2.99223	0.00257504	   3.04758	0.00256336	   3.01314	0.00255424	   3.01314	   63.8559	
   2.85159	0.00251769	   2.84515	0.00256784	   2.90002	0.00255683	   2.86559	0.00254745	   2.86559	   63.6863	
   2.70338	0.00251096	   2.69824	0.00256061	   2.75244	0.00255012	   2.71802	0.00254056	   2.71802	    63.514	
   2.55549	0.00250407	   2.54989	0.00255333	    2.6048	0.00254323	   2.57006	0.00253354	   2.57006	   63.3386	
   2.40786	0.00249702	   2.40175	0.00254601	   2.45707	0.00253619	   2.42223	 0.0025264	   2.42223	   63.1601	
   2.25939	0.00248979	   2.25326	0.00253864	   2.30871	  0.002529	   2.27379	0.00251915	   2.27379	   62.9786	
   2.11065	0.00248241	    2.1039	0.00253119	   2.15921	0.00252173	   2.12459	0.00251178	   2.12459	   62.7944	
   1.96163	0.00247491	   1.95423	0.00252362	   2.01022	0.00251439	   1.97536	0.00250431	   1.97536	   62.6077	
   1.81233	0.00246731	   1.80477	0.00251592	   1.86167	0.00250702	   1.82626	0.00249675	   1.82626	   62.4187	
   1.66327	0.00245964	   1.65445	0.00250805	   1.71296	0.00249962	   1.67689	 0.0024891	   1.67689	   62.2276	
   1.51335	0.00245192	   1.50383	0.00250003	   1.56409	0.00249219	   1.52709	0.00248138	   1.52709	   62.0344	
   1.36315	0.00244412	   1.35343	0.00249186	   1.41556	0.00248464	   1.37738	0.00247354	   1.37738	   61.8385	
   1.21266	0.00243616	   1.20269	0.00248355	   1.26666	0.00247698	   1.22734	0.00246556	   1.22734	   61.6391	
   1.06347	0.00242806	   1.05214	0.00247515	   1.11753	 0.0024692	   1.07771	0.00245747	   1.07771	   61.4367	
  0.914378	0.00241985	  0.901751	0.00246666	  0.969206	0.00246126	  0.928445	0.00244926	  0.928445	   61.2314	
  0.764838	0.00241153	  0.751478	0.00245812	  0.820546	0.00245318	  0.778954	0.00244094	  0.778954	   61.0236	
  0.614337	0.00240319	  0.601289	0.00244953	  0.671547	0.00244499	  0.629058	0.00243257	  0.629058	   60.8142	
  0.463453	0.00239484	   0.45116	0.00244087	  0.522734	0.00243671	  0.479116	0.00242414	  0.479116	   60.6035	
  0.311677	0.00238649	  0.301586	0.00243215	  0.374589	0.00242837	  0.329284	0.00241567	  0.329284	   60.3918	
  0.159716	0.00237814	  0.151578	0.00242333	  0.226377	0.00241997	  0.179224	0.00240715	  0.179224	   60.1787	
0.00743676	0.00236973	0.00154278	0.00241439	 0.0787268	0.00241151	 0.0292354	0.00239854	 0.0292354	   59.9636	
   -0.1441	0.00236123	 -0.148543	 0.0024053	-0.0694871	0.00240298	  -0.12071	0.00238984	  -0.12071	   59.7459	
  -0.29445	0.00235254	 -0.298699	0.00239605	 -0.217724	0.00239435	 -0.270291	0.00238098	 -0.270291	   59.5246	
 -0.444261	0.00234357	  -0.44842	0.00238665	 -0.365488	0.00238557	  -0.41939	0.00237193	  -0.41939	   59.2983	
 -0.593595	0.00233435	 -0.598288	0.00237711	 -0.513369	0.00237662	 -0.568417	0.00236269	 -0.568417	   59.0672	
 -0.742521	0.00232484	 -0.748316	0.00236743	 -0.661392	0.00236748	 -0.717409	0.00235325	 -0.717409	   58.8312	
 -0.891099	0.00231508	 -0.899036	0.00235764	 -0.809576	0.00235817	  -0.86657	0.00234363	  -0.86657	   58.5908	
  -1.03965	0.00230517	  -1.04884	0.00234776	 -0.958197	0.00234868	  -1.01556	0.00233387	  -1.01556	   58.3468	
  -1.18846	0.00229518	  -1.19889	0.00233781	  -1.10646	0.00233907	   -1.1646	0.00232402	   -1.1646	   58.1005	
  -1.33754	0.00228517	  -1.34864	0.00232779	  -1.25495	0.00232937	  -1.31371	0.00231411	  -1.31371	   57.8527	
  -1.48636	 0.0022752	  -1.49816	 0.0023177	  -1.40263	 0.0023196	  -1.46238	0.00230417	  -1.46238	   57.6042	
  -1.63446	0.00226523	  -1.64747	0.00230752	  -1.55065	0.00230979	  -1.61086	0.00229418	  -1.61086	   57.3545	
  -1.78244	0.00225529	  -1.79664	0.00229724	    -1.699	0.00229994	  -1.75936	0.00228416	  -1.75936	   57.1039	
  -1.92983	0.00224529	  -1.94517	0.00228683	  -1.84718	0.00229003	  -1.90739	0.00227405	  -1.90739	   56.8513	
  -2.07776	0.00223518	  -2.09314	0.00227624	  -1.99626	0.00228004	  -2.05572	0.00226382	  -2.05572	   56.5955	
  -2.22607	0.00222488	  -2.24116	0.00226547	  -2.14527	0.00226991	  -2.20417	0.00225342	  -2.20417	   56.3356	
  -2.37332	0.00221436	  -2.39029	0.00225451	  -2.29518	0.00225964	  -2.35293	0.00224283	  -2.35293	   56.0708	
  -2.52121	0.00220357	   -2.5389	0.00224332	  -2.44541	0.00224918	  -2.50184	0.00223202	  -2.50184	   55.8006	
  -2.66919	0.00219253	  -2.68758	0.00223196	  -2.59543	0.00223853	  -2.65073	0.00222101	  -2.65073	   55.5251	
  -2.81728	0.00218128	  -2.83636	0.00222042	  -2.74528	 0.0022277	  -2.79964	 0.0022098	  -2.79964	    55.245	
   -2.9655	0.00216987	  -2.98578	0.00220875	    -2.895	0.00221671	  -2.94876	0.00219844	  -2.94876	   54.9611	
  -3.11335	0.00215835	  -3.13529	  0.002197	  -3.04463	0.00220559	  -3.09775	0.00218698	  -3.09775	   54.6745	
  -3.26036	0.00214677	  -3.28333	 0.0021852	  -3.19419	0.00219437	  -3.24596	0.00217544	  -3.24596	   54.3861	
  -3.40704	0.00213518	  -3.43176	0.00217332	   -3.3428	0.00218306	  -3.39386	0.00216385	  -3.39386	   54.0964	
  -3.55461	0.00212356	  -3.57991	0.00216139	  -3.49201	 0.0021717	  -3.54218	0.00215222	  -3.54218	   53.8054	
  -3.70251	0.00211192	  -3.72785	 0.0021494	  -3.64179	0.00216026	  -3.69072	0.00214053	  -3.69072	   53.5132	
  -3.85023	 0.0021002	  -3.87562	0.00213735	  -3.79055	0.00214874	   -3.8388	0.00212876	   -3.8388	    53.219	
   -3.9978	0.00208836	  -4.02326	0.00212514	   -3.9384	0.00213711	  -3.98649	0.00211687	  -3.98649	   52.9218	
  -4.14528	0.00207635	  -4.17134	0.00211277	  -4.08545	0.00212535	  -4.13402	0.00210482	  -4.13402	   52.6205	
  -4.29219	0.00206414	  -4.31881	 0.0021002	  -4.23283	0.00211341	  -4.28128	0.00209258	  -4.28128	   52.3146	
  -4.43964	0.00205171	  -4.46575	0.00208741	  -4.38004	 0.0021013	  -4.42847	0.00208014	  -4.42847	   52.0035	
  -4.58671	0.00203906	  -4.61314	0.00207441	  -4.52685	0.00208899	  -4.57557	0.00206749	  -4.57557	   51.6873	
  -4.73385	 0.0020262	  -4.76008	0.00206122	  -4.67308	0.00207651	  -4.72234	0.00205465	  -4.72234	   51.3661	
  -4.88109	0.00201317	  -4.90716	0.00204788	  -4.81933	0.00206385	  -4.86919	0.00204164	  -4.86919	   51.0409	
  -5.02742	0.00199998	  -5.05439	0.00203443	   -4.9651	0.00205106	  -5.01564	0.00202849	  -5.01564	   50.7122	
  -5.17293	0.00198668	  -5.20128	0.00202087	  -5.11101	0.00203816	  -5.16174	0.00201524	  -5.16174	   50.3809	
  -5.31879	0.00197329	  -5.34736	0.00200725	  -5.25655	0.00202517	  -5.30757	 0.0020019	  -5.30757	   50.0476	
  -5.46394	0.00195983	  -5.49326	0.00199361	  -5.40232	0.00201212	  -5.45317	0.00198852	  -5.45317	    49.713	
   -5.6085	 0.0019463	  -5.63797	0.00197996	  -5.54781	  0.001999	   -5.5981	0.00197508	   -5.5981	   49.3771	
  -5.75255	0.00193268	  -5.78178	 0.0019662	   -5.6923	0.00198578	  -5.74221	0.00196156	  -5.74221	   49.0389	
  -5.89618	0.00191896	  -5.92467	0.00195229	  -5.83616	0.00197244	  -5.88567	 0.0019479	  -5.88567	   48.6975	
  -6.04051	0.00190513	  -6.06675	0.00193816	  -5.97951	0.00195894	  -6.02892	0.00193408	  -6.02892	    48.352	
  -6.18395	0.00189112	  -6.20605	 0.0019237	  -6.12346	0.00194523	  -6.17116	0.00192002	  -6.17116	   48.0005	
  -6.32716	0.00187694	  -6.34182	 0.0019089	  -6.26645	 0.0019313	  -6.31181	0.00190571	  -6.31181	   47.6428	
  -6.47018	0.00186257	  -6.47807	0.00189378	   -6.4086	0.00191715	  -6.45228	0.00189117	  -6.45228	   47.2791	
  -6.61309	  0.001848	  -6.61483	0.00187843	  -6.55108	0.00190278	    -6.593	 0.0018764	    -6.593	     46.91	
  -6.75582	0.00183326	  -6.74887	 0.0018629	  -6.69299	0.00188824	  -6.73256	0.00186146	  -6.73256	   46.5366	
  -6.89855	0.00181837	  -6.88636	0.00184728	  -6.83482	0.00187357	  -6.87324	0.00184641	  -6.87324	   46.1602	
   -7.0408	0.00180336	  -7.02813	0.00183169	  -6.97662	0.00185881	  -7.01519	0.00183129	  -7.01519	   45.7823	
  -7.18268	0.00178825	  -7.16762	0.00181621	  -7.11741	0.00184399	   -7.1559	0.00181615	   -7.1559	   45.4038	
  -7.32425	0.00177302	   -7.3061	0.00180081	  -7.25836	 0.0018291	  -7.29624	0.00180098	  -7.29624	   45.0244	
   -7.4656	0.00175766	  -7.44844	0.00178544	    -7.399	0.00181415	  -7.43768	0.00178575	  -7.43768	   44.6438	
  -7.60626	0.00174217	  -7.59122	0.00177003	   -7.5394	 0.0017991	  -7.57896	0.00177044	  -7.57896	   44.2609	
  -7.74636	0.00172652	  -7.73237	0.00175446	  -7.68017	0.00178391	  -7.71963	0.00175496	  -7.71963	   43.8741	
  -7.88587	0.00171068	  -7.87495	0.00173863	  -7.82106	0.00176855	  -7.86062	0.00173929	  -7.86062	   43.4822	
  -8.02554	0.00169466	  -8.01601	0.00172244	  -7.96238	0.00175299	  -8.00131	0.00172336	  -8.00131	   43.0841	
  -8.16542	0.00167845	  -8.15573	0.00170587	  -8.10363	0.00173723	  -8.14159	0.00170718	  -8.14159	   42.6795	
  -8.30555	0.00166207	   -8.2969	0.00168894	  -8.24486	0.00172125	  -8.28244	0.00169075	  -8.28244	   42.2688	
  -8.44491	0.00164552	  -8.43734	0.00167171	  -8.38509	0.00170504	  -8.42245	0.00167409	  -8.42245	   41.8522	
  -8.58468	0.00162884	  -8.57614	 0.0016543	  -8.52497	0.00168867	  -8.56193	0.00165727	  -8.56193	   41.4317	
  -8.72435	0.00161202	  -8.71454	 0.0016368	  -8.66511	0.00167214	  -8.70133	0.00164032	  -8.70133	   41.0081	
  -8.86296	0.00159509	  -8.85262	0.00161931	   -8.8045	0.00165549	  -8.84003	0.00162329	  -8.84003	   40.5824	
  -9.00168	0.00157803	  -8.98944	0.00160187	  -8.94391	0.00163877	  -8.97834	0.00160622	  -8.97834	   40.1556	
  -9.14058	0.00156083	  -9.12725	0.00158449	  -9.08275	0.00162199	  -9.11686	0.00158911	  -9.11686	   39.7276	
   -9.2797	 0.0015435	  -9.26448	0.00156712	  -9.22164	0.00160518	  -9.25527	0.00157193	  -9.25527	   39.2983	
  -9.41856	0.00152601	  -9.39965	0.00154967	  -9.36065	0.00158831	  -9.39295	0.00155466	  -9.39295	   38.8666	
  -9.55671	0.00150836	  -9.53511	0.00153205	  -9.49877	0.00157134	   -9.5302	0.00153725	   -9.5302	   38.4312	
  -9.69375	0.00149054	  -9.67143	0.00151417	  -9.63615	0.00155426	  -9.66711	0.00151966	  -9.66711	   37.9915	
  -9.83037	0.00147255	  -9.80599	  0.001496	  -9.77291	0.00153699	  -9.80309	0.00150185	  -9.80309	   37.5462	
  -9.96666	0.00145439	  -9.93953	0.00147749	  -9.90969	0.00151949	  -9.93863	0.00148379	  -9.93863	   37.0948	
  -10.1027	0.00143609	  -10.0733	0.00145871	  -10.0466	0.00150175	  -10.0742	0.00146551	  -10.0742	   36.6378	
  -10.2381	0.00141764	  -10.2062	0.00143969	   -10.183	0.00148375	  -10.2091	0.00144703	  -10.2091	   36.1756	
   -10.373	0.00139908	  -10.3385	0.00142053	  -10.3193	0.00146553	  -10.3436	0.00142838	  -10.3436	   35.7094	
  -10.5075	0.00138041	  -10.4703	0.00140131	  -10.4553	0.00144713	  -10.4777	0.00140961	  -10.4777	   35.2404	
  -10.6421	0.00136163	  -10.6016	0.00138209	  -10.5907	0.00142861	  -10.6115	0.00139078	  -10.6115	   34.7694	
  -10.7765	0.00134273	  -10.7328	 0.0013629	  -10.7251	0.00141004	  -10.7448	0.00137189	  -10.7448	   34.2973	
  -10.9102	0.00132371	  -10.8632	0.00134373	  -10.8591	0.00139145	  -10.8775	0.00135296	  -10.8775	   33.8241	
   -11.044	0.00130455	  -10.9926	0.00132453	  -10.9929	0.00137285	  -11.0098	0.00133398	  -11.0098	   33.3494	
  -11.1776	0.00128525	  -11.1205	0.00130523	  -11.1262	0.00135425	  -11.1414	0.00131491	  -11.1414	   32.8728	
  -11.3114	0.00126581	  -11.2489	0.00128575	  -11.2594	0.00133559	  -11.2732	0.00129572	  -11.2732	   32.3929	
  -11.4438	0.00124623	  -11.3776	0.00126601	  -11.3932	0.00131683	  -11.4049	0.00127635	  -11.4049	   31.9089	
   -11.575	0.00122652	  -11.5064	0.00124596	  -11.5256	 0.0012979	  -11.5357	0.00125679	  -11.5357	   31.4198	
  -11.7058	0.00120669	  -11.6352	0.00122559	  -11.6577	0.00127876	  -11.6662	0.00123701	  -11.6662	   30.9252	
  -11.8362	0.00118674	  -11.7631	0.00120493	  -11.7903	0.00125938	  -11.7965	0.00121702	  -11.7965	   30.4254	
  -11.9648	0.00116667	  -11.8903	0.00118406	  -11.9222	0.00123976	  -11.9258	0.00119683	  -11.9258	   29.9208	
  -12.0931	0.00114649	  -12.0168	0.00116306	  -12.0538	0.00121992	  -12.0546	0.00117649	  -12.0546	   29.4123	
   -12.221	0.00112622	  -12.1435	0.00114202	   -12.185	0.00119992	  -12.1832	0.00115605	  -12.1832	   28.9013	
  -12.3486	0.00110582	  -12.2698	0.00112101	   -12.316	0.00117979	  -12.3115	0.00113554	  -12.3115	   28.3885	
  -12.4761	 0.0010853	   -12.396	0.00110003	  -12.4463	0.00115959	  -12.4395	0.00111498	  -12.4395	   27.8744	
  -12.6025	0.00106469	   -12.522	0.00107908	  -12.5761	0.00113936	  -12.5669	0.00109438	  -12.5669	   27.3595	
  -12.7281	0.00104402	  -12.6482	0.00105812	  -12.7061	0.00111911	  -12.6941	0.00107375	  -12.6941	   26.8437	
  -12.8534	0.00102324	  -12.7734	0.00103706	  -12.8357	0.00109882	  -12.8209	0.00105304	  -12.8209	   26.3261	
  -12.9782	0.00100234	  -12.8979	0.00101584	  -12.9647	0.00107848	  -12.9469	0.00103222	  -12.9469	   25.8054	
  -13.1027	0.000981263	  -13.0229	0.000994384	  -13.0932	0.00105802	  -13.0729	0.00101122	  -13.0729	   25.2806	
  -13.2253	0.00096001	  -13.1473	0.000972658	  -13.2208	0.00103742	  -13.1978	0.00099003	  -13.1978	   24.7507	
  -13.3442	0.000938542	  -13.2715	0.000950674	  -13.3475	0.00101664	  -13.3211	0.000968617	  -13.3211	   24.2154	
  -13.4625	0.000916873	  -13.3954	0.000928462	  -13.4737	0.000995649	  -13.4439	0.000946995	  -13.4439	   23.6749	
  -13.5824	0.000895036	  -13.5188	0.000906086	  -13.5994	0.00097446	  -13.5669	0.000925194	  -13.5669	   23.1299	
  -13.6998	0.00087308	  -13.6417	0.00088362	  -13.7248	0.000953092	  -13.6888	0.000903264	  -13.6888	   22.5816	
  -13.8159	0.000851033	  -13.7643	0.000861119	  -13.8495	0.000931582	  -13.8099	0.000881244	  -13.8099	   22.0311	
  -13.9363	0.000828968	  -13.8863	0.000838622	  -13.9731	0.000909974	  -13.9319	0.000859188	  -13.9319	   21.4797	
  -14.0572	0.000806951	  -14.0083	0.000816139	  -14.0957	0.00088831	  -14.0538	0.000837133	  -14.0538	   20.9283	
  -14.1764	0.000784981	  -14.1295	0.000793652	  -14.2182	0.000866619	  -14.1747	0.000815084	  -14.1747	   20.3771	
   -14.298	0.000763039	  -14.2505	0.000771124	  -14.3402	0.000844912	  -14.2962	0.000793025	  -14.2962	   19.8256	
  -14.4212	0.000741094	  -14.3708	0.000748498	  -14.4607	0.000823172	  -14.4176	0.000770922	  -14.4176	    19.273	
  -14.5431	0.000719084	  -14.4903	0.000725717	    -14.58	0.000801372	  -14.5378	0.000748724	  -14.5378	   18.7181	
  -14.6647	0.000696935	  -14.6095	0.000702748	  -14.6988	0.000779468	  -14.6577	0.000726384	  -14.6577	   18.1596	
  -14.7848	0.000674588	  -14.7276	0.00067958	  -14.8169	0.000757414	  -14.7764	0.000703861	  -14.7764	   17.5965	
   -14.904	0.000652014	  -14.8448	0.000656226	  -14.9343	0.000735166	  -14.8944	0.000681135	  -14.8944	   17.0284	
   -15.022	0.000629223	  -14.9621	0.000632725	   -15.052	0.000712707	   -15.012	0.000658218	   -15.012	   16.4555	
  -15.1391	0.000606239	  -15.0788	0.000609126	  -15.1688	0.000690067	  -15.1289	0.000635144	  -15.1289	   15.8786	
   -15.255	0.000583114	  -15.1951	0.000585482	  -15.2856	0.000667294	  -15.2452	0.000611963	  -15.2452	   15.2991	
  -15.3688	0.000559917	  -15.3107	0.000561838	  -15.4018	0.000644453	  -15.3604	0.000588736	  -15.3604	   14.7184	
   -15.482	0.000536714	  -15.4257	0.000538213	  -15.5182	0.000621616	  -15.4753	0.000565515	  -15.4753	   14.1379	
  -15.5935	0.000513541	  -15.5393	0.00051461	  -15.6355	0.000598821	  -15.5895	0.000542324	  -15.5895	   13.5581	
  -15.7044	0.000490403	  -15.6529	0.000491004	  -15.7532	0.000576075	  -15.7035	0.000519161	  -15.7035	    12.979	
  -15.8162	0.000467285	  -15.7659	0.000467358	  -15.8703	0.000553357	  -15.8175	  0.000496	  -15.8175	      12.4	
  -15.9269	0.000444153	  -15.8779	0.000443621	  -15.9873	0.000530615	  -15.9307	0.000472796	  -15.9307	   11.8199	
  -16.0368	0.000420947	  -15.9898	0.000419752	  -16.1025	0.000507803	   -16.043	0.000449501	   -16.043	   11.2375	
  -16.1472	0.000397626	  -16.1014	0.00039572	  -16.2161	0.000484874	  -16.1549	0.000426073	  -16.1549	   10.6518	
  -16.2573	0.000374158	  -16.2121	0.000371519	  -16.3286	0.000461754	   -16.266	0.000402477	   -16.266	   10.0619	
  -16.3666	0.000350531	  -16.3223	0.00034717	    -16.44	0.000438451	  -16.3763	0.000378717	  -16.3763	   9.46793	
  -16.4743	0.000326753	  -16.4317	0.000322716	  -16.5496	0.000414973	  -16.4852	0.000354814	  -16.4852	   8.87035	
  -16.5819	0.000302856	  -16.5404	0.000298205	  -16.6571	0.000391329	  -16.5931	0.000330797	  -16.5931	   8.26992	
  -16.6893	0.000278883	  -16.6487	0.000273696	  -16.7635	0.000367589	  -16.7005	0.000306722	  -16.7005	   7.66806	
  -16.7958	0.000254879	  -16.7565	0.000249225	  -16.8689	0.000343822	  -16.8071	0.000282642	  -16.8071	   7.06605	
   -16.901	0.000230883	  -16.8638	0.000224814	  -16.9735	0.000320056	  -16.9128	0.000258584	  -16.9128	   6.46461	
  -17.0059	0.000206927	  -16.9707	0.000200454	  -17.0768	0.000296348	  -17.0178	0.000234576	  -17.0178	   5.86441	
    -17.11	0.000183011	   -17.076	0.000176115	  -17.1793	0.000272709	  -17.1218	0.000210612	  -17.1218	   5.26529	
  -17.2131	0.000159127	  -17.1809	0.000151755	   -17.282	0.000249142	  -17.2253	0.000186675	  -17.2253	   4.66687	
  -17.3155	0.00013525	  -17.2856	0.000127332	  -17.3823	0.000225612	  -17.3278	0.000162731	  -17.3278	   4.06828	
  -17.4174	0.000111344	  -17.3893	0.000102808	  -17.4817	0.000202061	  -17.4295	0.000138737	  -17.4295	   3.46844	
  -17.5183	8.73697e-05	  -17.4912	7.81668e-05	  -17.5826	0.000178434	  -17.5307	0.000114657	  -17.5307	   2.86642	
  -17.6186	6.32931e-05	  -17.5922	5.34129e-05	  -17.6813	0.000154695	  -17.6307	9.04669e-05	  -17.6307	   2.26167	
  -17.7186	3.9096e-05	   -17.692	2.85741e-05	  -17.7793	0.000130805	    -17.73	6.61582e-05	    -17.73	   1.65396	
  -17.8181	1.47882e-05	  -17.7909	3.69647e-06	  -17.8779	0.000106772	  -17.8289	4.17521e-05	  -17.8289	    1.0438	
  -17.9166	-9.60611e-06	  -17.8886	-2.11761e-05	  -17.9735	8.26066e-05	  -17.9262	1.72748e-05	  -17.9262	   0.43187	
  -18.0145	-3.40473e-05	  -17.9859	-4.60031e-05	  -18.0677	5.83612e-05	  -18.0227	-7.22977e-06	  -18.0227	 -0.180744	
  -18.1126	-5.84862e-05	  -18.0832	-7.07615e-05	  -18.1629	3.41195e-05	  -18.1195	-3.17094e-05	  -18.1195	 -0.792735	
    -18.21	-8.28814e-05	    -18.18	-9.54492e-05	  -18.2565	9.90994e-06	  -18.2155	-5.61402e-05	  -18.2155	  -1.40351	
   -18.306	-0.000107206	  -18.2756	-0.000120082	  -18.3487	-1.42078e-05	  -18.3101	-8.04987e-05	  -18.3101	  -2.01247	
  -18.4018	-0.000131449	  -18.3704	-0.000144689	  -18.4405	-3.82235e-05	  -18.4042	-0.000104787	  -18.4042	  -2.61969	
  -18.4973	-0.000155623	  -18.4644	-0.000169302	  -18.5318	-6.2167e-05	  -18.4978	-0.000129031	  -18.4978	  -3.22577	
  -18.5919	-0.000179756	  -18.5575	-0.000193951	  -18.6216	-8.60695e-05	  -18.5904	-0.000153259	  -18.5904	  -3.83147	
  -18.6867	-0.000203892	  -18.6495	-0.000218654	   -18.712	-0.000110001	  -18.6827	-0.000177516	  -18.6827	  -4.43789	
  -18.7807	-0.000228062	  -18.7406	-0.000243411	  -18.8015	-0.000134024	  -18.7743	-0.000201832	  -18.7743	  -5.04581	
  -18.8736	-0.000252291	  -18.8306	-0.000268205	  -18.8894	-0.000158162	  -18.8646	-0.000226219	  -18.8646	  -5.65548	
  -18.9658	-0.000276586	   -18.921	-0.000293009	  -18.9771	-0.000182434	  -18.9546	-0.000250676	  -18.9546	  -6.26691	
   -19.057	-0.000300929	  -19.0106	-0.000317787	  -19.0646	-0.000206788	   -19.044	-0.000275168	   -19.044	   -6.8792	
  -19.1474	-0.000325293	  -19.0993	-0.000342505	  -19.1508	-0.000231176	  -19.1325	-0.000299658	  -19.1325	  -7.49144	
  -19.2359	-0.000349637	  -19.1881	-0.000367136	  -19.2365	-0.00025552	  -19.2202	-0.000324098	  -19.2202	  -8.10244	
  -19.3238	-0.000373925	  -19.2756	-0.000391667	  -19.3211	-0.000279743	  -19.3068	-0.000348445	  -19.3068	  -8.71113	
   -19.411	-0.000398133	   -19.361	-0.000416104	  -19.4048	-0.000303796	  -19.3923	-0.000372678	  -19.3923	  -9.31694	
  -19.4971	-0.000422245	  -19.4458	-0.000440464	  -19.4885	-0.000327666	  -19.4772	-0.000396792	  -19.4772	  -9.91979	
  -19.5826	-0.000446264	  -19.5303	-0.000464772	  -19.5714	-0.000351375	  -19.5615	-0.000420804	  -19.5615	  -10.5201	
  -19.6677	-0.000470204	  -19.6138	-0.00048906	  -19.6543	-0.000374995	  -19.6453	-0.000444753	  -19.6453	  -11.1188	
  -19.7515	-0.000494092	  -19.6967	-0.000513348	  -19.7367	-0.000398602	  -19.7283	-0.000468681	  -19.7283	   -11.717	
  -19.8345	-0.000517957	  -19.7787	-0.000537654	  -19.8191	-0.000422265	  -19.8107	-0.000492625	  -19.8107	  -12.3156	
  -19.9164	-0.000541819	    -19.86	-0.000561976	  -19.9013	-0.000446037	  -19.8926	-0.000516611	  -19.8926	  -12.9153	
  -19.9971	-0.000565692	  -19.9409	-0.000586294	   -19.983	-0.000469933	  -19.9737	-0.00054064	  -19.9737	   -13.516	
   -20.077	-0.000589575	  -20.0202	-0.000610581	   -20.065	-0.000493921	  -20.0541	-0.000564692	  -20.0541	  -14.1173	
  -20.1558	-0.000613449	  -20.0993	-0.000634807	   -20.146	-0.00051794	  -20.1337	-0.000588732	  -20.1337	  -14.7183	
  -20.2339	-0.000637292	   -20.178	-0.000658945	  -20.2262	-0.000541912	  -20.2127	-0.000612716	  -20.2127	  -15.3179	
  -20.3105	-0.000661068	   -20.256	-0.000682974	  -20.3056	-0.00056575	  -20.2907	-0.000636597	  -20.2907	  -15.9149	
  -20.3868	-0.000684753	   -20.333	-0.000706877	  -20.3841	-0.000589401	   -20.368	-0.000660344	   -20.368	  -16.5086	
  -20.4628	-0.000708322	  -20.4084	-0.000730666	  -20.4624	-0.000612831	  -20.4445	-0.000683939	  -20.4445	  -17.0985	
  -20.5373	-0.000731762	  -20.4826	-0.000754357	  -20.5397	-0.000636042	  -20.5199	-0.000707387	  -20.5199	  -17.6847	
  -20.6118	-0.000755076	   -20.556	-0.000777969	  -20.6164	-0.000659078	  -20.5947	-0.000730708	  -20.5947	  -18.2677	
  -20.6859	-0.000778279	  -20.6295	-0.000801523	  -20.6922	 -0.000682	  -20.6692	-0.000753934	  -20.6692	  -18.8483	
  -20.7601	-0.000801389	  -20.7023	-0.000825031	  -20.7674	-0.000704885	  -20.7433	-0.000777102	  -20.7433	  -19.4275	
  -20.8334	-0.000824435	  -20.7742	-0.000848498	   -20.842	-0.0007278	  -20.8165	-0.000800244	  -20.8165	  -20.0061	
  -20.9057	-0.000847431	   -20.845	-0.000871921	  -20.9158	-0.000750779	  -20.8889	-0.000823377	  -20.8889	  -20.5844	
  -20.9764	-0.000870392	  -20.9152	-0.000895281	  -20.9886	-0.000773832	    -20.96	-0.000846502	    -20.96	  -21.1625	
  -21.0463	-0.000893317	  -20.9855	-0.000918561	  -21.0611	-0.000796932	   -21.031	-0.000869603	   -21.031	  -21.7401	
  -21.1159	-0.000916195	  -21.0547	-0.000941736	  -21.1333	-0.00082002	  -21.1013	-0.00089265	  -21.1013	  -22.3163	
  -21.1855	-0.000938998	  -21.1232	-0.000964789	  -21.2047	-0.000843021	  -21.1712	-0.000915603	  -21.1712	  -22.8901	
  -21.2533	-0.000961699	  -21.1908	-0.000987714	  -21.2759	-0.000865866	    -21.24	-0.000938426	    -21.24	  -23.4607	
  -21.3207	-0.000984274	  -21.2574	-0.00101055	   -21.346	-0.000888498	   -21.308	-0.000961108	   -21.308	  -24.0277	
  -21.3866	-0.0010067	  -21.3227	-0.00103328	   -21.415	-0.000910891	  -21.3748	-0.000983625	  -21.3748	  -24.5906	
  -21.4521	-0.00102898	  -21.3873	-0.00105588	  -21.4834	-0.000933053	  -21.4409	-0.00100597	  -21.4409	  -25.1493	
  -21.5173	-0.00105111	  -21.4509	-0.00107837	  -21.5513	-0.000955027	  -21.5065	-0.00102817	  -21.5065	  -25.7042	
  -21.5805	-0.0010731	  -21.5135	-0.00110072	  -21.6186	-0.000976869	  -21.5709	-0.00105023	  -21.5709	  -26.2557	
  -21.6426	-0.00109498	  -21.5749	-0.00112292	  -21.6851	-0.000998649	  -21.6342	-0.00107218	  -21.6342	  -26.8046	
  -21.7041	-0.00111676	  -21.6349	-0.00114499	  -21.7506	-0.00102042	  -21.6965	-0.00109406	  -21.6965	  -27.3514	
  -21.7653	-0.00113846	  -21.6941	-0.00116691	  -21.8149	-0.00104222	  -21.7581	-0.00111586	  -21.7581	  -27.8966	
   -21.825	-0.00116009	  -21.7529	-0.0011887	  -21.8781	-0.00106404	  -21.8187	-0.00113761	  -21.8187	  -28.4403	
  -21.8847	-0.00118163	  -21.8104	-0.00121036	  -21.9404	-0.00108586	  -21.8785	-0.00115928	  -21.8785	  -28.9821	
  -21.9441	-0.00120307	  -21.8674	-0.00123191	  -22.0014	-0.00110762	  -21.9376	-0.00118087	  -21.9376	  -29.5216	
  -22.0025	-0.00122439	   -21.924	-0.00125336	  -22.0613	-0.00112925	  -21.9959	-0.00120234	  -21.9959	  -30.0584	
    -22.06	-0.00124557	  -21.9796	-0.00127472	  -22.1205	-0.0011507	  -22.0534	-0.00122366	  -22.0534	  -30.5916	
  -22.1163	-0.00126659	  -22.0346	-0.00129597	   -22.179	-0.00117193	    -22.11	-0.00124483	    -22.11	  -31.1208	
  -22.1714	-0.00128744	  -22.0889	-0.00131713	   -22.236	-0.00119292	  -22.1654	-0.00126583	  -22.1654	  -31.6457	
  -22.2257	-0.00130812	  -22.1423	-0.00133817	   -22.292	-0.00121368	    -22.22	-0.00128666	    -22.22	  -32.1664	
  -22.2802	-0.00132865	  -22.1952	-0.00135906	   -22.347	-0.00123425	  -22.2741	-0.00130732	  -22.2741	   -32.683	
  -22.3335	-0.00134904	  -22.2476	-0.00137978	  -22.4012	-0.00125469	  -22.3274	-0.00132784	  -22.3274	  -33.1959	
  -22.3863	-0.0013693	  -22.2991	-0.00140031	  -22.4548	-0.00127506	  -22.3801	-0.00134822	  -22.3801	  -33.7055	
  -22.4389	-0.00138946	  -22.3503	-0.00142065	  -22.5075	-0.00129538	  -22.4322	-0.00136849	  -22.4322	  -34.2124	
  -22.4915	-0.00140951	     -22.4	-0.00144079	  -22.5591	-0.00131569	  -22.4836	-0.00138866	  -22.4836	  -34.7166	
  -22.5431	-0.00142947	  -22.4498	-0.00146075	  -22.6102	-0.00133598	  -22.5343	-0.00140873	  -22.5343	  -35.2183	
  -22.5934	-0.00144931	  -22.4989	-0.00148056	  -22.6605	-0.0013562	  -22.5843	-0.00142869	  -22.5843	  -35.7172	
  -22.6435	-0.00146901	  -22.5467	-0.00150024	   -22.709	-0.00137632	  -22.6331	-0.00144852	  -22.6331	   -36.213	
  -22.6926	-0.00148856	  -22.5927	-0.0015198	  -22.7567	-0.00139626	  -22.6807	-0.00146821	  -22.6807	  -36.7052	
  -22.7408	-0.00150794	  -22.6373	-0.00153926	  -22.8034	-0.00141599	  -22.7272	-0.00148773	  -22.7272	  -37.1932	
  -22.7879	-0.00152713	  -22.6812	-0.00155862	  -22.8499	-0.00143547	   -22.773	-0.00150707	   -22.773	  -37.6768	
  -22.8334	-0.00154613	  -22.7242	-0.00157785	  -22.8958	-0.00145471	  -22.8178	-0.00152623	  -22.8178	  -38.1558	
  -22.8772	-0.00156495	  -22.7672	-0.00159694	    -22.94	-0.00147368	  -22.8614	-0.00154519	  -22.8614	  -38.6298	
  -22.9198	-0.00158361	   -22.809	-0.00161588	  -22.9834	-0.00149244	   -22.904	-0.00156398	   -22.904	  -39.0994	
  -22.9627	-0.0016021	  -22.8501	-0.00163464	   -23.026	-0.00151109	  -22.9463	-0.00158261	  -22.9463	  -39.5652	
  -23.0048	-0.00162042	    -22.89	-0.00165322	  -23.0683	-0.00152966	  -22.9877	-0.0016011	  -22.9877	  -40.0275	
  -23.0454	-0.00163861	  -22.9285	-0.0016716	  -23.1095	-0.0015482	  -23.0278	-0.00161947	  -23.0278	  -40.4867	
  -23.0851	-0.00165667	  -22.9663	-0.0016898	  -23.1492	-0.00156676	  -23.0669	-0.00163774	  -23.0669	  -40.9436	
  -23.1237	-0.00167464	  -23.0031	-0.00170781	  -23.1877	-0.00158532	  -23.1049	-0.00165592	  -23.1049	  -41.3981	
  -23.1612	-0.00169252	  -23.0391	-0.00172567	  -23.2257	-0.00160383	   -23.142	-0.00167401	   -23.142	  -41.8502	
  -23.1981	-0.00171031	  -23.0746	-0.00174338	  -23.2624	-0.00162222	  -23.1784	-0.00169197	  -23.1784	  -42.2993	
  -23.2339	-0.00172801	  -23.1101	-0.00176095	   -23.298	-0.00164041	   -23.214	-0.00170979	   -23.214	  -42.7447	
  -23.2696	-0.00174556	  -23.1445	-0.00177839	  -23.3319	-0.00165833	  -23.2486	-0.00172743	  -23.2486	  -43.1857	
   -23.304	-0.00176295	  -23.1771	-0.00179571	  -23.3645	-0.00167594	  -23.2819	-0.00174487	  -23.2819	  -43.6217	
   -23.337	-0.00178013	  -23.2091	-0.00181289	   -23.396	-0.00169324	   -23.314	-0.00176208	   -23.314	  -44.0521	
   -23.369	-0.00179711	  -23.2403	-0.00182992	  -23.4265	-0.00171026	  -23.3453	-0.0017791	  -23.3453	  -44.4775	
  -23.4003	-0.00181387	  -23.2702	-0.0018468	  -23.4563	-0.00172709	  -23.3756	-0.00179592	  -23.3756	   -44.898	
  -23.4312	-0.00183039	  -23.2983	-0.00186351	  -23.4853	-0.00174381	  -23.4049	-0.00181257	  -23.4049	  -45.3142	
  -23.4611	-0.00184671	  -23.3253	-0.00188002	  -23.5131	-0.00176049	  -23.4332	-0.00182907	  -23.4332	  -45.7268	
  -23.4897	-0.00186284	  -23.3516	-0.00189635	    -23.54	-0.00177717	  -23.4604	-0.00184545	  -23.4604	  -46.1363	
  -23.5162	-0.00187878	  -23.3767	-0.00191248	  -23.5662	-0.00179388	  -23.4864	-0.00186172	  -23.4864	  -46.5429	
  -23.5424	-0.00189458	  -23.4006	-0.00192844	  -23.5916	-0.00181059	  -23.5115	-0.00187787	  -23.5115	  -46.9467	
  -23.5678	-0.00191024	  -23.4238	-0.00194423	  -23.6156	-0.00182723	  -23.5357	-0.0018939	  -23.5357	  -47.3476	
  -23.5919	-0.00192577	  -23.4466	-0.00195988	  -23.6385	-0.00184372	   -23.559	-0.00190979	   -23.559	  -47.7448	
  -23.6157	-0.00194117	  -23.4681	-0.00197539	  -23.6606	-0.00185999	  -23.5815	-0.00192552	  -23.5815	   -48.138	
  -23.6395	-0.00195644	  -23.4884	-0.00199077	   -23.682	-0.00187597	  -23.6033	-0.00194106	  -23.6033	  -48.5266	
  -23.6618	-0.00197159	  -23.5081	-0.00200601	   -23.703	-0.00189163	  -23.6243	-0.00195641	  -23.6243	  -48.9102	
  -23.6837	-0.0019866	  -23.5265	-0.00202109	  -23.7227	-0.00190701	  -23.6443	-0.00197157	  -23.6443	  -49.2891	
  -23.7034	-0.00200144	  -23.5448	-0.00203602	   -23.741	-0.00192217	  -23.6631	-0.00198654	  -23.6631	  -49.6635	
  -23.7218	-0.00201609	  -23.5625	-0.00205079	  -23.7586	-0.00193714	  -23.6809	-0.00200134	  -23.6809	  -50.0335	
  -23.7398	-0.00203057	  -23.5789	-0.0020654	  -23.7749	-0.00195202	  -23.6978	 -0.002016	  -23.6978	  -50.3999	
  -23.7566	-0.00204485	  -23.5949	-0.00207986	  -23.7906	-0.00196685	   -23.714	-0.00203052	   -23.714	   -50.763	
   -23.772	-0.00205894	  -23.6103	-0.00209416	  -23.8056	-0.00198163	  -23.7293	-0.00204491	  -23.7293	  -51.1228	
  -23.7862	-0.00207284	  -23.6245	-0.00210831	  -23.8193	-0.00199636	  -23.7433	-0.00205917	  -23.7433	  -51.4792	
  -23.7996	-0.00208655	   -23.638	-0.0021223	  -23.8314	 -0.002011	  -23.7563	-0.00207329	  -23.7563	  -51.8321	
  -23.8117	-0.00210011	  -23.6504	-0.00213615	  -23.8424	-0.00202553	  -23.7682	-0.00208726	  -23.7682	  -52.1815	
  -23.8232	-0.00211352	  -23.6612	-0.00214983	  -23.8529	-0.00203988	  -23.7791	-0.00210108	  -23.7791	   -52.527	
  -23.8336	-0.0021268	   -23.671	-0.00216337	  -23.8623	 -0.002054	   -23.789	-0.00211472	   -23.789	  -52.8681	
  -23.8433	-0.00213996	  -23.6804	-0.00217676	  -23.8698	-0.0020679	  -23.7978	-0.0021282	  -23.7978	  -53.2051	
  -23.8514	 -0.002153	  -23.6889	-0.00218997	  -23.8767	-0.00208157	  -23.8057	-0.00214151	  -23.8057	  -53.5378	
  -23.8581	-0.00216591	   -23.696	-0.00220303	  -23.8822	-0.00209503	  -23.8121	-0.00215466	  -23.8121	  -53.8664	
  -23.8633	-0.00217868	  -23.7027	-0.0022159	  -23.8871	-0.00210833	  -23.8177	-0.00216764	  -23.8177	  -54.1909	
  -23.8672	-0.00219129	  -23.7087	-0.00222858	  -23.8913	-0.00212149	  -23.8224	-0.00218046	  -23.8224	  -54.5114	
  -23.8699	-0.00220374	  -23.7139	-0.00224109	  -23.8943	-0.00213457	   -23.826	-0.00219313	   -23.826	  -54.8283	
   -23.872	 -0.002216	  -23.7179	-0.00225339	  -23.8962	-0.00214756	  -23.8287	-0.00220565	  -23.8287	  -55.1413	
  -23.8735	-0.00222808	  -23.7218	-0.00226553	  -23.8972	-0.00216048	  -23.8308	-0.00221803	  -23.8308	  -55.4508	
  -23.8735	-0.00223999	   -23.724	-0.00227754	  -23.8972	-0.00217329	  -23.8316	-0.00223027	  -23.8316	  -55.7568	
  -23.8725	-0.00225172	  -23.7257	-0.00228944	  -23.8968	-0.00218597	  -23.8317	-0.00224238	  -23.8317	  -56.0594	
  -23.8708	-0.00226332	  -23.7264	-0.00230127	  -23.8946	-0.00219847	  -23.8306	-0.00225435	  -23.8306	  -56.3588	
  -23.8677	-0.00227479	  -23.7262	 -0.002313	  -23.8917	-0.00221076	  -23.8285	-0.00226618	  -23.8285	  -56.6546	
   -23.865	-0.00228616	  -23.7247	-0.00232464	  -23.8883	-0.00222282	   -23.826	-0.00227788	   -23.826	  -56.9469	
  -23.8617	-0.00229743	  -23.7224	-0.00233617	  -23.8838	-0.00223465	  -23.8226	-0.00228942	  -23.8226	  -57.2354	
  -23.8567	-0.00230858	  -23.7195	-0.00234752	  -23.8783	-0.00224626	  -23.8182	-0.00230079	  -23.8182	  -57.5197	
  -23.8512	-0.00231961	   -23.716	-0.00235869	  -23.8715	-0.00225768	  -23.8129	-0.00231199	  -23.8129	  -57.7999	
  -23.8449	-0.0023305	   -23.711	-0.00236966	  -23.8648	-0.00226895	  -23.8069	-0.00232304	  -23.8069	  -58.0759	
  -23.8373	-0.00234122	   -23.705	-0.00238041	   -23.857	-0.00228011	  -23.7998	-0.00233391	  -23.7998	  -58.3479	
  -23.8285	-0.00235176	  -23.6982	-0.00239098	   -23.848	-0.0022912	  -23.7916	-0.00234465	  -23.7916	  -58.6162	
  -23.8186	-0.00236213	  -23.6906	-0.00240138	  -23.8381	-0.00230222	  -23.7824	-0.00235524	  -23.7824	  -58.8811	
  -23.8087	-0.00237233	  -23.6825	-0.00241168	  -23.8272	-0.00231318	  -23.7728	-0.00236573	  -23.7728	  -59.1432	
  -23.7984	-0.00238237	  -23.6737	-0.00242189	  -23.8162	-0.00232404	  -23.7628	-0.0023761	  -23.7628	  -59.4025	
  -23.7867	-0.00239227	  -23.6645	 -0.002432	  -23.8049	-0.00233477	  -23.7521	-0.00238635	  -23.7521	  -59.6586	
  -23.7738	-0.00240205	  -23.6549	-0.00244201	  -23.7925	-0.00234532	  -23.7404	-0.00239646	  -23.7404	  -59.9115	
  -23.7598	-0.00241172	  -23.6448	-0.00245188	  -23.7798	-0.00235566	  -23.7281	-0.00240642	  -23.7281	  -60.1605	
  -23.7448	-0.00242128	  -23.6344	-0.00246156	  -23.7651	-0.00236578	  -23.7147	-0.00241621	  -23.7147	  -60.4052	
   -23.729	-0.00243074	  -23.6238	-0.00247103	  -23.7491	-0.00237569	  -23.7006	-0.00242582	  -23.7006	  -60.6455	
  -23.7119	-0.00244009	  -23.6125	-0.00248027	   -23.733	-0.0023854	  -23.6858	-0.00243525	  -23.6858	  -60.8813	
  -23.6943	-0.00244931	  -23.6001	-0.00248931	  -23.7158	-0.00239496	    -23.67	-0.00244453	    -23.67	  -61.1132	
  -23.6762	-0.0024584	  -23.5867	-0.00249818	  -23.6977	-0.00240441	  -23.6535	-0.00245366	  -23.6535	  -61.3416	
  -23.6578	-0.00246735	  -23.5714	-0.00250691	  -23.6789	-0.00241378	   -23.636	-0.00246268	   -23.636	   -61.567	
  -23.6375	-0.00247615	  -23.5538	-0.00251552	  -23.6588	-0.00242311	  -23.6167	-0.00247159	  -23.6167	  -61.7899	
  -23.6164	-0.0024848	  -23.5348	-0.00252409	  -23.6376	-0.00243238	  -23.5963	-0.00248042	  -23.5963	  -62.0106	
  -23.5948	-0.00249331	  -23.5151	-0.00253263	  -23.6155	-0.00244158	  -23.5752	-0.00248917	  -23.5752	  -62.2293	
  -23.5724	-0.00250168	  -23.4926	-0.00254113	  -23.5928	-0.00245068	  -23.5526	-0.00249783	  -23.5526	  -62.4458	
  -23.5494	-0.00250992	  -23.4688	-0.0025496	  -23.5694	-0.00245964	  -23.5292	-0.00250639	  -23.5292	  -62.6597	
  -23.5252	-0.00251804	  -23.4432	-0.00255799	  -23.5451	-0.00246843	  -23.5045	-0.00251482	  -23.5045	  -62.8704	
  -23.5011	-0.00252605	  -23.4161	-0.00256623	  -23.5194	-0.00247702	  -23.4789	-0.0025231	  -23.4789	  -63.0775	
  -23.4762	-0.00253395	  -23.3889	-0.00257432	  -23.4931	-0.0024854	  -23.4527	-0.00253123	  -23.4527	  -63.2807	
    -23.45	-0.00254175	  -23.3599	-0.00258221	  -23.4658	-0.0024936	  -23.4252	-0.00253919	  -23.4252	  -63.4797	
  -23.4233	-0.00254946	  -23.3295	-0.00258987	  -23.4382	-0.00250162	   -23.397	-0.00254698	   -23.397	  -63.6746	
  -23.3952	-0.00255708	  -23.3005	-0.00259732	  -23.4093	-0.00250951	  -23.3683	-0.00255464	  -23.3683	  -63.8659	
  -23.3665	-0.00256457	  -23.2691	-0.00260456	  -23.3794	-0.00251731	  -23.3383	-0.00256215	  -23.3383	  -64.0537	
  -23.3361	-0.00257196	  -23.2369	-0.00261165	  -23.3487	-0.00252504	  -23.3072	-0.00256955	  -23.3072	  -64.2387	
  -23.3048	-0.00257922	  -23.2059	-0.00261863	  -23.3178	-0.00253272	  -23.2762	-0.00257685	  -23.2762	  -64.4213	
  -23.2724	-0.00258632	  -23.1726	-0.00262553	  -23.2857	-0.00254036	  -23.2436	-0.00258407	  -23.2436	  -64.6017	
   -23.239	-0.00259326	  -23.1383	-0.00263241	  -23.2523	-0.00254794	  -23.2099	-0.0025912	  -23.2099	  -64.7801	
  -23.2054	-0.00260005	  -23.1047	-0.00263926	  -23.2182	-0.00255545	  -23.1761	-0.00259825	  -23.1761	  -64.9563	
  -23.1711	-0.00260667	  -23.0694	-0.00264608	   -23.184	-0.00256284	  -23.1415	-0.0026052	  -23.1415	    -65.13	
  -23.1363	-0.00261317	  -23.0315	-0.00265284	  -23.1484	-0.00257009	  -23.1054	-0.00261203	  -23.1054	  -65.3008	
  -23.1006	-0.00261953	  -22.9945	-0.00265951	  -23.1121	-0.00257716	   -23.069	-0.00261873	   -23.069	  -65.4684	
  -23.0632	-0.00262582	  -22.9558	-0.00266604	  -23.0748	-0.00258405	  -23.0313	-0.0026253	  -23.0313	  -65.6325	
  -23.0254	-0.00263205	  -22.9146	-0.0026724	  -23.0361	-0.00259073	  -22.9921	-0.00263172	  -22.9921	  -65.7931	
  -22.9864	-0.00263822	  -22.8729	-0.00267856	  -22.9969	-0.00259725	  -22.9521	-0.00263801	  -22.9521	  -65.9502	
  -22.9462	-0.00264436	  -22.8314	-0.00268453	  -22.9563	-0.00260362	  -22.9113	-0.00264417	  -22.9113	  -66.1043	
  -22.9047	-0.00265044	  -22.7886	-0.00269032	  -22.9144	-0.00260989	  -22.8692	-0.00265022	  -22.8692	  -66.2554	
  -22.8627	-0.00265644	  -22.7454	-0.00269596	  -22.8714	-0.00261609	  -22.8265	-0.00265616	  -22.8265	  -66.4041	
  -22.8197	-0.00266233	  -22.7018	-0.00270149	  -22.8276	-0.00262225	   -22.783	-0.00266202	   -22.783	  -66.5506	
  -22.7754	-0.00266808	  -22.6565	-0.00270696	  -22.7833	-0.00262837	  -22.7384	-0.0026678	  -22.7384	   -66.695	
  -22.7302	-0.00267365	  -22.6104	-0.00271238	  -22.7382	-0.00263446	  -22.6929	-0.0026735	  -22.6929	  -66.8374	
  -22.6832	-0.00267904	   -22.564	-0.00271778	   -22.693	-0.00264045	  -22.6467	-0.00267909	  -22.6467	  -66.9773	
  -22.6358	-0.00268424	  -22.5155	-0.00272314	  -22.6468	-0.0026464	  -22.5994	-0.00268459	  -22.5994	  -67.1148	
  -22.5875	-0.00268928	  -22.4664	-0.00272845	  -22.5999	-0.00265226	  -22.5513	  -0.00269	  -22.5513	  -67.2499	
  -22.5384	-0.0026942	  -22.4172	-0.00273366	  -22.5524	-0.00265795	  -22.5027	-0.00269527	  -22.5027	  -67.3817	
  -22.4878	-0.00269903	  -22.3673	-0.00273875	  -22.5036	-0.00266353	  -22.4529	-0.00270043	  -22.4529	  -67.5109	
  -22.4362	-0.0027038	  -22.3161	-0.00274367	  -22.4531	-0.00266897	  -22.4018	-0.00270548	  -22.4018	  -67.6371	
  -22.3838	-0.00270855	  -22.2641	-0.00274842	  -22.4018	-0.00267424	  -22.3499	-0.00271041	  -22.3499	  -67.7601	
  -22.3297	-0.0027133	   -22.211	 -0.002753	  -22.3489	-0.00267935	  -22.2965	-0.00271522	  -22.2965	  -67.8804	
  -22.2749	-0.00271801	  -22.1564	-0.00275743	  -22.2958	-0.00268429	  -22.2424	-0.00271991	  -22.2424	  -67.9978	
  -22.2195	-0.00272267	  -22.1028	-0.00276176	   -22.242	-0.00268909	  -22.1881	-0.00272451	  -22.1881	  -68.1127	
  -22.1638	-0.00272726	  -22.0477	-0.00276602	  -22.1874	-0.00269376	   -22.133	-0.00272902	   -22.133	  -68.2254	
  -22.1076	-0.00273176	  -21.9913	-0.00277025	  -22.1319	-0.00269834	   -22.077	-0.00273345	   -22.077	  -68.3363	
  -22.0505	-0.00273614	  -21.9341	-0.00277447	   -22.076	-0.00270291	  -22.0202	-0.00273784	  -22.0202	   -68.446	
  -21.9917	-0.00274035	  -21.8766	-0.00277868	    -22.02	-0.0027075	  -21.9628	-0.00274218	  -21.9628	  -68.5545	
  -21.9326	-0.0027444	  -21.8182	-0.00278287	   -21.963	-0.00271214	  -21.9046	-0.00274647	  -21.9046	  -68.6617	
  -21.8734	-0.00274827	  -21.7585	 -0.002787	  -21.9052	-0.00271683	  -21.8457	-0.0027507	  -21.8457	  -68.7675	
  -21.8148	-0.00275196	   -21.699	-0.00279104	  -21.8475	-0.00272153	  -21.7871	-0.00275484	  -21.7871	  -68.8711	
  -21.7559	-0.00275553	  -21.6387	-0.00279495	   -21.789	-0.0027262	  -21.7279	-0.00275889	  -21.7279	  -68.9723	
  -21.6965	-0.00275901	  -21.5768	-0.00279871	  -21.7299	-0.00273075	  -21.6677	-0.00276283	  -21.6677	  -69.0706	
  -21.6361	-0.00276245	  -21.5143	-0.00280231	  -21.6695	-0.00273514	  -21.6066	-0.00276663	  -21.6066	  -69.1659	
  -21.5745	-0.00276588	  -21.4498	-0.00280577	   -21.607	-0.00273933	  -21.5438	-0.00277033	  -21.5438	  -69.2582	
  -21.5112	-0.00276929	  -21.3842	-0.0028091	  -21.5433	-0.00274327	  -21.4796	-0.00277389	  -21.4796	  -69.3472	
  -21.4458	-0.00277269	  -21.3183	-0.00281233	  -21.4782	-0.00274699	  -21.4141	-0.00277734	  -21.4141	  -69.4335	
  -21.3793	-0.00277609	  -21.2514	-0.00281551	  -21.4125	-0.00275053	  -21.3478	-0.00278071	  -21.3478	  -69.5178	
   -21.312	-0.00277943	  -21.1832	-0.00281865	  -21.3466	-0.00275395	  -21.2806	-0.00278401	  -21.2806	  -69.6002	
  -21.2416	-0.00278268	  -21.1146	-0.00282177	  -21.2801	-0.00275734	  -21.2121	-0.00278726	  -21.2121	  -69.6815	
  -21.1691	-0.00278582	  -21.0453	-0.00282487	  -21.2128	-0.00276073	  -21.1424	-0.00279047	  -21.1424	  -69.7619	
  -21.0953	-0.00278885	   -20.975	-0.00282789	  -21.1441	-0.00276418	  -21.0715	-0.00279364	  -21.0715	   -69.841	
  -21.0212	-0.00279174	  -20.9046	-0.00283084	  -21.0743	-0.0027677	       -21	-0.00279676	       -21	   -69.919	
   -20.946	-0.00279449	  -20.8343	-0.00283371	  -21.0035	-0.00277127	  -20.9279	-0.00279982	  -20.9279	  -69.9956	
  -20.8691	-0.00279714	  -20.7634	-0.00283647	  -20.9321	-0.00277483	  -20.8549	-0.00280281	  -20.8549	  -70.0703	
  -20.7918	-0.00279971	  -20.6922	-0.00283912	  -20.8593	-0.00277831	  -20.7811	-0.00280571	  -20.7811	  -70.1428	
   -20.715	-0.00280218	  -20.6197	-0.00284172	  -20.7861	-0.00278166	  -20.7069	-0.00280852	  -20.7069	   -70.213	
  -20.6362	-0.00280461	   -20.546	-0.00284429	  -20.7122	-0.00278483	  -20.6315	-0.00281124	  -20.6315	   -70.281	
  -20.5581	-0.00280701	  -20.4718	-0.00284681	  -20.6368	-0.00278779	  -20.5555	-0.00281387	  -20.5555	  -70.3468	
  -20.4807	-0.00280942	  -20.3964	-0.00284928	  -20.5607	-0.00279056	  -20.4793	-0.00281642	  -20.4793	  -70.4105	
  -20.4007	-0.00281183	  -20.3197	-0.0028517	  -20.4838	-0.00279318	  -20.4014	-0.0028189	  -20.4014	  -70.4726	
  -20.3206	-0.00281423	  -20.2425	-0.00285402	   -20.406	-0.00279569	   -20.323	-0.00282131	   -20.323	  -70.5328	
  -20.2402	-0.00281659	   -20.164	-0.00285621	  -20.3274	-0.00279816	  -20.2439	-0.00282365	  -20.2439	  -70.5913	
  -20.1571	-0.00281888	  -20.0851	-0.00285824	  -20.2486	-0.00280064	  -20.1636	-0.00282592	  -20.1636	   -70.648	
  -20.0734	-0.00282105	  -20.0057	-0.00286013	  -20.1682	-0.00280314	  -20.0824	-0.00282811	  -20.0824	  -70.7027	
  -19.9905	-0.00282307	  -19.9254	-0.00286187	   -20.086	-0.00280568	  -20.0006	-0.00283021	  -20.0006	  -70.7552	
  -19.9064	-0.00282492	  -19.8441	-0.0028635	   -20.003	-0.00280823	  -19.9179	-0.00283222	  -19.9179	  -70.8054	
  -19.8219	-0.00282661	  -19.7621	-0.00286506	  -19.9201	-0.00281074	  -19.8347	-0.00283414	  -19.8347	  -70.8534	
  -19.7375	-0.00282816	  -19.6797	-0.00286661	  -19.8354	-0.00281318	  -19.7509	-0.00283598	  -19.7509	  -70.8995	
  -19.6514	-0.0028296	  -19.5963	-0.00286818	    -19.75	-0.00281548	  -19.6659	-0.00283775	  -19.6659	  -70.9438	
  -19.5646	-0.00283101	  -19.5122	-0.00286978	  -19.6635	-0.00281762	  -19.5801	-0.00283947	  -19.5801	  -70.9868	
  -19.4783	-0.0028324	  -19.4272	-0.00287142	  -19.5765	-0.00281958	   -19.494	-0.00284113	   -19.494	  -71.0284	
  -19.3909	-0.00283384	  -19.3411	-0.00287308	  -19.4881	-0.00282136	  -19.4067	-0.00284276	  -19.4067	   -71.069	
  -19.3021	-0.00283532	  -19.2544	-0.00287471	  -19.3999	-0.00282303	  -19.3188	-0.00284435	  -19.3188	  -71.1088	
  -19.2128	-0.00283683	  -19.1669	-0.00287625	  -19.3106	-0.0028246	  -19.2301	-0.0028459	  -19.2301	  -71.1474	
   -19.123	-0.00283835	  -19.0779	-0.00287766	  -19.2206	-0.00282615	  -19.1405	-0.00284739	  -19.1405	  -71.1847	
  -19.0319	-0.00283983	  -18.9878	-0.00287892	  -19.1296	-0.00282773	  -19.0498	-0.00284882	  -19.0498	  -71.2206	
  -18.9408	-0.00284121	   -18.897	-0.00288002	  -19.0375	-0.00282937	  -18.9584	-0.0028502	  -18.9584	  -71.2549	
  -18.8487	-0.00284246	  -18.8057	-0.00288098	  -18.9443	-0.00283108	  -18.8662	-0.00285151	  -18.8662	  -71.2876	
  -18.7564	-0.00284355	  -18.7139	-0.00288185	  -18.8502	-0.00283283	  -18.7735	-0.00285274	  -18.7735	  -71.3185	
  -18.6636	-0.00284447	  -18.6209	-0.00288267	  -18.7558	-0.00283458	  -18.6801	-0.00285391	  -18.6801	  -71.3477	
  -18.5702	-0.00284525	  -18.5275	-0.00288349	  -18.6612	-0.00283628	  -18.5863	-0.00285501	  -18.5863	  -71.3751	
  -18.4761	-0.00284593	   -18.434	-0.00288432	  -18.5663	-0.00283783	  -18.4921	-0.00285603	  -18.4921	  -71.4007	
  -18.3806	-0.00284657	  -18.3393	-0.00288517	  -18.4703	-0.00283918	  -18.3967	-0.00285697	  -18.3967	  -71.4244	
  -18.2841	-0.0028472	  -18.2443	-0.00288604	  -18.3733	-0.00284029	  -18.3006	-0.00285784	  -18.3006	  -71.4461	
   -18.187	-0.00284786	  -18.1477	-0.00288688	  -18.2751	-0.00284116	  -18.2033	-0.00285863	  -18.2033	  -71.4659	
  -18.0886	-0.00284856	  -18.0512	-0.00288766	  -18.1766	-0.00284185	  -18.1055	-0.00285936	  -18.1055	  -71.4839	
  -17.9904	-0.00284928	  -17.9544	-0.00288835	  -18.0777	-0.00284241	  -18.0075	-0.00286001	  -18.0075	  -71.5003	
  -17.8917	-0.00284998	  -17.8561	-0.00288892	  -17.9777	-0.00284294	  -17.9085	-0.00286061	  -17.9085	  -71.5154	
  -17.7929	-0.00285063	  -17.7569	-0.00288936	   -17.877	-0.00284351	  -17.8089	-0.00286117	  -17.8089	  -71.5292	
   -17.694	-0.00285118	  -17.6566	-0.00288969	  -17.7758	-0.00284418	  -17.7088	-0.00286168	  -17.7088	   -71.542	
  -17.5935	-0.0028516	  -17.5556	-0.00288991	  -17.6743	-0.00284497	  -17.6078	-0.00286216	  -17.6078	   -71.554	
  -17.4919	-0.00285188	  -17.4538	-0.00289007	  -17.5721	-0.00284585	  -17.5059	-0.0028626	  -17.5059	  -71.5651	
  -17.3901	-0.00285203	  -17.3511	-0.0028902	  -17.4697	-0.00284679	  -17.4036	 -0.002863	  -17.4036	  -71.5751	
  -17.2881	-0.00285207	  -17.2483	-0.00289031	  -17.3664	-0.00284768	  -17.3009	-0.00286335	  -17.3009	  -71.5839	
   -17.185	-0.00285205	  -17.1448	-0.00289045	  -17.2626	-0.00284845	  -17.1975	-0.00286365	  -17.1975	  -71.5912	
  -17.0819	-0.00285199	   -17.041	-0.00289059	  -17.1583	-0.00284905	  -17.0937	-0.00286388	  -17.0937	  -71.5969	
   -16.978	-0.00285194	  -16.9368	-0.00289074	  -17.0526	-0.00284943	  -16.9891	-0.00286404	  -16.9891	  -71.6009	
  -16.8732	-0.00285191	  -16.8319	-0.00289086	  -16.9462	-0.00284962	  -16.8838	-0.00286413	  -16.8838	  -71.6033	
  -16.7686	-0.0028519	  -16.7264	-0.00289092	  -16.8393	-0.00284967	  -16.7781	-0.00286416	  -16.7781	   -71.604	
  -16.6633	-0.00285189	    -16.62	-0.00289089	   -16.732	-0.00284961	  -16.6717	-0.00286413	  -16.6717	  -71.6032	
  -16.5562	-0.00285185	  -16.5131	-0.00289074	   -16.624	-0.00284953	  -16.5644	-0.00286404	  -16.5644	  -71.6011	
  -16.4483	-0.00285175	  -16.4058	-0.00289048	  -16.5152	-0.00284949	  -16.4564	-0.00286391	  -16.4564	  -71.5977	
  -16.3401	-0.00285155	  -16.2967	-0.0028901	  -16.4055	-0.00284952	  -16.3474	-0.00286372	  -16.3474	  -71.5931	
  -16.2314	-0.00285122	  -16.1874	-0.00288962	   -16.295	-0.00284963	  -16.2379	-0.00286349	  -16.2379	  -71.5873	
   -16.122	-0.00285076	  -16.0779	-0.00288907	  -16.1844	-0.0028498	  -16.1281	-0.00286321	  -16.1281	  -71.5803	
   -16.012	-0.00285018	  -15.9671	-0.0028885	  -16.0736	-0.00284998	  -16.0176	-0.00286289	  -16.0176	  -71.5722	
  -15.9017	-0.0028495	  -15.8558	-0.0028879	  -15.9615	-0.00285011	  -15.9063	-0.0028625	  -15.9063	  -71.5626	
  -15.7904	-0.00284875	  -15.7428	-0.00288731	  -15.8485	-0.00285012	  -15.7939	-0.00286206	  -15.7939	  -71.5515	
  -15.6792	-0.00284797	  -15.6293	-0.00288673	  -15.7351	-0.00284998	  -15.6812	-0.00286156	  -15.6812	   -71.539	
  -15.5673	-0.00284715	  -15.5155	-0.00288615	  -15.6213	-0.00284966	   -15.568	-0.00286098	   -15.568	  -71.5246	
  -15.4547	-0.00284632	  -15.4014	-0.00288555	  -15.5063	-0.00284917	  -15.4541	-0.00286035	  -15.4541	  -71.5087	
  -15.3417	-0.00284551	  -15.2869	-0.00288493	  -15.3901	-0.00284855	  -15.3396	-0.00285966	  -15.3396	  -71.4916	
  -15.2275	-0.0028447	  -15.1714	-0.00288425	  -15.2733	-0.00284786	  -15.2241	-0.00285893	  -15.2241	  -71.4734	
  -15.1127	-0.00284387	  -15.0559	-0.0028835	  -15.1557	-0.00284715	  -15.1081	-0.00285817	  -15.1081	  -71.4543	
  -14.9974	-0.00284304	  -14.9402	-0.00288264	  -15.0367	-0.00284648	  -14.9914	-0.00285739	  -14.9914	  -71.4347	
  -14.8814	-0.00284218	  -14.8241	-0.0028817	  -14.9168	-0.00284587	  -14.8741	-0.00285658	  -14.8741	  -71.4146	
  -14.7657	-0.00284131	  -14.7065	-0.00288065	  -14.7961	-0.00284534	  -14.7561	-0.00285577	  -14.7561	  -71.3941	
  -14.6491	-0.00284036	   -14.589	-0.00287954	  -14.6744	-0.00284484	  -14.6375	-0.00285491	  -14.6375	  -71.3728	
   -14.531	-0.00283931	  -14.4709	-0.00287837	  -14.5522	-0.00284432	   -14.518	 -0.002854	   -14.518	    -71.35	
  -14.4124	-0.00283815	  -14.3526	-0.00287716	  -14.4295	-0.00284373	  -14.3982	-0.00285302	  -14.3982	  -71.3254	
  -14.2933	-0.00283681	  -14.2333	-0.00287593	  -14.3063	-0.00284303	  -14.2776	-0.00285192	  -14.2776	  -71.2981	
  -14.1741	-0.00283532	  -14.1137	-0.00287467	  -14.1829	-0.00284217	  -14.1569	-0.00285072	  -14.1569	   -71.268	
  -14.0542	-0.00283371	  -13.9932	-0.00287338	  -14.0592	-0.00284114	  -14.0355	-0.00284941	  -14.0355	  -71.2353	
  -13.9329	 -0.002832	  -13.8722	-0.00287205	  -13.9352	-0.00283997	  -13.9134	-0.00284801	  -13.9134	  -71.2002	
  -13.8114	-0.00283025	  -13.7512	-0.00287066	  -13.8108	-0.00283869	  -13.7911	-0.00284653	  -13.7911	  -71.1633	
  -13.6889	-0.00282847	  -13.6295	-0.00286919	  -13.6863	-0.00283734	  -13.6682	 -0.002845	  -13.6682	  -71.1251	
   -13.566	-0.00282672	  -13.5071	-0.00286764	  -13.5613	 -0.002836	  -13.5448	-0.00284345	  -13.5448	  -71.0864	
  -13.4426	-0.00282505	   -13.384	 -0.002866	  -13.4361	-0.00283468	  -13.4209	-0.00284191	  -13.4209	  -71.0477	
  -13.3191	-0.00282342	  -13.2599	-0.00286429	    -13.31	-0.00283341	  -13.2963	-0.00284037	  -13.2963	  -71.0093	
   -13.195	-0.00282183	  -13.1355	-0.00286251	  -13.1831	-0.00283219	  -13.1712	-0.00283884	  -13.1712	   -70.971	
  -13.0706	-0.00282022	  -13.0106	-0.00286068	  -13.0564	-0.00283098	  -13.0459	-0.00283729	  -13.0459	  -70.9323	
  -12.9459	-0.00281856	  -12.8853	-0.00285881	  -12.9287	-0.00282973	    -12.92	-0.0028357	    -12.92	  -70.8925	
  -12.8203	-0.00281679	  -12.7594	-0.0028569	  -12.8011	-0.00282841	  -12.7936	-0.00283403	  -12.7936	  -70.8508	
  -12.6938	-0.00281485	  -12.6328	-0.00285498	  -12.6725	-0.00282697	  -12.6664	-0.00283227	  -12.6664	  -70.8067	
  -12.5668	-0.00281274	  -12.5051	-0.00285304	  -12.5433	-0.00282539	  -12.5384	-0.00283039	  -12.5384	  -70.7598	
  -12.4393	-0.00281047	  -12.3773	-0.00285106	  -12.4145	-0.00282367	  -12.4104	-0.0028284	  -12.4104	    -70.71	
  -12.3111	-0.00280807	  -12.2487	-0.00284901	  -12.2858	-0.00282183	  -12.2819	-0.00282631	  -12.2819	  -70.6576	
  -12.1818	-0.0028056	  -12.1188	-0.00284689	  -12.1562	-0.00281991	  -12.1523	-0.00282413	  -12.1523	  -70.6033	
  -12.0509	-0.0028031	  -11.9881	-0.00284468	  -12.0268	-0.00281796	  -12.0219	-0.00282191	  -12.0219	  -70.5477	
  -11.9199	-0.00280061	  -11.8572	-0.00284237	   -11.897	 -0.002816	  -11.8913	-0.00281966	  -11.8913	  -70.4915	
  -11.7887	-0.00279817	  -11.7254	-0.00283996	  -11.7672	-0.00281406	  -11.7604	-0.0028174	  -11.7604	   -70.435	
  -11.6564	-0.00279576	  -11.5932	-0.00283748	  -11.6368	-0.00281215	  -11.6288	-0.00281513	  -11.6288	  -70.3783	
  -11.5233	-0.00279338	  -11.4607	-0.00283494	  -11.5053	-0.00281025	  -11.4964	-0.00281285	  -11.4964	  -70.3213	
  -11.3895	-0.00279097	  -11.3277	-0.00283235	  -11.3736	-0.00280832	  -11.3636	-0.00281054	  -11.3636	  -70.2636	
  -11.2559	-0.00278849	  -11.1943	-0.00282972	  -11.2414	-0.00280632	  -11.2305	-0.00280818	  -11.2305	  -70.2044	
  -11.1214	-0.00278591	  -11.0604	-0.00282707	  -11.1085	-0.00280422	  -11.0968	-0.00280574	  -11.0968	  -70.1434	
  -10.9862	-0.0027832	  -10.9264	-0.0028244	  -10.9753	-0.00280198	  -10.9626	-0.00280319	  -10.9626	  -70.0799	
    -10.85	-0.00278036	  -10.7917	-0.00282169	  -10.8407	-0.00279961	  -10.8275	-0.00280055	  -10.8275	  -70.0137	
  -10.7146	-0.00277738	  -10.6564	-0.00281892	  -10.7065	-0.00279712	  -10.6925	-0.00279781	  -10.6925	  -69.9452	
  -10.5782	-0.00277429	   -10.521	-0.0028161	  -10.5719	-0.00279454	   -10.557	-0.00279497	   -10.557	  -69.8744	
  -10.4409	-0.00277113	  -10.3853	-0.00281319	  -10.4369	-0.0027919	   -10.421	-0.00279207	   -10.421	  -69.8018	
  -10.3031	-0.00276793	  -10.2488	-0.00281021	  -10.3014	-0.00278922	  -10.2844	-0.00278912	  -10.2844	   -69.728	
  -10.1647	-0.00276472	  -10.1119	-0.00280714	  -10.1649	-0.00278651	  -10.1472	-0.00278613	  -10.1472	  -69.6531	
  -10.0264	-0.00276153	  -9.97468	 -0.002804	   -10.028	-0.00278378	  -10.0097	-0.0027831	  -10.0097	  -69.5776	
  -9.88809	-0.00275833	  -9.83764	-0.00280079	   -9.8906	-0.00278102	  -9.87211	-0.00278005	  -9.87211	  -69.5012	
  -9.74863	-0.00275513	  -9.70068	-0.00279752	  -9.75319	-0.00277821	  -9.73417	-0.00277695	  -9.73417	  -69.4238	
  -9.60913	-0.0027519	  -9.56323	-0.0027942	  -9.61571	-0.00277533	  -9.59602	-0.00277381	  -9.59602	  -69.3453	
  -9.46954	-0.00274861	  -9.42576	-0.00279084	  -9.47707	-0.00277234	  -9.45745	-0.0027706	  -9.45745	  -69.2649	
  -9.32926	-0.00274521	  -9.28769	-0.00278744	  -9.33833	-0.00276921	  -9.31843	-0.00276729	  -9.31843	  -69.1822	
  -9.18832	-0.00274169	  -9.14902	-0.00278399	  -9.19972	-0.00276595	  -9.17902	-0.00276388	  -9.17902	   -69.097	
   -9.0467	-0.00273805	  -9.01076	-0.00278049	  -9.06089	-0.0027626	  -9.03945	-0.00276038	  -9.03945	  -69.0095	
   -8.9039	-0.00273428	  -8.87179	-0.00277693	  -8.92181	-0.00275917	  -8.89917	-0.00275679	  -8.89917	  -68.9199	
    -8.761	-0.00273041	  -8.73261	-0.00277331	  -8.78296	-0.00275573	  -8.75885	-0.00275315	  -8.75885	  -68.8286	
  -8.61848	-0.00272647	   -8.5932	-0.0027696	  -8.64425	-0.0027523	  -8.61864	-0.00274945	  -8.61864	  -68.7364	
  -8.47575	-0.00272249	  -8.45297	-0.00276581	   -8.5051	-0.0027489	  -8.47794	-0.00274573	  -8.47794	  -68.6433	
  -8.33277	-0.0027185	  -8.31196	-0.00276193	  -8.36547	-0.00274552	  -8.33673	-0.00274198	  -8.33673	  -68.5495	
  -8.19004	-0.00271451	  -8.16963	-0.00275796	  -8.22588	-0.00274212	  -8.19518	-0.0027382	  -8.19518	  -68.4549	
   -8.0471	-0.00271052	  -8.02724	-0.0027539	  -8.08547	-0.00273867	  -8.05327	-0.00273436	  -8.05327	  -68.3591	
  -7.90379	-0.0027065	  -7.88407	-0.00274977	  -7.94452	-0.00273511	  -7.91079	-0.00273046	  -7.91079	  -68.2615	
  -7.75957	-0.00270243	  -7.74068	-0.00274559	  -7.80302	-0.00273135	  -7.76776	-0.00272646	  -7.76776	  -68.1614	
  -7.61552	-0.00269828	  -7.59704	-0.00274136	  -7.66097	-0.00272739	  -7.62451	-0.00272234	  -7.62451	  -68.0585	
  -7.47054	-0.00269401	  -7.45259	-0.00273708	  -7.51835	-0.00272322	  -7.48049	-0.0027181	  -7.48049	  -67.9526	
  -7.32519	-0.00268961	  -7.30736	-0.00273275	  -7.37517	-0.00271888	  -7.33591	-0.00271375	  -7.33591	  -67.8437	
  -7.17892	-0.00268509	   -7.1619	-0.00272837	  -7.23195	-0.0027144	  -7.19093	-0.00270929	  -7.19093	  -67.7321	
  -7.03284	-0.00268045	  -7.01619	-0.00272392	  -7.08812	-0.00270985	  -7.04572	-0.00270474	  -7.04572	  -67.6185	
  -6.88714	-0.00267572	  -6.87021	-0.00271938	   -6.9433	-0.00270529	  -6.90022	-0.00270013	  -6.90022	  -67.5033	
   -6.7415	-0.00267094	  -6.72291	-0.00271476	  -6.79844	-0.00270076	  -6.75428	-0.00269549	  -6.75428	  -67.3871	
  -6.59588	-0.00266611	  -6.57592	-0.00271004	  -6.65299	-0.0026963	  -6.60826	-0.00269081	  -6.60826	  -67.2703	
  -6.44971	-0.00266126	  -6.42813	-0.00270521	  -6.50799	-0.00269189	  -6.46194	-0.00268612	  -6.46194	   -67.153	
    -6.303	-0.00265639	  -6.28012	-0.00270028	  -6.36285	-0.00268752	  -6.31532	-0.0026814	  -6.31532	  -67.0349	
  -6.15681	-0.00265149	  -6.13134	-0.00269526	  -6.21701	-0.00268314	  -6.16839	-0.00267663	  -6.16839	  -66.9157	
  -6.01106	-0.00264654	  -5.98235	-0.00269015	  -6.07103	-0.00267866	  -6.02148	-0.00267178	  -6.02148	  -66.7946	
  -5.86516	-0.00264153	  -5.83366	-0.00268496	  -5.92487	-0.00267404	  -5.87456	-0.00266684	  -5.87456	  -66.6711	
   -5.7188	-0.00263641	  -5.68497	-0.00267973	  -5.77903	-0.00266923	   -5.7276	-0.00266179	   -5.7276	  -66.5448	
  -5.57227	-0.00263119	  -5.53598	-0.00267447	  -5.63294	-0.00266422	  -5.58039	-0.00265663	  -5.58039	  -66.4157	
  -5.42553	-0.00262587	  -5.38668	-0.00266917	  -5.48604	-0.00265905	  -5.43275	-0.00265136	  -5.43275	  -66.2841	
   -5.2791	-0.00262044	  -5.23761	-0.00266386	  -5.33943	-0.00265374	  -5.28538	-0.00264601	  -5.28538	  -66.1503	
  -5.13238	-0.00261491	  -5.08819	-0.00265849	  -5.19251	-0.00264834	  -5.13769	-0.00264058	  -5.13769	  -66.0145	
  -4.98485	-0.00260932	  -4.93896	-0.00265303	  -5.04528	-0.00264294	   -4.9897	-0.0026351	   -4.9897	  -65.8774	
  -4.83759	-0.00260365	  -4.78933	-0.00264745	  -4.89773	-0.00263757	  -4.84155	-0.00262956	  -4.84155	  -65.7389	
  -4.69054	-0.0025979	   -4.6388	-0.00264173	  -4.74933	-0.00263223	  -4.69289	-0.00262395	  -4.69289	  -65.5989	
  -4.54273	-0.00259207	  -4.48848	-0.00263583	  -4.60066	-0.00262691	  -4.54396	-0.00261827	  -4.54396	  -65.4568	
  -4.39407	-0.00258615	  -4.33883	-0.00262978	  -4.45169	-0.00262155	  -4.39486	-0.0026125	  -4.39486	  -65.3124	
  -4.24564	-0.00258014	  -4.18926	-0.00262359	  -4.30191	-0.00261607	   -4.2456	-0.0026066	   -4.2456	   -65.165	
  -4.09582	-0.00257407	  -4.03869	-0.00261717	  -4.15188	-0.00261036	  -4.09547	-0.00260053	  -4.09547	  -65.0133	
  -3.94629	-0.00256786	  -3.88823	-0.00261076	  -4.00107	-0.00260448	  -3.94519	-0.00259437	  -3.94519	  -64.8592	
  -3.79593	-0.00256155	  -3.73784	-0.00260443	  -3.85057	-0.00259846	  -3.79478	-0.00258815	  -3.79478	  -64.7036	
  -3.64532	-0.00255513	  -3.58698	-0.0025982	   -3.6993	-0.00259232	  -3.64387	-0.00258188	  -3.64387	  -64.5471	
  -3.49447	-0.00254863	  -3.43567	-0.00259209	   -3.5473	-0.00258606	  -3.49248	-0.0025756	  -3.49248	  -64.3899	
