# User: ACHyster
# File name: C:/ACHYSTER/ACHyster SENS/SHAMS/CoFe2O4-1gl-water-Zero Glycerol- Sens-07-03-2023/CoFe2O4-1gl-water-Zero Glycerol- 10_100F- 12kAm -Sens-07-03-20230007#1
# Saved at: ma. mar. 7 14:29:29 2023
# Hyster Loop (3 iterations). Intensity: 12.0 kA/m; Tuned frequency: 101.8 kHz
# Units x axis: (kA/m)
# Units y axis: "Repeats y" & "Average y" (10^(-3)Am^2); "Mass avg y" (Am^2/kg)
# Magnetic mass: 4e-05 g
# Parameter      	Repeat   1	Repeat   2	Repeat   3	Average   	Sigma     
# H_C (kA/m)     	      10.5	      10.7	      10.7	      10.6	       0.1
# M_R (Am^2/kg)  	      36.8	      36.1	      35.8	      36.2	       0.4
# M_max (Am^2/kg)	      20.6	      19.1	      19.0	      19.6	       0.7
# Area (mJ/kg)   	    1731.5	    1694.9	    1686.5	    1704.3	      19.5
# SAR (W/g)      	     176.3	     172.5	     171.7	     173.5	       2.0
#Repeat 1 x	Repeat 1 y	Repeat 2 x	Repeat 2 y	Repeat 3 x	Repeat 3 y	Average x 	Average y 	Mass avg x 	Mass avg y 
  -1.86262	-0.00156738	   -1.8565	-0.00152972	  -1.86759	-0.00151892	  -1.86224	-0.00153868	  -1.86224	  -38.4669	
  -1.78842	-0.00156425	  -1.78184	-0.00152707	  -1.79319	-0.00151585	  -1.78782	-0.00153572	  -1.78782	  -38.3931	
  -1.71417	-0.00156111	   -1.7072	-0.00152426	  -1.71874	-0.00151283	  -1.71337	-0.00153273	  -1.71337	  -38.3183	
  -1.63972	-0.00155796	   -1.6324	-0.00152131	  -1.64429	-0.00150987	  -1.63881	-0.00152971	  -1.63881	  -38.2428	
  -1.56511	-0.00155478	  -1.55751	-0.0015182	  -1.56967	-0.00150697	   -1.5641	-0.00152665	   -1.5641	  -38.1663	
  -1.49059	-0.00155156	  -1.48276	-0.00151496	  -1.49513	-0.00150414	   -1.4895	-0.00152355	   -1.4895	  -38.0888	
  -1.41581	-0.00154826	  -1.40779	-0.00151162	  -1.42031	-0.00150133	  -1.41464	-0.0015204	  -1.41464	  -38.0101	
    -1.341	-0.00154489	  -1.33284	-0.0015082	  -1.34546	-0.00149851	  -1.33977	-0.0015172	  -1.33977	    -37.93	
   -1.2664	-0.00154141	  -1.25776	-0.00150475	  -1.27082	-0.00149563	  -1.26499	-0.00151393	  -1.26499	  -37.8482	
  -1.19165	-0.00153783	  -1.18289	-0.00150129	  -1.19601	-0.00149265	  -1.19018	-0.00151059	  -1.19018	  -37.7648	
  -1.11698	-0.00153415	  -1.10795	-0.00149786	  -1.12128	-0.00148953	  -1.11541	-0.00150718	  -1.11541	  -37.6796	
  -1.04234	-0.00153038	   -1.0328	-0.00149447	  -1.04628	-0.00148626	  -1.04047	-0.0015037	  -1.04047	  -37.5925	
 -0.967654	-0.00152652	 -0.957686	-0.00149112	 -0.971253	-0.00148281	 -0.965531	-0.00150015	 -0.965531	  -37.5037	
 -0.892872	-0.00152259	 -0.882542	-0.0014878	 -0.896149	-0.0014792	 -0.890521	-0.00149653	 -0.890521	  -37.4133	
 -0.817939	-0.00151862	 -0.807315	-0.00148448	 -0.820913	-0.00147545	 -0.815389	-0.00149285	 -0.815389	  -37.3213	
  -0.74281	-0.00151461	 -0.732239	-0.00148112	 -0.745784	-0.0014716	 -0.740278	-0.00148911	 -0.740278	  -37.2278	
 -0.667633	-0.00151058	 -0.656955	-0.00147769	 -0.670406	-0.00146768	 -0.664998	-0.00148532	 -0.664998	   -37.133	
 -0.592449	-0.00150652	 -0.581711	-0.00147417	 -0.595031	-0.00146375	  -0.58973	-0.00148148	  -0.58973	  -37.0369	
 -0.517199	-0.00150243	 -0.506732	-0.0014705	 -0.519886	-0.00145982	 -0.514606	-0.00147758	 -0.514606	  -36.9396	
 -0.441831	-0.00149831	  -0.43165	-0.00146668	 -0.444609	-0.00145593	 -0.439363	-0.00147364	 -0.439363	   -36.841	
 -0.366583	-0.00149414	 -0.356703	-0.00146272	 -0.369438	-0.00145207	 -0.364241	-0.00146965	 -0.364241	  -36.7411	
 -0.291101	-0.00148991	 -0.281728	-0.00145863	 -0.294405	-0.00144824	 -0.289078	-0.00146559	 -0.289078	  -36.6397	
 -0.215634	-0.00148559	 -0.206763	-0.0014544	 -0.219344	-0.00144441	 -0.213914	-0.00146147	 -0.213914	  -36.5367	
 -0.140222	-0.00148119	 -0.131845	-0.0014501	 -0.144296	-0.00144056	 -0.138787	-0.00145728	 -0.138787	   -36.432	
-0.0647032	-0.00147669	-0.0568135	-0.00144575	-0.0691033	-0.00143664	  -0.06354	-0.00145303	  -0.06354	  -36.3257	
 0.0106821	-0.0014721	 0.0180929	-0.00144139	0.00599313	-0.00143262	 0.0115894	-0.00144871	 0.0115894	  -36.2177	
 0.0862912	-0.00146742	 0.0932322	-0.00143705	 0.0807713	-0.00142848	 0.0867649	-0.00144432	 0.0867649	   -36.108	
  0.161875	-0.00146267	  0.168357	-0.00143276	  0.155604	-0.0014242	  0.161945	-0.00143988	  0.161945	  -35.9969	
  0.237783	-0.00145785	  0.243814	-0.0014285	  0.230836	-0.00141977	  0.237478	-0.00143537	  0.237478	  -35.8843	
  0.313756	-0.00145299	  0.319349	-0.00142426	  0.306206	-0.0014152	  0.313103	-0.00143082	  0.313103	  -35.7705	
  0.389557	-0.00144809	  0.394724	-0.00142004	  0.381662	-0.00141052	  0.388648	-0.00142622	  0.388648	  -35.6554	
  0.465256	-0.00144317	  0.470295	-0.00141579	  0.457066	-0.00140573	  0.464206	-0.00142156	  0.464206	  -35.5391	
  0.540917	-0.00143822	  0.545818	-0.00141148	  0.532477	-0.00140089	  0.539737	-0.00141686	  0.539737	  -35.4216	
  0.616311	-0.00143325	  0.621063	-0.00140706	  0.608241	 -0.001396	  0.615205	-0.00141211	  0.615205	  -35.3027	
  0.691613	-0.00142825	  0.696401	-0.00140253	  0.683907	-0.0013911	   0.69064	-0.00140729	   0.69064	  -35.1823	
  0.766792	-0.0014232	  0.771594	-0.00139785	  0.759443	-0.00138621	  0.765943	-0.00140242	  0.765943	  -35.0605	
  0.842206	-0.0014181	  0.846806	-0.00139301	   0.83482	-0.00138133	  0.841277	-0.00139748	  0.841277	   -34.937	
  0.917606	-0.00141292	     0.922	-0.00138805	  0.910206	-0.00137646	  0.916604	-0.00139248	  0.916604	   -34.812	
  0.992761	-0.00140766	  0.997139	-0.00138298	   0.98537	-0.00137161	  0.991757	-0.00138742	  0.991757	  -34.6854	
   1.06804	-0.00140231	   1.07238	-0.00137782	   1.06068	-0.00136676	   1.06703	-0.0013823	   1.06703	  -34.5574	
    1.1432	-0.00139687	   1.14749	-0.00137261	   1.13588	-0.00136188	   1.14219	-0.00137712	   1.14219	   -34.428	
   1.21822	-0.00139133	   1.22263	-0.00136739	   1.21115	-0.00135695	   1.21733	-0.00137189	   1.21733	  -34.2973	
   1.29325	-0.00138571	   1.29776	-0.00136218	   1.28644	-0.00135196	   1.29248	-0.00136662	   1.29248	  -34.1655	
   1.36807	-0.00138003	   1.37284	 -0.001357	    1.3617	-0.00134688	   1.36754	-0.0013613	   1.36754	  -34.0326	
   1.44305	-0.00137428	   1.44775	-0.00135185	   1.43711	-0.0013417	   1.44263	-0.00135594	   1.44263	  -33.8986	
   1.51793	-0.00136848	   1.52255	-0.00134672	    1.5124	-0.00133643	   1.51763	-0.00135054	   1.51763	  -33.7636	
    1.5928	-0.00136265	   1.59732	-0.00134159	   1.58737	-0.00133106	    1.5925	-0.0013451	    1.5925	  -33.6275	
   1.66751	-0.00135679	   1.67192	-0.00133643	   1.66239	-0.00132559	   1.66727	-0.0013396	   1.66727	  -33.4901	
   1.74205	-0.0013509	   1.74662	-0.00133121	   1.73721	-0.00132005	   1.74196	-0.00133405	   1.74196	  -33.3513	
   1.81657	-0.00134499	   1.82148	-0.00132588	   1.81222	-0.00131443	   1.81676	-0.00132844	   1.81676	  -33.2109	
   1.89106	-0.00133904	   1.89625	-0.00132044	   1.88716	-0.00130876	   1.89149	-0.00132275	   1.89149	  -33.0687	
   1.96529	-0.00133304	   1.97071	-0.00131486	   1.96181	-0.00130305	   1.96593	-0.00131699	   1.96593	  -32.9247	
   2.03961	-0.00132699	   2.04523	-0.00130914	   2.03653	-0.00129731	   2.04046	-0.00131115	   2.04046	  -32.7787	
   2.11381	-0.00132087	   2.11959	-0.0013033	    2.1111	-0.00129154	   2.11483	-0.00130523	   2.11483	  -32.6309	
   2.18765	-0.00131467	   2.19355	-0.00129734	   2.18549	-0.00128573	    2.1889	-0.00129925	    2.1889	  -32.4812	
   2.26124	-0.0013084	   2.26752	-0.0012913	   2.25987	-0.00127989	   2.26288	-0.00129319	   2.26288	  -32.3299	
   2.33465	-0.00130203	   2.34145	-0.00128521	   2.33402	-0.00127401	   2.33671	-0.00128709	   2.33671	  -32.1771	
   2.40825	-0.00129558	    2.4155	-0.00127911	    2.4083	-0.00126809	   2.41069	-0.00128093	   2.41069	  -32.0232	
   2.48181	-0.00128906	   2.48944	-0.00127303	   2.48248	-0.0012621	   2.48458	-0.00127473	   2.48458	  -31.8683	
   2.55509	-0.00128247	   2.56306	-0.00126698	   2.55633	-0.00125605	   2.55816	-0.0012685	   2.55816	  -31.7125	
   2.62829	-0.00127582	   2.63652	-0.00126096	   2.63024	-0.00124994	   2.63169	-0.00126224	   2.63169	   -31.556	
   2.70138	-0.00126914	   2.70983	-0.00125495	   2.70398	-0.00124375	   2.70506	-0.00125595	   2.70506	  -31.3986	
   2.77442	-0.00126242	   2.78276	-0.00124893	    2.7779	-0.00123751	   2.77836	-0.00124962	   2.77836	  -31.2404	
    2.8475	-0.00125567	    2.8555	-0.00124287	   2.85177	-0.0012312	   2.85159	-0.00124325	   2.85159	  -31.0812	
   2.92037	-0.00124891	   2.92804	-0.00123673	   2.92536	-0.00122483	   2.92459	-0.00123682	   2.92459	  -30.9206	
   2.99303	-0.00124212	   3.00018	-0.00123047	   2.99886	-0.00121843	   2.99736	-0.00123034	   2.99736	  -30.7585	
   3.06566	-0.00123532	   3.07229	-0.00122407	   3.07224	-0.00121198	   3.07006	-0.00122379	   3.07006	  -30.5947	
   3.13804	-0.00122849	   3.14416	-0.00121752	   3.14547	-0.00120549	   3.14256	-0.00121717	   3.14256	  -30.4291	
   3.21025	-0.00122164	    3.2156	-0.00121082	   3.21845	-0.00119898	   3.21477	-0.00121048	   3.21477	  -30.2619	
   3.28237	-0.00121475	    3.2866	-0.00120399	   3.29126	-0.00119243	   3.28674	-0.00120373	   3.28674	  -30.0931	
   3.35448	-0.00120782	   3.35738	-0.00119707	   3.36397	-0.00118585	   3.35861	-0.00119691	   3.35861	  -29.9228	
   3.42646	-0.00120082	   3.42811	-0.00119009	   3.43666	-0.00117924	   3.43041	-0.00119005	   3.43041	  -29.7512	
   3.49829	-0.00119374	   3.49877	-0.00118309	   3.50911	-0.00117258	   3.50206	-0.00118314	   3.50206	  -29.5784	
   3.56995	-0.00118658	   3.56974	-0.00117609	   3.58151	-0.00116586	   3.57373	-0.00117618	   3.57373	  -29.4045	
   3.64162	-0.00117932	   3.64076	-0.00116914	   3.65381	-0.00115908	    3.6454	-0.00116918	    3.6454	  -29.2295	
   3.71308	-0.00117197	   3.71162	-0.00116222	   3.72582	-0.00115223	   3.71684	-0.00116214	   3.71684	  -29.0536	
   3.78432	-0.00116454	    3.7825	-0.00115533	   3.79752	-0.00114531	   3.78811	-0.00115506	   3.78811	  -28.8765	
   3.85552	-0.00115703	   3.85366	-0.00114844	   3.86911	-0.00113831	   3.85943	-0.00114793	   3.85943	  -28.6982	
   3.92647	-0.00114946	   3.92496	-0.00114156	   3.94057	-0.00113124	   3.93067	-0.00114075	   3.93067	  -28.5188	
   3.99727	-0.00114184	   3.99578	-0.00113462	   4.01178	-0.0011241	   4.00161	-0.00113352	   4.00161	  -28.3379	
   4.06799	-0.00113418	   4.06653	-0.00112759	   4.08284	-0.0011169	   4.07245	-0.00112622	   4.07245	  -28.1555	
   4.13842	-0.0011265	   4.13727	-0.00112045	   4.15383	-0.00110965	   4.14317	-0.00111886	   4.14317	  -27.9716	
   4.20876	-0.00111882	    4.2077	-0.00111319	   4.22482	-0.00110236	   4.21376	-0.00111146	   4.21376	  -27.7864	
     4.279	-0.00111114	   4.27744	-0.0011058	   4.29561	-0.00109503	   4.28401	-0.00110399	   4.28401	  -27.5998	
   4.34891	-0.00110347	   4.34709	-0.00109828	   4.36636	-0.00108768	   4.35412	-0.00109648	   4.35412	   -27.412	
    4.4189	-0.00109581	   4.41741	-0.00109069	   4.43707	-0.00108031	   4.42446	-0.00108893	   4.42446	  -27.2234	
   4.48874	-0.00108813	   4.48755	-0.00108302	   4.50751	-0.00107291	    4.4946	-0.00108136	    4.4946	  -27.0339	
   4.55823	-0.00108045	   4.55694	-0.0010753	    4.5775	-0.00106549	   4.56422	-0.00107375	   4.56422	  -26.8436	
   4.62777	-0.00107272	   4.62637	-0.00106759	   4.64742	-0.00105804	   4.63385	-0.00106612	   4.63385	  -26.6529	
   4.69712	-0.00106495	    4.6964	-0.00105991	   4.71708	-0.00105055	   4.70354	-0.00105847	   4.70354	  -26.4617	
   4.76611	-0.00105709	   4.76571	-0.00105226	   4.78629	-0.00104302	    4.7727	-0.00105079	    4.7727	  -26.2698	
   4.83492	-0.00104915	   4.83425	-0.00104464	   4.85543	-0.00103545	   4.84153	-0.00104308	   4.84153	   -26.077	
   4.90356	-0.00104111	    4.9035	-0.00103705	   4.92431	-0.00102781	   4.91046	-0.00103533	   4.91046	  -25.8832	
   4.97203	-0.00103297	   4.97328	-0.00102947	   4.99273	-0.00102011	   4.97934	-0.00102752	   4.97934	  -25.6879	
   5.04021	-0.00102473	   5.04209	-0.00102185	   5.06111	-0.00101234	    5.0478	-0.00101964	    5.0478	   -25.491	
   5.10822	-0.0010164	   5.11009	-0.00101418	   5.12922	-0.00100449	   5.11584	-0.00101169	   5.11584	  -25.2922	
   5.17614	 -0.001008	   5.17857	-0.00100642	    5.1969	-0.00099655	   5.18387	-0.00100366	   5.18387	  -25.0915	
   5.24407	-0.000999546	   5.24728	-0.000998563	   5.26424	-0.00098852	   5.25186	-0.000995543	   5.25186	  -24.8886	
   5.31179	-0.000991056	   5.31495	-0.000990593	   5.33136	-0.000980411	   5.31937	-0.000987353	   5.31937	  -24.6838	
   5.37912	-0.000982549	   5.38193	-0.000982512	   5.39807	-0.000972229	   5.38637	-0.000979097	   5.38637	  -24.4774	
   5.44646	-0.000974031	   5.44931	-0.000974316	    5.4642	-0.000963983	   5.45332	-0.000970777	   5.45332	  -24.2694	
    5.5136	-0.000965511	   5.51675	-0.000966029	   5.53017	-0.000955689	   5.52017	-0.00096241	   5.52017	  -24.0602	
   5.58035	-0.000956991	    5.5832	-0.000957673	   5.59579	-0.000947369	   5.58644	-0.000954011	   5.58644	  -23.8503	
   5.64711	-0.00094846	   5.64938	-0.000949275	   5.66146	-0.000939041	   5.65265	-0.000945592	   5.65265	  -23.6398	
   5.71368	-0.000939904	   5.71578	-0.000940863	   5.72698	-0.000930722	   5.71881	-0.000937163	   5.71881	  -23.4291	
   5.77987	-0.000931313	   5.78238	-0.000932456	   5.79274	-0.000922411	     5.785	-0.000928727	     5.785	  -23.2182	
    5.8459	-0.000922672	   5.84839	-0.000924064	   5.85851	-0.000914108	   5.85093	-0.000920282	   5.85093	   -23.007	
   5.91176	-0.000913966	   5.91393	-0.000915689	    5.9241	-0.00090581	    5.9166	-0.000911822	    5.9166	  -22.7955	
   5.97727	-0.000905183	   5.97942	-0.000907327	   5.98961	-0.000897488	    5.9821	-0.000903333	    5.9821	  -22.5833	
   6.04244	-0.000896316	   6.04495	-0.000898966	   6.05512	-0.000889121	    6.0475	-0.000894801	    6.0475	    -22.37	
   6.10749	-0.000887355	   6.10973	-0.000890581	   6.12045	-0.000880707	   6.11256	-0.000886214	   6.11256	  -22.1554	
   6.17223	-0.000878307	   6.17384	-0.000882149	    6.1854	-0.00087224	   6.17716	-0.000877565	   6.17716	  -21.9391	
   6.23677	-0.000869183	   6.23807	-0.000873645	   6.25009	-0.000863683	   6.24164	-0.000868837	   6.24164	  -21.7209	
   6.30122	-0.000859995	   6.30241	-0.000865047	   6.31464	-0.000855031	   6.30609	-0.000860024	   6.30609	  -21.5006	
   6.36539	-0.000850763	   6.36619	-0.000856345	   6.37885	-0.000846293	   6.37014	-0.000851133	   6.37014	  -21.2783	
    6.4291	-0.000841506	   6.42933	-0.000847535	   6.44257	-0.000837468	   6.43367	-0.00084217	   6.43367	  -21.0542	
   6.49278	-0.000832247	   6.49248	-0.000838622	   6.50591	-0.000828559	   6.49706	-0.000833143	   6.49706	  -20.8286	
   6.55623	-0.000822995	   6.55583	-0.000829618	   6.56939	-0.000819592	   6.56048	-0.000824069	   6.56048	  -20.6017	
   6.61927	-0.000813763	   6.61877	-0.000820548	     6.633	-0.000810599	   6.62368	-0.00081497	   6.62368	  -20.3742	
   6.68233	-0.000804552	   6.68143	-0.000811433	   6.69596	-0.000801584	   6.68657	-0.000805856	   6.68657	  -20.1464	
    6.7452	-0.000795355	   6.74394	-0.000802296	   6.75831	-0.000792561	   6.74915	-0.000796737	   6.74915	  -19.9184	
   6.80771	-0.000786158	   6.80612	-0.000793157	   6.82116	-0.000783559	   6.81166	-0.000787625	   6.81166	  -19.6906	
   6.86989	-0.000776946	    6.8678	-0.000784032	   6.88438	-0.000774576	   6.87402	-0.000778518	   6.87402	   -19.463	
   6.93167	-0.000767699	   6.92912	-0.000774923	   6.94649	-0.000765605	   6.93576	-0.000769409	   6.93576	  -19.2352	
   6.99317	-0.000758394	    6.9902	-0.000765829	   7.00807	-0.000756646	   6.99715	-0.00076029	   6.99715	  -19.0072	
   7.05425	-0.00074901	   7.05147	-0.000756736	   7.07059	-0.000747687	   7.05877	-0.000751144	   7.05877	  -18.7786	
   7.11492	-0.000739529	   7.11251	-0.000747628	   7.13294	-0.000738701	   7.12012	-0.000741953	   7.12012	  -18.5488	
   7.17542	-0.000729939	   7.17336	-0.000738486	   7.19379	-0.000729671	   7.18086	-0.000732699	   7.18086	  -18.3175	
   7.23559	-0.000720246	   7.23404	-0.000729288	   7.25421	-0.000720588	   7.24128	-0.000723374	   7.24128	  -18.0843	
   7.29555	-0.000710457	   7.29475	-0.000720016	    7.3152	-0.000711432	   7.30184	-0.000713968	   7.30184	  -17.8492	
   7.35513	-0.000700588	   7.35503	-0.00071066	   7.37568	-0.0007022	   7.36195	-0.000704483	   7.36195	  -17.6121	
   7.41447	-0.00069066	   7.41482	-0.000701215	   7.43502	-0.000692904	   7.42144	-0.000694926	   7.42144	  -17.3732	
   7.47341	-0.000680699	   7.47416	-0.000691686	   7.49418	-0.000683546	   7.48058	-0.00068531	   7.48058	  -17.1328	
     7.532	-0.00067073	   7.53349	-0.00068208	   7.55366	-0.000674129	   7.53972	-0.000675646	   7.53972	  -16.8912	
   7.59045	-0.000660772	   7.59263	-0.000672416	   7.61259	-0.000664676	   7.59856	-0.000665954	   7.59856	  -16.6489	
   7.64862	-0.000650835	   7.65141	-0.000662712	   7.67054	-0.000655205	   7.65685	-0.000656251	   7.65685	  -16.4063	
   7.70633	-0.000640922	   7.70996	-0.00065299	   7.72828	-0.00064573	   7.71486	-0.000646547	   7.71486	  -16.1637	
   7.76403	-0.000631021	   7.76842	-0.000643266	   7.78632	-0.000636263	   7.77292	-0.00063685	   7.77292	  -15.9213	
   7.82155	-0.000621117	   7.82661	-0.000633552	   7.84407	-0.000626812	   7.83074	-0.00062716	   7.83074	   -15.679	
    7.8787	-0.000611183	   7.88437	-0.000623853	    7.9008	-0.00061737	   7.88796	-0.000617469	   7.88796	  -15.4367	
   7.93537	-0.000601194	   7.94157	-0.000614164	   7.95729	-0.000607931	   7.94474	-0.000607763	   7.94474	  -15.1941	
   7.99168	-0.000591129	   7.99836	-0.000604476	   8.01396	-0.000598482	   8.00133	-0.000598029	   8.00133	  -14.9507	
    8.0478	-0.000580974	   8.05488	-0.000594773	   8.07051	-0.000588996	   8.05773	-0.000588248	   8.05773	  -14.7062	
   8.10356	-0.000570722	   8.11098	-0.00058504	   8.12603	-0.00057945	   8.11352	-0.000578404	   8.11352	  -14.4601	
   8.15882	-0.000560378	   8.16653	-0.000575261	     8.181	-0.000569842	   8.16878	-0.000568493	   8.16878	  -14.2123	
   8.21402	-0.000549958	   8.22198	-0.00056542	   8.23644	-0.000560152	   8.22415	-0.00055851	   8.22415	  -13.9628	
   8.26901	-0.00053949	   8.27716	-0.000555511	   8.29177	-0.000550364	   8.27932	-0.000548455	   8.27932	  -13.7114	
   8.32364	-0.000528995	   8.33193	-0.000545532	   8.34606	-0.000540492	   8.33388	-0.00053834	   8.33388	  -13.4585	
   8.37775	-0.0005185	   8.38634	-0.000535485	   8.39998	-0.000530554	   8.38803	-0.000528179	   8.38803	  -13.2045	
   8.43153	-0.000508024	   8.44036	-0.000525381	   8.45409	-0.000520559	   8.44199	-0.000517988	   8.44199	  -12.9497	
   8.48511	-0.000497588	   8.49412	-0.000515231	    8.5079	-0.000510528	   8.49571	-0.000507782	   8.49571	  -12.6946	
   8.53835	-0.000487197	    8.5475	-0.000505052	   8.56099	-0.000500496	   8.54895	-0.000497582	   8.54895	  -12.4395	
   8.59111	-0.000476842	   8.60036	-0.000494861	   8.61374	-0.000490477	   8.60174	-0.000487393	   8.60174	  -12.1848	
   8.64356	-0.000466512	   8.65315	-0.000484669	   8.66639	-0.000480481	   8.65437	-0.000477221	   8.65437	  -11.9305	
   8.69584	-0.000456186	   8.70571	-0.000474489	   8.71879	-0.000470516	   8.70678	-0.000467064	   8.70678	  -11.6766	
   8.74782	-0.000445842	   8.75791	-0.000464322	   8.77061	-0.000460587	   8.75878	-0.000456917	   8.75878	  -11.4229	
   8.79935	-0.000435458	   8.80961	-0.000454167	   8.82192	-0.000450669	    8.8103	-0.000446765	    8.8103	  -11.1691	
   8.85031	-0.000425011	   8.86089	-0.000444017	     8.873	-0.000440747	    8.8614	-0.000436592	    8.8614	  -10.9148	
   8.90089	-0.000414491	     8.912	-0.000433859	    8.9239	-0.000430797	   8.91226	-0.000426382	   8.91226	  -10.6596	
   8.95124	-0.000403891	    8.9628	-0.000423682	   8.97428	-0.000420793	   8.96277	-0.000416122	   8.96277	  -10.4031	
   9.00123	-0.000393211	   9.01317	-0.000413472	   9.02422	-0.000410719	   9.01287	-0.000405801	   9.01287	   -10.145	
   9.05073	-0.000382461	   9.06298	-0.000403216	   9.07399	-0.000400565	   9.06256	-0.000395414	   9.06256	  -9.88535	
   9.09992	-0.000371655	   9.11241	-0.000392909	   9.12364	-0.000390326	   9.11199	-0.000384963	   9.11199	  -9.62408	
   9.14876	-0.000360809	   9.16143	-0.000382548	   9.17285	-0.000380005	   9.16101	-0.000374454	   9.16101	  -9.36135	
   9.19734	-0.000349942	   9.21013	-0.000372138	   9.22167	-0.000369623	   9.20971	-0.000363901	   9.20971	  -9.09753	
   9.24552	-0.000339074	   9.25837	-0.000361687	   9.27029	-0.000359203	   9.25806	-0.000353322	   9.25806	  -8.83304	
   9.29318	-0.000328221	   9.30605	-0.000351213	   9.31867	-0.000348762	   9.30597	-0.000342732	   9.30597	  -8.56831	
   9.34022	-0.000317393	   9.35306	-0.000340732	   9.36629	-0.000338325	   9.35319	-0.00033215	   9.35319	  -8.30376	
   9.38713	-0.000306591	   9.39989	-0.000330262	   9.41346	-0.000327918	   9.40016	-0.00032159	   9.40016	  -8.03975	
   9.43376	-0.000295805	   9.44641	-0.000319834	   9.46053	-0.000317552	    9.4469	-0.000311064	    9.4469	  -7.77659	
   9.48001	-0.000285023	   9.49251	-0.000309449	    9.5071	-0.000307228	    9.4932	-0.000300567	    9.4932	  -7.51416	
   9.52574	-0.000274232	   9.53807	-0.000299096	   9.55305	-0.000296943	   9.53895	-0.00029009	   9.53895	  -7.25225	
   9.57107	-0.000263409	   9.58318	-0.000288764	   9.59849	-0.000286682	   9.58425	-0.000279618	   9.58425	  -6.99046	
   9.61626	-0.000252545	   9.62814	-0.000278427	    9.6437	-0.000276424	   9.62937	-0.000269132	   9.62937	  -6.72829	
   9.66119	-0.00024163	   9.67281	-0.000268059	   9.68856	-0.000266149	   9.67419	-0.000258613	   9.67419	  -6.46532	
   9.70574	-0.000230664	   9.71708	-0.000257625	   9.73295	-0.000255839	   9.71859	-0.000248043	   9.71859	  -6.20107	
    9.7498	-0.000219649	   9.76084	-0.000247107	   9.77679	-0.000245476	   9.76248	-0.000237411	   9.76248	  -5.93527	
   9.79347	-0.000208595	    9.8042	-0.000236489	   9.82017	-0.000235049	   9.80595	-0.000226711	   9.80595	  -5.66778	
   9.83704	-0.000197514	   9.84715	-0.000225769	   9.86339	-0.000224554	   9.84919	-0.000215946	   9.84919	  -5.39864	
   9.88017	-0.000186422	   9.88987	-0.000214964	   9.90631	-0.000213994	   9.89212	-0.000205127	   9.89212	  -5.12816	
   9.92298	-0.000175334	   9.93226	-0.000204097	   9.94883	-0.000203379	   9.93469	-0.00019427	   9.93469	  -4.85675	
   9.96534	-0.00016426	   9.97421	-0.000193198	   9.99086	-0.000192725	   9.97681	-0.000183394	   9.97681	  -4.58486	
   10.0072	-0.000153209	   10.0156	-0.000182313	   10.0326	-0.000182055	   10.0185	-0.000172526	   10.0185	  -4.31314	
   10.0486	-0.000142179	   10.0564	-0.00017149	   10.0738	-0.000171389	   10.0596	-0.000161686	   10.0596	  -4.04214	
   10.0899	-0.000131155	   10.0968	-0.000160763	   10.1143	-0.000160746	   10.1003	-0.000150888	   10.1003	   -3.7722	
   10.1309	-0.000120143	   10.1368	-0.000150151	   10.1545	-0.000150137	   10.1407	-0.000140144	   10.1407	   -3.5036	
   10.1716	-0.000109139	   10.1765	-0.000139664	   10.1943	-0.000139568	   10.1808	-0.000129457	   10.1808	  -3.23643	
   10.2118	-9.81275e-05	   10.2158	-0.000129292	   10.2337	-0.000129039	   10.2204	-0.00011882	   10.2204	  -2.97049	
   10.2514	-8.71097e-05	   10.2546	-0.000119007	   10.2725	-0.000118542	   10.2595	-0.00010822	   10.2595	  -2.70549	
   10.2908	-7.60836e-05	   10.2929	-0.000108772	   10.3107	-0.000108061	   10.2981	-9.76386e-05	   10.2981	  -2.44097	
   10.3296	-6.50515e-05	   10.3307	-9.85351e-05	   10.3488	-9.75778e-05	   10.3364	-8.70548e-05	   10.3364	  -2.17637	
   10.3682	-5.4011e-05	    10.368	-8.82461e-05	   10.3867	-8.70768e-05	   10.3743	-7.64446e-05	   10.3743	  -1.91112	
   10.4065	-4.29631e-05	   10.4052	-7.78652e-05	   10.4242	-7.65391e-05	    10.412	-6.57891e-05	    10.412	  -1.64473	
   10.4444	-3.19159e-05	    10.442	-6.73636e-05	   10.4614	-6.59522e-05	   10.4493	-5.50772e-05	   10.4493	  -1.37693	
   10.4818	-2.08614e-05	   10.4786	-5.67259e-05	   10.4981	-5.53121e-05	   10.4861	-4.42998e-05	   10.4861	  -1.10749	
   10.5186	-9.7901e-06	   10.5147	-4.5956e-05	   10.5342	-4.46222e-05	   10.5225	-3.34561e-05	   10.5225	 -0.836403	
   10.5548	1.30836e-06	   10.5502	-3.50809e-05	   10.5696	-3.38897e-05	   10.5582	-2.25541e-05	   10.5582	 -0.563852	
   10.5909	1.24452e-05	   10.5857	-2.4138e-05	   10.6047	-2.31302e-05	   10.5938	-1.16077e-05	   10.5938	 -0.290192	
   10.6267	2.3638e-05	   10.6207	-1.31791e-05	   10.6396	-1.23642e-05	    10.629	-6.35102e-07	    10.629	-0.0158775	
   10.6622	3.48916e-05	   10.6555	-2.26326e-06	   10.6742	-1.60983e-06	    10.664	1.03395e-05	    10.664	  0.258488	
   10.6974	4.6194e-05	   10.6899	8.55061e-06	   10.7084	9.11544e-06	   10.6986	2.12867e-05	   10.6986	  0.532167	
    10.732	5.75304e-05	    10.724	1.92373e-05	   10.7422	1.97957e-05	   10.7327	3.21878e-05	   10.7327	  0.804696	
   10.7661	6.88807e-05	   10.7575	2.9792e-05	   10.7755	3.0425e-05	   10.7664	4.30325e-05	   10.7664	   1.07581	
   10.7996	8.0211e-05	   10.7906	4.02185e-05	   10.8082	4.09999e-05	   10.7995	5.38098e-05	   10.7995	   1.34525	
   10.8328	9.14916e-05	    10.823	5.05503e-05	   10.8403	5.15259e-05	    10.832	6.45226e-05	    10.832	   1.61307	
   10.8654	0.000102689	    10.855	6.08281e-05	   10.8721	6.20146e-05	   10.8641	7.51772e-05	   10.8641	   1.87943	
   10.8971	0.000113775	   10.8865	7.11095e-05	   10.9034	7.2479e-05	   10.8957	8.57878e-05	   10.8957	   2.14469	
   10.9287	0.000124734	   10.9178	8.14451e-05	   10.9345	8.29301e-05	    10.927	9.63698e-05	    10.927	   2.40924	
   10.9599	0.000135564	   10.9489	9.18772e-05	   10.9653	9.33681e-05	    10.958	0.000106936	    10.958	   2.67341	
   10.9908	0.00014628	   10.9796	0.00010244	   10.9957	0.000103812	   10.9887	0.000117511	   10.9887	   2.93776	
   11.0211	0.000156913	   11.0099	0.000113143	   11.0257	0.00011427	   11.0189	0.000128109	   11.0189	   3.20272	
    11.051	0.000167503	   11.0397	0.000123977	   11.0551	0.000124747	   11.0486	0.000138743	   11.0486	   3.46857	
   11.0803	0.000178102	   11.0689	0.000134912	   11.0841	0.000135249	   11.0777	0.000149421	   11.0777	   3.73552	
   11.1089	0.000188754	   11.0976	0.000145896	   11.1127	0.000145772	   11.1064	0.000160141	   11.1064	   4.00352	
    11.137	0.000199505	   11.1257	0.000156866	   11.1408	0.000156314	   11.1345	0.000170895	   11.1345	   4.27238	
   11.1643	0.000210384	   11.1536	0.000167771	   11.1682	0.000166873	   11.1621	0.000181676	   11.1621	    4.5419	
   11.1915	0.000221403	   11.1811	0.00017856	   11.1953	0.000177435	   11.1893	0.000192466	   11.1893	   4.81165	
   11.2185	0.000232553	    11.208	0.000189201	   11.2222	0.000187997	   11.2162	0.00020325	   11.2162	   5.08125	
   11.2452	0.000243806	   11.2347	0.000199673	   11.2487	0.000198547	   11.2429	0.000214009	   11.2429	   5.35022	
   11.2713	0.000255119	   11.2611	0.000209986	    11.275	0.000209075	   11.2691	0.000224727	   11.2691	   5.61817	
    11.297	0.00026644	   11.2871	0.000220169	   11.3008	0.000219578	    11.295	0.000235396	    11.295	   5.88489	
   11.3223	0.00027771	   11.3127	0.00023027	   11.3262	0.000230047	   11.3204	0.000246009	   11.3204	   6.15022	
   11.3471	0.000288882	   11.3378	0.000240346	   11.3511	0.000240476	   11.3454	0.000256568	   11.3454	    6.4142	
   11.3715	0.000299916	   11.3624	0.000250456	   11.3755	0.000250861	   11.3698	0.000267078	   11.3698	   6.67694	
   11.3952	0.000310792	   11.3865	0.000260649	   11.3993	0.000261202	   11.3937	0.000277548	   11.3937	   6.93869	
   11.4185	0.000321507	   11.4101	0.000270965	   11.4226	 0.0002715	    11.417	0.000287991	    11.417	   7.19977	
   11.4411	0.000332077	    11.433	0.00028142	   11.4452	0.000281759	   11.4398	0.000298419	   11.4398	   7.46047	
   11.4631	0.000342538	   11.4553	0.000292009	   11.4672	0.000291986	   11.4619	0.000308844	   11.4619	   7.72111	
   11.4848	0.000352938	   11.4769	0.000302705	   11.4886	0.000302193	   11.4834	0.000319279	   11.4834	   7.98197	
    11.506	0.000363331	   11.4981	0.000313467	   11.5095	0.000312384	   11.5045	0.000329728	   11.5045	   8.24319	
    11.527	0.000373768	   11.5189	0.00032424	   11.5299	0.000322575	   11.5253	0.000340194	   11.5253	   8.50486	
   11.5475	0.00038429	   11.5394	0.000334967	   11.5503	0.000332771	   11.5457	0.000350676	   11.5457	    8.7669	
   11.5675	0.000394923	   11.5591	0.000345598	   11.5701	0.000342981	   11.5656	0.000361167	   11.5656	   9.02918	
   11.5873	0.000405675	   11.5786	0.000356092	   11.5897	0.000353206	   11.5852	0.000371658	   11.5852	   9.29144	
   11.6066	0.000416534	   11.5977	0.000366428	   11.6091	0.000363442	   11.6045	0.000382135	   11.6045	   9.55337	
   11.6256	0.00042747	   11.6166	0.000376607	   11.6282	0.000373686	   11.6235	0.000392588	   11.6235	    9.8147	
   11.6443	0.000438439	   11.6352	0.000386648	   11.6469	0.000383928	   11.6421	0.000403005	   11.6421	   10.0751	
   11.6627	0.000449391	   11.6534	0.000396582	   11.6652	0.000394154	   11.6604	0.000413376	   11.6604	   10.3344	
   11.6806	0.000460275	   11.6713	0.000406454	   11.6832	0.000404353	   11.6784	0.000423694	   11.6784	   10.5923	
   11.6982	0.000471045	   11.6888	0.000416316	   11.7008	0.000414506	   11.6959	0.000433956	   11.6959	   10.8489	
   11.7153	0.000481671	    11.706	0.000426218	   11.7179	0.000424609	   11.7131	0.000444166	   11.7131	   11.1041	
    11.732	0.000492139	   11.7226	0.000436201	   11.7345	0.000434656	   11.7297	0.000454332	   11.7297	   11.3583	
   11.7482	0.000502453	   11.7389	0.000446292	   11.7507	0.000444649	   11.7459	0.000464465	   11.7459	   11.6116	
    11.764	0.000512637	   11.7547	 0.0004565	   11.7664	0.000454594	   11.7617	0.000474577	   11.7617	   11.8644	
   11.7792	0.000522731	     11.77	0.000466813	   11.7816	0.000464502	   11.7769	0.000484682	   11.7769	    12.117	
    11.794	0.000532779	   11.7848	0.000477208	   11.7963	0.000474391	   11.7917	0.000494793	   11.7917	   12.3698	
   11.8082	0.000542831	   11.7992	0.000487643	   11.8105	0.000484272	    11.806	0.000504915	    11.806	   12.6229	
    11.822	0.000552928	    11.813	0.000498068	   11.8241	0.000494154	   11.8197	0.00051505	   11.8197	   12.8763	
   11.8352	0.000563103	   11.8264	0.000508436	   11.8373	0.000504042	    11.833	0.000525194	    11.833	   13.1298	
   11.8479	0.000573374	   11.8393	0.000518704	   11.8499	0.000513933	   11.8457	0.000535337	   11.8457	   13.3834	
   11.8601	0.000583739	   11.8516	0.000528836	   11.8621	0.000523813	   11.8579	0.000545463	   11.8579	   13.6366	
   11.8718	0.000594176	   11.8635	0.000538811	   11.8737	0.000533678	   11.8697	0.000555555	   11.8697	   13.8889	
    11.883	0.000604651	   11.8748	0.000548632	   11.8848	0.000543525	   11.8809	0.000565603	   11.8809	   14.1401	
   11.8937	0.000615119	   11.8857	0.000558311	   11.8954	0.000553334	   11.8916	0.000575588	   11.8916	   14.3897	
   11.9039	0.000625534	   11.8961	0.000567878	   11.9056	0.000563094	   11.9019	0.000585502	   11.9019	   14.6376	
   11.9137	0.000635854	    11.906	0.000577375	   11.9152	0.000572815	   11.9116	0.000595348	   11.9116	   14.8837	
   11.9229	0.000646046	   11.9155	0.000586846	   11.9244	0.000582491	   11.9209	0.000605127	   11.9209	   15.1282	
   11.9317	0.00065609	   11.9244	0.000596335	   11.9331	0.000592117	   11.9297	0.000614848	   11.9297	   15.3712	
     11.94	0.000665986	   11.9329	0.000605879	   11.9413	0.000601703	   11.9381	0.000624523	   11.9381	   15.6131	
   11.9479	0.000675749	    11.941	0.000615498	   11.9491	0.000611262	    11.946	0.00063417	    11.946	   15.8542	
   11.9553	0.000685409	   11.9486	 0.0006252	   11.9565	 0.0006208	   11.9535	0.000643803	   11.9535	   16.0951	
   11.9623	0.000695006	   11.9558	0.000634973	   11.9634	0.000630318	   11.9605	0.000653432	   11.9605	   16.3358	
   11.9689	0.000704582	   11.9626	0.000644792	   11.9699	0.000639828	   11.9672	0.000663067	   11.9672	   16.5767	
   11.9751	0.000714177	    11.969	0.000654621	    11.976	0.00064933	   11.9734	0.000672709	   11.9734	   16.8177	
   11.9809	0.000723823	   11.9748	0.000664416	   11.9818	0.000658809	   11.9792	0.000682349	   11.9792	   17.0587	
   11.9864	0.000733535	   11.9803	0.000674138	   11.9871	0.000668264	   11.9846	0.000691979	   11.9846	   17.2995	
   11.9914	0.000743319	   11.9851	0.000683752	   11.9921	0.000677691	   11.9895	0.000701587	   11.9895	   17.5397	
   11.9962	0.000753158	   11.9894	0.00069324	   11.9968	0.000687079	   11.9941	0.000711159	   11.9941	    17.779	
   12.0003	0.000763025	   11.9934	0.000702585	   12.0011	0.000696433	   11.9982	0.000720681	   11.9982	    18.017	
   12.0039	0.000772888	   11.9969	0.00071178	   12.0049	0.000705743	   12.0019	0.000730137	   12.0019	   18.2534	
   12.0069	0.000782706	   11.9999	0.000720846	   12.0084	0.000714999	    12.005	0.000739517	    12.005	   18.4879	
   12.0091	0.000792442	   12.0021	0.000729805	   12.0112	0.000724206	   12.0075	0.000748818	   12.0075	   18.7204	
   12.0106	0.000802067	   12.0035	0.000738689	   12.0132	0.000733366	   12.0091	0.000758041	   12.0091	    18.951	
   12.0113	0.000811559	   12.0043	0.000747526	   12.0145	0.000742485	     12.01	0.00076719	     12.01	   19.1798	
   12.0114	0.000820914	   12.0044	0.000756354	    12.015	0.000751559	   12.0103	0.000776276	   12.0103	   19.4069	
   12.0109	0.000830139	   12.0041	0.000765207	   12.0149	 0.0007606	     12.01	0.000785316	     12.01	   19.6329	
   12.0099	0.000839254	   12.0033	0.000774104	   12.0143	0.000769612	   12.0092	0.000794323	   12.0092	   19.8581	
   12.0083	0.000848291	    12.002	0.000783056	    12.013	0.000778588	   12.0078	0.000803311	   12.0078	   20.0828	
   12.0063	0.000857282	   12.0002	0.00079206	   12.0113	0.000787529	   12.0059	0.00081229	   12.0059	   20.3073	
   12.0039	0.000866262	    11.998	0.000801097	   12.0091	0.000796437	   12.0036	0.000821265	   12.0036	   20.5316	
   12.0011	0.00087526	   11.9954	0.000810144	   12.0065	0.000805309	    12.001	0.000830237	    12.001	   20.7559	
   11.9979	0.000884294	   11.9924	0.000819176	   12.0035	0.00081414	   11.9979	0.000839203	   11.9979	   20.9801	
   11.9945	0.000893371	    11.989	0.000828165	   12.0001	0.000822934	   11.9945	0.000848157	   11.9945	   21.2039	
   11.9907	0.000902483	   11.9853	0.000837085	   11.9965	0.000831696	   11.9908	0.000857088	   11.9908	   21.4272	
   11.9866	0.00091161	   11.9808	0.000845914	   11.9924	0.000840414	   11.9866	0.00086598	   11.9866	   21.6495	
   11.9819	0.000920726	   11.9758	0.000854643	   11.9878	0.000849088	   11.9819	0.000874819	   11.9819	   21.8705	
   11.9768	0.000929797	   11.9702	0.000863268	   11.9825	0.00085772	   11.9765	0.000883595	   11.9765	   22.0899	
   11.9709	0.00093879	   11.9639	 0.0008718	   11.9765	 0.0008663	   11.9705	0.000892297	   11.9705	   22.3074	
   11.9645	0.000947679	   11.9571	0.000880251	   11.9699	0.000874833	   11.9639	0.000900921	   11.9639	    22.523	
   11.9576	0.000956445	   11.9499	0.000888639	   11.9628	0.000883318	   11.9567	0.000909467	   11.9567	   22.7367	
   11.9502	0.000965082	   11.9422	0.000896988	   11.9552	0.000891753	   11.9492	0.000917941	   11.9492	   22.9485	
   11.9424	0.000973596	   11.9341	0.00090532	   11.9472	0.000900139	   11.9412	0.000926351	   11.9412	   23.1588	
   11.9342	0.000982002	   11.9258	0.000913649	   11.9389	0.000908476	   11.9329	0.000934709	   11.9329	   23.3677	
   11.9258	0.000990327	   11.9172	0.000921985	   11.9302	0.00091677	   11.9244	0.000943027	   11.9244	   23.5757	
   11.9171	0.000998601	    11.908	0.000930333	    11.921	0.000925019	   11.9154	0.000951318	   11.9154	   23.7829	
   11.9078	0.00100685	   11.8984	0.000938685	   11.9115	0.000933228	   11.9059	0.000959589	   11.9059	   23.9897	
   11.8978	0.00101511	   11.8881	0.000947027	   11.9018	0.000941403	   11.8959	0.000967846	   11.8959	   24.1962	
   11.8872	0.00102339	   11.8772	0.000955339	   11.8917	0.000949542	   11.8854	0.000976089	   11.8854	   24.4022	
    11.876	0.00103169	   11.8658	0.000963603	   11.8809	0.000957648	   11.8743	0.000984314	   11.8743	   24.6079	
   11.8644	0.00104002	   11.8541	0.000971797	   11.8697	0.00096572	   11.8627	0.000992513	   11.8627	   24.8128	
   11.8524	0.00104836	   11.8419	0.000979904	    11.858	0.000973753	   11.8508	0.00100067	   11.8508	   25.0168	
   11.8401	0.00105668	   11.8295	0.000987917	    11.846	0.00098174	   11.8385	0.00100878	   11.8385	   25.2195	
   11.8273	0.00106495	   11.8169	0.00099583	   11.8336	0.000989673	   11.8259	0.00101682	   11.8259	   25.4205	
   11.8144	0.00107316	    11.804	0.00100365	    11.821	0.000997543	   11.8132	0.00102478	   11.8132	   25.6196	
   11.8007	0.00108125	   11.7905	0.00101139	   11.8081	0.00100534	   11.7998	0.00103266	   11.7998	   25.8165	
   11.7864	0.00108923	   11.7764	0.00101906	   11.7944	0.00101308	   11.7858	0.00104046	   11.7858	   26.0114	
   11.7716	0.00109709	   11.7618	0.00102669	   11.7802	0.00102075	   11.7712	0.00104817	   11.7712	   26.2044	
   11.7564	0.00110482	   11.7468	0.00103429	   11.7654	0.00102836	   11.7562	0.00105582	   11.7562	   26.3956	
   11.7408	0.00111245	   11.7314	0.00104188	   11.7503	0.00103592	   11.7408	0.00106342	   11.7408	   26.5854	
   11.7247	0.00111999	   11.7158	0.00104947	   11.7348	0.00104346	   11.7251	0.00107097	   11.7251	   26.7743	
    11.708	0.00112748	   11.6997	0.00105705	    11.719	0.00105098	   11.7089	 0.0010785	   11.7089	   26.9626	
   11.6909	0.00113494	   11.6833	0.00106464	    11.703	0.00105849	   11.6924	0.00108602	   11.6924	   27.1506	
   11.6732	0.00114239	   11.6662	0.00107222	   11.6866	0.00106599	   11.6754	0.00109353	   11.6754	   27.3384	
   11.6551	0.00114986	   11.6486	0.00107977	   11.6696	0.00107347	   11.6578	0.00110103	   11.6578	   27.5259	
   11.6365	0.00115735	   11.6306	0.00108728	   11.6521	0.00108093	   11.6397	0.00110852	   11.6397	    27.713	
   11.6175	0.00116485	   11.6123	0.00109471	   11.6341	0.00108836	   11.6213	0.00111598	   11.6213	   27.8994	
   11.5979	0.00117236	   11.5937	0.00110207	   11.6158	0.00109573	   11.6025	0.00112339	   11.6025	   28.0847	
   11.5781	0.00117984	   11.5744	0.00110934	    11.597	0.00110303	   11.5832	0.00113074	   11.5832	   28.2685	
    11.558	0.00118728	   11.5544	0.00111651	   11.5778	0.00111025	   11.5634	0.00113802	   11.5634	   28.4504	
   11.5373	0.00119465	   11.5339	0.00112359	   11.5579	0.00111738	    11.543	0.00114521	    11.543	   28.6302	
   11.5162	0.00120192	    11.513	0.00113059	   11.5375	0.00112443	   11.5222	0.00115231	   11.5222	   28.8078	
   11.4948	0.00120907	   11.4918	0.00113754	   11.5167	0.00113139	   11.5011	0.00115933	   11.5011	   28.9832	
   11.4729	 0.0012161	     11.47	0.00114443	   11.4955	0.00113828	   11.4795	0.00116627	   11.4795	   29.1568	
   11.4503	0.00122301	   11.4479	0.00115132	    11.474	0.00114512	   11.4574	0.00117315	   11.4574	   29.3288	
   11.4271	0.00122981	   11.4251	0.00115821	   11.4521	0.00115192	   11.4348	0.00117998	   11.4348	   29.4995	
   11.4035	0.00123653	   11.4018	0.00116511	   11.4295	0.00115869	   11.4116	0.00118678	   11.4116	   29.6694	
   11.3796	0.00124319	   11.3782	0.00117202	   11.4064	0.00116543	    11.388	0.00119355	    11.388	   29.8386	
   11.3553	 0.0012498	   11.3543	0.00117892	   11.3829	0.00117216	   11.3641	 0.0012003	   11.3641	   30.0074	
   11.3306	0.00125641	   11.3298	 0.0011858	   11.3589	0.00117887	   11.3397	0.00120703	   11.3397	   30.1757	
   11.3052	0.00126302	   11.3047	0.00119263	   11.3344	0.00118556	   11.3148	0.00121374	   11.3148	   30.3434	
   11.2793	0.00126964	   11.2791	0.00119937	   11.3093	0.00119221	   11.2892	0.00122041	   11.2892	   30.5102	
   11.2531	0.00127628	    11.253	0.00120602	   11.2836	 0.0011988	   11.2633	0.00122703	   11.2633	   30.6758	
   11.2266	0.00128292	   11.2265	0.00121255	   11.2576	0.00120532	   11.2369	 0.0012336	   11.2369	   30.8399	
   11.1997	0.00128956	   11.1999	0.00121896	    11.231	0.00121176	   11.2102	0.00124009	   11.2102	   31.0023	
   11.1727	0.00129616	   11.1726	0.00122525	   11.2036	 0.0012181	    11.183	 0.0012465	    11.183	   31.1626	
   11.1452	 0.0013027	   11.1448	0.00123143	   11.1757	0.00122436	   11.1552	0.00125283	   11.1552	   31.3207	
   11.1173	0.00130914	   11.1166	0.00123753	   11.1472	0.00123054	   11.1271	0.00125907	   11.1271	   31.4767	
   11.0891	0.00131548	   11.0881	0.00124357	   11.1185	0.00123664	   11.0986	0.00126523	   11.0986	   31.6307	
   11.0607	0.00132169	   11.0592	0.00124958	   11.0895	 0.0012427	   11.0698	0.00127132	   11.0698	   31.7831	
   11.0319	0.00132777	   11.0297	0.00125559	     11.06	0.00124871	   11.0405	0.00127736	   11.0405	   31.9339	
   11.0025	0.00133371	   10.9997	0.00126163	   11.0299	 0.0012547	   11.0107	0.00128334	   11.0107	   32.0836	
   10.9727	0.00133955	   10.9693	0.00126769	   10.9994	0.00126065	   10.9805	 0.0012893	   10.9805	   32.2325	
   10.9427	0.00134531	   10.9387	0.00127379	   10.9683	0.00126659	   10.9499	0.00129523	   10.9499	   32.3808	
   10.9121	0.00135102	   10.9076	 0.0012799	   10.9367	0.00127251	   10.9188	0.00130114	   10.9188	   32.5286	
   10.8808	0.00135671	    10.876	0.00128602	   10.9044	 0.0012784	   10.8871	0.00130704	   10.8871	   32.6761	
   10.8492	 0.0013624	   10.8439	 0.0012921	   10.8717	0.00128425	   10.8549	0.00131292	   10.8549	   32.8229	
   10.8171	 0.0013681	   10.8115	0.00129813	   10.8387	0.00129006	   10.8224	0.00131876	   10.8224	   32.9691	
   10.7846	0.00137383	    10.779	0.00130407	   10.8054	 0.0012958	   10.7897	0.00132457	   10.7897	   33.1143	
   10.7515	0.00137958	   10.7458	 0.0013099	   10.7716	0.00130148	   10.7563	0.00133032	   10.7563	    33.258	
   10.7179	0.00138533	   10.7122	 0.0013156	   10.7372	0.00130709	   10.7224	  0.001336	   10.7224	   33.4001	
   10.6839	0.00139105	   10.6782	0.00132116	   10.7025	0.00131262	   10.6882	0.00134161	   10.6882	   33.5402	
   10.6494	 0.0013967	    10.644	0.00132659	   10.6675	0.00131807	   10.6537	0.00134712	   10.6537	    33.678	
   10.6142	0.00140226	   10.6094	0.00133191	   10.6323	0.00132344	   10.6186	0.00135254	   10.6186	   33.8134	
   10.5786	 0.0014077	   10.5742	0.00133714	   10.5965	0.00132874	   10.5831	0.00135786	   10.5831	   33.9466	
   10.5426	0.00141303	   10.5387	0.00134232	   10.5604	0.00133397	   10.5472	0.00136311	   10.5472	   34.0776	
   10.5064	0.00141821	   10.5029	0.00134746	   10.5239	0.00133914	   10.5111	0.00136827	   10.5111	   34.2067	
   10.4696	0.00142326	   10.4664	 0.0013526	   10.4868	0.00134424	   10.4743	0.00137337	   10.4743	   34.3342	
   10.4322	0.00142821	   10.4294	0.00135775	   10.4492	0.00134928	   10.4369	0.00137841	   10.4369	   34.4604	
   10.3946	0.00143308	   10.3921	0.00136291	   10.4112	0.00135428	   10.3993	0.00138342	   10.3993	   34.5855	
   10.3567	 0.0014379	   10.3543	0.00136809	   10.3727	0.00135922	   10.3612	 0.0013884	   10.3612	     34.71	
   10.3187	0.00144269	   10.3159	0.00137326	   10.3339	0.00136412	   10.3228	0.00139336	   10.3228	   34.8339	
   10.2802	 0.0014475	   10.2772	 0.0013784	   10.2946	0.00136898	    10.284	0.00139829	    10.284	   34.9574	
   10.2414	0.00145232	   10.2381	 0.0013835	    10.255	 0.0013738	   10.2448	0.00140321	   10.2448	   35.0803	
   10.2023	0.00145716	   10.1986	0.00138853	   10.2151	 0.0013786	   10.2054	 0.0014081	   10.2054	   35.2024	
   10.1626	  0.001462	   10.1586	0.00139347	   10.1746	0.00138336	   10.1653	0.00141294	   10.1653	   35.3236	
   10.1224	0.00146682	   10.1181	 0.0013983	   10.1337	0.00138808	   10.1247	0.00141773	   10.1247	   35.4434	
   10.0819	0.00147159	   10.0772	0.00140301	   10.0924	0.00139277	   10.0839	0.00142246	   10.0839	   35.5615	
   10.0412	0.00147629	    10.036	0.00140762	    10.051	0.00139741	   10.0428	0.00142711	   10.0428	   35.6777	
   10.0001	0.00148089	   9.99421	0.00141212	   10.0091	  0.001402	   10.0011	0.00143167	   10.0011	   35.7918	
   9.95852	0.00148538	   9.95202	0.00141654	   9.96664	0.00140654	   9.95906	0.00143615	   9.95906	   35.9038	
   9.91666	0.00148975	    9.9096	0.00142089	   9.92399	0.00141101	   9.91675	0.00144055	   9.91675	   36.0137	
   9.87437	0.00149399	   9.86652	 0.0014252	   9.88093	0.00141542	   9.87394	0.00144487	   9.87394	   36.1217	
   9.83171	0.00149813	   9.82297	0.00142948	   9.83736	0.00141977	   9.83068	0.00144913	   9.83068	   36.2282	
   9.78865	0.00150219	   9.77912	0.00143376	   9.79345	0.00142405	   9.78707	0.00145333	   9.78707	   36.3333	
   9.74537	0.00150617	   9.73511	0.00143803	   9.74935	0.00142828	   9.74328	 0.0014575	   9.74328	   36.4374	
   9.70171	0.00151011	   9.69053	0.00144231	   9.70465	0.00143245	   9.69896	0.00146162	   9.69896	   36.5406	
   9.65755	0.00151403	   9.64555	0.00144657	   9.65951	0.00143657	    9.6542	0.00146572	    9.6542	   36.6431	
   9.61307	0.00151794	   9.60034	 0.0014508	   9.61412	0.00144064	   9.60918	0.00146979	   9.60918	   36.7449	
   9.56842	0.00152184	   9.55468	0.00145499	   9.56844	0.00144466	   9.56385	0.00147383	   9.56385	   36.8457	
   9.52319	0.00152575	   9.50854	 0.0014591	   9.52225	0.00144862	     9.518	0.00147782	     9.518	   36.9456	
   9.47756	0.00152964	   9.46211	0.00146314	   9.47574	0.00145251	    9.4718	0.00148176	    9.4718	   37.0441	
   9.43169	 0.0015335	   9.41556	0.00146707	   9.42906	0.00145634	   9.42544	0.00148564	   9.42544	    37.141	
   9.38517	0.00153731	   9.36844	 0.0014709	   9.38209	0.00146011	   9.37857	0.00148944	   9.37857	    37.236	
    9.3382	0.00154106	   9.32097	0.00147462	    9.3347	 0.0014638	   9.33129	0.00149316	   9.33129	    37.329	
   9.29094	0.00154472	   9.27329	0.00147824	   9.28708	0.00146742	   9.28377	0.00149679	   9.28377	   37.4198	
   9.24338	0.00154829	   9.22521	0.00148177	   9.23918	0.00147098	   9.23592	0.00150035	   9.23592	   37.5086	
    9.1953	0.00155175	   9.17669	0.00148524	   9.19081	0.00147448	    9.1876	0.00150382	    9.1876	   37.5956	
   9.14688	 0.0015551	   9.12792	0.00148865	   9.14213	0.00147794	   9.13898	0.00150723	   9.13898	   37.6808	
   9.09802	0.00155835	   9.07879	0.00149204	   9.09333	0.00148136	   9.09005	0.00151058	   9.09005	   37.7645	
   9.04861	0.00156151	   9.02937	 0.0014954	   9.04399	0.00148473	   9.04065	0.00151388	   9.04065	   37.8471	
   8.99883	 0.0015646	   8.97965	0.00149876	   8.99429	0.00148808	   8.99092	0.00151714	   8.99092	   37.9286	
   8.94889	0.00156763	   8.92979	0.00150211	   8.94443	0.00149139	   8.94104	0.00152037	   8.94104	   38.0094	
   8.89835	0.00157063	    8.8794	0.00150544	   8.89398	0.00149465	   8.89058	0.00152357	   8.89058	   38.0893	
   8.84743	 0.0015736	   8.82867	0.00150875	   8.84315	0.00149786	   8.83975	0.00152674	   8.83975	   38.1684	
   8.79632	0.00157655	   8.77777	0.00151201	   8.79213	0.00150102	   8.78874	0.00152986	   8.78874	   38.2465	
   8.74488	0.00157949	    8.7263	0.00151521	   8.74051	0.00150412	   8.73723	0.00153294	   8.73723	   38.3235	
   8.69302	0.00158239	   8.67446	0.00151834	   8.68849	0.00150715	   8.68532	0.00153596	   8.68532	   38.3991	
   8.64093	0.00158526	   8.62245	0.00152138	   8.63626	0.00151011	   8.63321	0.00153892	   8.63321	    38.473	
    8.5884	0.00158809	   8.57003	0.00152433	   8.58343	  0.001513	   8.58062	 0.0015418	   8.58062	   38.5451	
   8.53544	0.00159085	   8.51723	0.00152718	   8.53019	0.00151582	   8.52762	0.00154462	   8.52762	   38.6154	
   8.48224	0.00159355	   8.46422	0.00152993	   8.47675	0.00151858	    8.4744	0.00154736	    8.4744	   38.6839	
   8.42868	0.00159616	   8.41061	0.00153261	     8.423	0.00152129	   8.42076	0.00155002	   8.42076	   38.7505	
   8.37469	0.00159869	    8.3566	0.00153522	   8.36883	0.00152394	   8.36671	0.00155262	   8.36671	   38.8154	
   8.32044	0.00160113	   8.30241	0.00153778	   8.31445	0.00152655	   8.31243	0.00155515	   8.31243	   38.8788	
   8.26614	0.00160349	   8.24791	 0.0015403	   8.25975	 0.0015291	   8.25793	0.00155763	   8.25793	   38.9408	
   8.21138	0.00160577	   8.19302	 0.0015428	   8.20463	 0.0015316	   8.20301	0.00156006	   8.20301	   39.0014	
   8.15635	0.00160797	   8.13792	0.00154528	    8.1493	0.00153406	   8.14786	0.00156243	   8.14786	   39.0609	
   8.10125	 0.0016101	   8.08262	0.00154774	   8.09374	0.00153646	   8.09254	0.00156477	   8.09254	   39.1192	
   8.04568	0.00161218	    8.0269	0.00155017	   8.03777	0.00153881	   8.03678	0.00156705	   8.03678	   39.1763	
   7.98984	 0.0016142	   7.97079	0.00155256	   7.98158	 0.0015411	   7.98074	0.00156929	   7.98074	   39.2322	
   7.93392	0.00161619	   7.91439	0.00155491	   7.92479	0.00154333	   7.92437	0.00157148	   7.92437	    39.287	
   7.87753	0.00161814	   7.85761	0.00155719	   7.86762	0.00154551	   7.86759	0.00157361	   7.86759	   39.3403	
   7.82087	0.00162005	   7.80035	0.00155939	   7.81027	0.00154762	    7.8105	0.00157569	    7.8105	   39.3922	
   7.76414	0.00162193	   7.74284	0.00156151	   7.75294	0.00154967	    7.7533	 0.0015777	    7.7533	   39.4426	
   7.70693	0.00162378	   7.68497	0.00156352	   7.69521	0.00155167	    7.6957	0.00157966	    7.6957	   39.4914	
   7.64947	0.00162559	   7.62696	0.00156545	   7.63729	0.00155359	   7.63791	0.00158154	   7.63791	   39.5386	
   7.59175	0.00162735	   7.56842	0.00156728	   7.57919	0.00155546	   7.57979	0.00158336	   7.57979	    39.584	
   7.53359	0.00162904	   7.50957	0.00156904	   7.52072	0.00155726	   7.52129	0.00158511	   7.52129	   39.6279	
   7.47501	0.00163067	    7.4506	0.00157074	   7.46189	  0.001559	    7.4625	 0.0015868	    7.4625	   39.6701	
   7.41612	0.00163222	   7.39144	0.00157239	    7.4028	0.00156068	   7.40345	0.00158843	   7.40345	   39.7108	
   7.35685	 0.0016337	   7.33197	0.00157401	   7.34338	 0.0015623	   7.34407	   0.00159	   7.34407	   39.7501	
   7.29739	0.00163509	   7.27212	 0.0015756	   7.28383	0.00156387	   7.28445	0.00159152	   7.28445	    39.788	
   7.23756	0.00163642	     7.212	0.00157717	   7.22396	0.00156538	   7.22451	0.00159299	   7.22451	   39.8248	
   7.17739	0.00163768	   7.15163	0.00157873	   7.16379	0.00156685	   7.16427	0.00159442	   7.16427	   39.8605	
   7.11708	0.00163888	   7.09122	0.00158026	   7.10352	0.00156826	   7.10394	 0.0015958	   7.10394	    39.895	
   7.05625	0.00164003	   7.03055	0.00158176	   7.04295	0.00156964	   7.04325	0.00159714	   7.04325	   39.9285	
   6.99513	0.00164113	   6.96966	0.00158322	   6.98211	0.00157096	    6.9823	0.00159844	    6.9823	   39.9609	
   6.93373	0.00164219	   6.90854	0.00158462	   6.92101	0.00157224	    6.9211	0.00159968	    6.9211	   39.9921	
   6.87189	0.00164321	   6.84702	0.00158595	   6.85948	0.00157348	   6.85946	0.00160088	   6.85946	    40.022	
   6.80982	0.00164421	   6.78533	 0.0015872	   6.79773	0.00157465	   6.79763	0.00160202	   6.79763	   40.0505	
   6.74773	0.00164517	   6.72366	0.00158836	   6.73569	0.00157578	   6.73569	 0.0016031	   6.73569	   40.0776	
   6.68524	0.00164608	   6.66162	0.00158945	   6.67328	0.00157684	   6.67338	0.00160412	   6.67338	   40.1031	
   6.62257	0.00164695	   6.59943	0.00159046	   6.61071	0.00157784	    6.6109	0.00160508	    6.6109	    40.127	
   6.55954	0.00164776	   6.53691	0.00159141	   6.54781	0.00157877	   6.54808	0.00160598	   6.54808	   40.1495	
   6.49618	0.00164851	   6.47408	0.00159229	    6.4846	0.00157963	   6.48495	0.00160681	   6.48495	   40.1703	
   6.43271	 0.0016492	   6.41116	0.00159312	    6.4213	0.00158043	   6.42172	0.00160758	   6.42172	   40.1896	
   6.36875	0.00164982	   6.34777	 0.0015939	   6.35773	0.00158117	   6.35808	 0.0016083	   6.35808	   40.2075	
   6.30454	0.00165037	   6.28414	0.00159464	    6.2939	0.00158186	   6.29419	0.00160895	   6.29419	   40.2239	
   6.24029	0.00165084	    6.2203	0.00159533	   6.22985	0.00158249	   6.23015	0.00160955	   6.23015	   40.2389	
   6.17563	0.00165124	   6.15606	0.00159598	    6.1654	0.00158308	    6.1657	 0.0016101	    6.1657	   40.2526	
   6.11079	0.00165158	   6.09167	0.00159659	   6.10078	0.00158363	   6.10108	 0.0016106	   6.10108	    40.265	
    6.0457	0.00165185	   6.02704	0.00159716	    6.0362	0.00158413	   6.03631	0.00161105	   6.03631	   40.2762	
   5.98027	0.00165208	   5.96209	0.00159767	   5.97128	0.00158458	   5.97121	0.00161145	   5.97121	   40.2862	
   5.91474	0.00165227	   5.89706	0.00159814	   5.90625	0.00158499	   5.90602	 0.0016118	   5.90602	   40.2949	
   5.84874	 0.0016524	   5.83156	0.00159854	   5.84092	0.00158534	   5.84041	0.00161209	   5.84041	   40.3023	
   5.78251	 0.0016525	   5.76584	0.00159887	   5.77533	0.00158563	   5.77456	0.00161233	   5.77456	   40.3083	
   5.71569	0.00165255	   5.70011	0.00159913	    5.7097	0.00158587	    5.7085	0.00161252	    5.7085	   40.3129	
   5.64873	0.00165256	   5.63401	0.00159931	   5.64365	0.00158604	   5.64213	0.00161264	   5.64213	   40.3159	
   5.58164	0.00165252	   5.56775	0.00159942	   5.57742	0.00158615	    5.5756	 0.0016127	    5.5756	   40.3174	
   5.51445	0.00165243	   5.50136	0.00159946	   5.51104	 0.0015862	   5.50895	 0.0016127	   5.50895	   40.3174	
   5.44699	0.00165229	   5.43468	0.00159942	   5.44461	0.00158619	    5.4421	0.00161263	    5.4421	   40.3158	
   5.37949	0.00165208	   5.36793	0.00159932	   5.37808	0.00158613	   5.37517	0.00161251	   5.37517	   40.3127	
   5.31187	 0.0016518	   5.30102	0.00159916	   5.31106	0.00158601	   5.30798	0.00161233	   5.30798	   40.3081	
   5.24406	0.00165146	    5.2339	0.00159897	    5.2438	0.00158584	   5.24058	0.00161209	   5.24058	   40.3022	
   5.17599	0.00165104	   5.16648	0.00159873	   5.17652	0.00158562	     5.173	 0.0016118	     5.173	   40.2949	
   5.10759	0.00165055	   5.09872	0.00159847	   5.10886	0.00158535	   5.10506	0.00161146	   5.10506	   40.2865	
   5.03912	0.00165001	   5.03085	 0.0015982	   5.04105	0.00158503	   5.03701	0.00161108	   5.03701	    40.277	
   4.97038	0.00164942	    4.9625	0.00159789	   4.97293	0.00158466	    4.9686	0.00161066	    4.9686	   40.2665	
   4.90143	0.00164877	   4.89393	0.00159756	   4.90453	0.00158424	   4.89996	0.00161019	   4.89996	   40.2548	
   4.83221	0.00164809	   4.82535	0.00159719	    4.8358	0.00158376	   4.83112	0.00160968	   4.83112	    40.242	
   4.76284	0.00164737	    4.7566	0.00159677	   4.76669	0.00158323	   4.76205	0.00160912	   4.76205	   40.2281	
   4.69337	0.00164659	   4.68771	 0.0015963	   4.69744	0.00158265	   4.69284	0.00160851	   4.69284	   40.2128	
   4.62363	0.00164577	   4.61851	0.00159575	   4.62789	  0.001582	   4.62334	0.00160784	   4.62334	   40.1961	
   4.55365	 0.0016449	   4.54905	0.00159513	   4.55807	0.00158131	   4.55359	0.00160711	   4.55359	   40.1778	
   4.48368	0.00164394	   4.47956	 0.0015944	   4.48823	0.00158056	   4.48383	 0.0016063	   4.48383	   40.1575	
   4.41335	0.00164291	   4.40968	0.00159358	   4.41801	0.00157976	   4.41368	0.00160541	   4.41368	   40.1354	
   4.34271	0.00164178	   4.33966	0.00159266	   4.34764	 0.0015789	   4.34334	0.00160445	   4.34334	   40.1112	
    4.2719	0.00164057	   4.26971	0.00159165	   4.27707	0.00157799	   4.27289	 0.0016034	   4.27289	   40.0851	
   4.20087	0.00163926	   4.19947	0.00159055	   4.20623	0.00157704	   4.20219	0.00160228	   4.20219	   40.0571	
   4.12985	0.00163787	   4.12889	0.00158939	   4.13538	0.00157603	   4.13137	 0.0016011	   4.13137	   40.0274	
   4.05848	0.00163641	   4.05821	0.00158819	   4.06442	0.00157497	   4.06037	0.00159986	   4.06037	   39.9964	
     3.987	0.00163489	   3.98737	0.00158696	   3.99332	0.00157386	   3.98923	0.00159857	   3.98923	   39.9642	
   3.91536	0.00163333	   3.91631	 0.0015857	   3.92199	0.00157271	   3.91789	0.00159724	   3.91789	   39.9311	
    3.8435	0.00163175	   3.84497	0.00158443	    3.8504	 0.0015715	   3.84629	0.00159589	   3.84629	   39.8972	
   3.77165	0.00163015	    3.7736	0.00158314	   3.77878	0.00157023	   3.77468	0.00159451	   3.77468	   39.8627	
   3.69965	0.00162856	   3.70222	0.00158182	   3.70697	0.00156891	   3.70295	 0.0015931	   3.70295	   39.8274	
   3.62754	0.00162696	   3.63066	0.00158047	     3.635	0.00156753	   3.63107	0.00159165	   3.63107	   39.7913	
   3.55517	0.00162533	   3.55897	0.00157907	   3.56312	0.00156609	   3.55909	0.00159016	   3.55909	   39.7541	
   3.48257	0.00162368	     3.487	0.00157761	   3.49095	0.00156458	   3.48684	0.00158862	   3.48684	   39.7156	
      3.41	0.00162197	   3.41478	0.00157606	   3.41875	0.00156301	   3.41451	0.00158701	   3.41451	   39.6753	
   3.33709	0.00162018	   3.34219	0.00157442	   3.34615	0.00156137	   3.34181	0.00158532	   3.34181	    39.633	
    3.2641	0.00161829	   3.26946	0.00157268	   3.27342	0.00155967	   3.26899	0.00158355	   3.26899	   39.5887	
   3.19126	0.00161631	   3.19684	0.00157084	   3.20059	0.00155792	   3.19623	0.00158169	   3.19623	   39.5422	
   3.11819	0.00161421	   3.12396	0.00156891	   3.12751	0.00155611	   3.12322	0.00157975	   3.12322	   39.4937	
   3.04515	  0.001612	   3.05106	0.00156691	   3.05441	0.00155427	   3.05021	0.00157773	   3.05021	   39.4432	
   2.97177	 0.0016097	   2.97808	0.00156485	   2.98125	0.00155239	   2.97703	0.00157565	   2.97703	   39.3912	
   2.89831	0.00160732	   2.90496	0.00156276	   2.90795	0.00155047	   2.90374	0.00157352	   2.90374	   39.3379	
    2.8247	0.00160487	   2.83193	0.00156064	   2.83476	0.00154852	   2.83046	0.00157134	   2.83046	   39.2836	
    2.7509	 0.0016024	   2.75864	 0.0015585	    2.7613	0.00154651	   2.75695	0.00156914	   2.75695	   39.2284	
   2.67715	0.00159992	   2.68532	0.00155635	   2.68784	0.00154445	   2.68344	0.00156691	   2.68344	   39.1727	
   2.60328	0.00159742	   2.61183	 0.0015542	    2.6142	0.00154232	   2.60977	0.00156465	   2.60977	   39.1162	
   2.52934	0.00159491	    2.5382	0.00155204	   2.54043	0.00154011	   2.53599	0.00156235	   2.53599	   39.0588	
   2.45556	 0.0015924	   2.46467	0.00154983	   2.46678	 0.0015378	   2.46234	0.00156001	   2.46234	   39.0003	
   2.38158	0.00158985	   2.39089	0.00154757	   2.39287	0.00153541	   2.38845	0.00155761	   2.38845	   38.9404	
   2.30764	0.00158727	    2.3171	0.00154524	   2.31896	0.00153294	   2.31457	0.00155515	   2.31457	   38.8788	
   2.23376	0.00158463	   2.24313	0.00154282	   2.24489	0.00153039	   2.24059	0.00155261	   2.24059	   38.8153	
   2.15979	0.00158191	   2.16904	 0.0015403	    2.1707	0.00152777	   2.16651	0.00154999	   2.16651	   38.7498	
   2.08576	0.00157908	   2.09488	0.00153768	   2.09644	 0.0015251	   2.09236	0.00154729	   2.09236	   38.6822	
   2.01153	0.00157614	   2.02048	0.00153496	   2.02195	0.00152239	   2.01799	 0.0015445	   2.01799	   38.6124	
   1.93733	0.00157309	    1.9461	0.00153215	   1.94749	0.00151965	   1.94364	0.00154163	   1.94364	   38.5408	
   1.86281	0.00156991	   1.87138	0.00152927	   1.87269	0.00151689	   1.86896	0.00153869	   1.86896	   38.4673	
   1.78823	0.00156662	   1.79658	0.00152634	   1.79782	0.00151411	   1.79421	0.00153569	   1.79421	   38.3923	
   1.71382	0.00156324	   1.72166	0.00152337	   1.72312	0.00151131	   1.71953	0.00153264	   1.71953	    38.316	
   1.63922	0.00155979	   1.64655	0.00152038	    1.6485	0.00150846	   1.64476	0.00152954	   1.64476	   38.2386	
   1.56468	0.00155627	   1.57151	0.00151739	   1.57391	0.00150557	   1.57003	0.00152641	   1.57003	   38.1602	
   1.49012	 0.0015527	   1.49617	0.00151439	   1.49927	0.00150262	   1.49519	0.00152324	   1.49519	   38.0809	
   1.41549	0.00154911	   1.42081	0.00151139	   1.42454	 0.0014996	   1.42028	0.00152003	   1.42028	   38.0008	
   1.34102	0.00154549	   1.34535	0.00150837	   1.34967	 0.0014965	   1.34534	0.00151679	   1.34534	   37.9197	
   1.26635	0.00154185	   1.26975	0.00150533	   1.27459	0.00149335	   1.27023	0.00151351	   1.27023	   37.8377	
   1.19143	0.00153821	   1.19425	0.00150224	   1.19956	0.00149013	   1.19508	0.00151019	   1.19508	   37.7548	
   1.11642	0.00153453	   1.11868	0.00149908	   1.12443	0.00148684	   1.11984	0.00150682	   1.11984	   37.6705	
   1.04137	0.00153082	    1.0431	0.00149584	   1.04922	 0.0014835	   1.04457	0.00150339	   1.04457	   37.5847	
  0.966114	0.00152706	  0.967548	 0.0014925	     0.974	0.00148011	  0.969221	0.00149989	  0.969221	   37.4973	
  0.890716	0.00152326	   0.89186	0.00148904	  0.898602	0.00147667	  0.893726	0.00149632	  0.893726	   37.4081	
  0.815414	0.00151938	  0.816282	0.00148546	  0.823274	0.00147317	  0.818323	0.00149267	  0.818323	   37.3168	
  0.740048	0.00151544	  0.740653	0.00148177	  0.747858	0.00146962	  0.742853	0.00148894	  0.742853	   37.2236	
  0.664659	0.00151141	  0.665015	0.00147799	  0.672398	  0.001466	  0.667357	0.00148513	  0.667357	   37.1283	
  0.589289	 0.0015073	  0.589408	0.00147412	  0.596936	 0.0014623	  0.591878	0.00148124	  0.591878	    37.031	
  0.513781	 0.0015031	  0.513676	 0.0014702	  0.521608	0.00145851	  0.516355	0.00147727	  0.516355	   36.9318	
  0.438377	0.00149882	   0.43806	0.00146626	  0.446343	0.00145465	  0.440926	0.00147324	  0.440926	   36.8311	
  0.363011	0.00149447	  0.362204	 0.0014623	  0.371079	 0.0014507	  0.365431	0.00146916	  0.365431	   36.7289	
  0.287621	0.00149005	   0.28636	0.00145835	  0.295756	0.00144667	  0.289912	0.00146502	  0.289912	   36.6256	
  0.212152	0.00148558	  0.210471	0.00145441	   0.22061	0.00144259	  0.214411	0.00146086	  0.214411	   36.5214	
  0.136747	0.00148106	  0.134677	0.00145047	  0.145474	0.00143846	  0.138966	0.00145666	  0.138966	   36.4165	
  0.061438	0.00147649	 0.0590109	0.00144652	 0.0700967	0.00143429	 0.0635152	0.00145244	 0.0635152	   36.3109	
-0.0138397	 0.0014719	-0.0165944	0.00144253	-0.00527208	0.00143011	-0.0119021	0.00144818	-0.0119021	   36.2045	
 -0.089148	0.00146727	-0.0922018	0.00143848	-0.0806926	0.00142592	-0.0873474	0.00144389	-0.0873474	   36.0972	
 -0.164542	 0.0014626	  -0.16758	0.00143435	  -0.15593	0.00142172	 -0.162684	0.00143955	 -0.162684	   35.9889	
  -0.23988	 0.0014579	 -0.242901	 0.0014301	 -0.231153	0.00141751	 -0.237978	0.00143517	 -0.237978	   35.8792	
  -0.31513	0.00145314	 -0.318131	0.00142572	 -0.306326	0.00141329	 -0.313196	0.00143072	 -0.313196	   35.7679	
 -0.390453	0.00144832	 -0.393432	0.00142122	 -0.381607	0.00140903	 -0.388497	0.00142619	 -0.388497	   35.6547	
 -0.465806	0.00144342	 -0.468761	0.00141659	  -0.45695	0.00140471	 -0.463839	0.00142158	 -0.463839	   35.5394	
 -0.541147	0.00143845	 -0.543886	0.00141185	  -0.53231	0.00140033	 -0.539114	0.00141688	 -0.539114	   35.4219	
 -0.616343	 0.0014334	 -0.619168	0.00140703	 -0.607841	0.00139585	 -0.614451	0.00141209	 -0.614451	   35.3023	
 -0.691463	0.00142827	 -0.694363	0.00140216	 -0.683298	0.00139127	 -0.689708	0.00140723	 -0.689708	   35.1808	
 -0.766861	0.00142308	 -0.769538	0.00139726	 -0.758743	0.00138657	 -0.765047	 0.0014023	 -0.765047	   35.0576	
 -0.842283	0.00141782	 -0.844752	0.00139237	 -0.834237	0.00138177	 -0.840424	0.00139732	 -0.840424	    34.933	
 -0.917498	 0.0014125	 -0.919774	 0.0013875	 -0.909544	0.00137687	 -0.915605	0.00139229	 -0.915605	   34.8073	
  -0.99258	0.00140714	 -0.994965	0.00138265	 -0.984737	0.00137188	 -0.990761	0.00138722	 -0.990761	   34.6806	
   -1.0676	0.00140175	  -1.07008	0.00137781	  -1.05988	0.00136681	  -1.06586	0.00138212	  -1.06586	    34.553	
  -1.14262	0.00139632	  -1.14519	0.00137295	  -1.13505	0.00136169	  -1.14095	0.00137699	  -1.14095	   34.4246	
   -1.2177	0.00139085	  -1.22035	0.00136806	  -1.21029	0.00135653	  -1.21611	0.00137181	  -1.21611	   34.2954	
   -1.2926	0.00138535	  -1.29533	0.00136311	  -1.28536	0.00135135	   -1.2911	 0.0013666	   -1.2911	    34.165	
  -1.36731	0.00137979	  -1.37048	0.00135806	  -1.36044	0.00134617	  -1.36608	0.00136134	  -1.36608	   34.0335	
  -1.44199	0.00137419	  -1.44557	0.00135288	  -1.43549	0.00134099	  -1.44101	0.00135602	  -1.44101	   33.9005	
   -1.5166	0.00136851	  -1.52036	0.00134759	  -1.51027	 0.0013358	  -1.51575	0.00135063	  -1.51575	   33.7659	
  -1.59132	0.00136276	  -1.59524	0.00134216	  -1.58516	0.00133062	  -1.59058	0.00134518	  -1.59058	   33.6295	
   -1.6659	0.00135694	  -1.66996	0.00133661	  -1.65993	0.00132543	  -1.66526	0.00133966	  -1.66526	   33.4914	
  -1.74071	0.00135103	  -1.74489	0.00133097	  -1.73492	 0.0013202	  -1.74017	0.00133407	  -1.74017	   33.3516	
  -1.81549	0.00134504	  -1.81978	0.00132525	   -1.8099	0.00131493	  -1.81506	0.00132841	  -1.81506	   33.2102	
  -1.89002	0.00133899	   -1.8944	0.00131948	  -1.88482	0.00130959	  -1.88975	0.00132268	  -1.88975	   33.0671	
  -1.96467	0.00133287	  -1.96913	0.00131369	  -1.95985	0.00130415	  -1.96455	 0.0013169	  -1.96455	   32.9226	
  -2.03921	 0.0013267	  -2.04373	0.00130789	  -2.03475	0.00129861	  -2.03923	0.00131107	  -2.03923	   32.7767	
   -2.1134	0.00132049	  -2.11797	0.00130209	  -2.10988	0.00129295	  -2.11375	0.00130518	  -2.11375	   32.6294	
  -2.18764	0.00131425	  -2.19205	0.00129628	  -2.18478	0.00128716	  -2.18816	0.00129923	  -2.18816	   32.4808	
  -2.26168	0.00130798	  -2.26594	0.00129047	  -2.25946	0.00128125	  -2.26236	0.00129323	  -2.26236	   32.3308	
  -2.33571	0.00130169	  -2.34001	0.00128463	  -2.33407	0.00127523	   -2.3366	0.00128718	   -2.3366	   32.1795	
  -2.40968	0.00129536	  -2.41402	0.00127873	   -2.4086	0.00126911	  -2.41076	0.00128107	  -2.41076	   32.0267	
  -2.48338	  0.001289	  -2.48793	0.00127278	  -2.48281	0.00126292	  -2.48471	 0.0012749	  -2.48471	   31.8725	
  -2.55688	0.00128259	  -2.56192	0.00126675	  -2.55709	0.00125668	  -2.55863	0.00126867	  -2.55863	   31.7168	
  -2.63028	0.00127612	  -2.63575	 0.0012606	   -2.6312	0.00125042	  -2.63241	0.00126238	  -2.63241	   31.5595	
  -2.70355	0.00126959	  -2.70921	0.00125435	  -2.70492	0.00124416	  -2.70589	0.00125603	  -2.70589	   31.4008	
  -2.77685	0.00126299	  -2.78268	0.00124798	  -2.77836	0.00123791	  -2.77929	0.00124962	  -2.77929	   31.2406	
  -2.84996	 0.0012563	  -2.85593	0.00124151	  -2.85159	 0.0012317	  -2.85249	0.00124317	  -2.85249	   31.0793	
  -2.92296	0.00124953	  -2.92906	0.00123494	  -2.92499	0.00122554	  -2.92567	0.00123667	  -2.92567	   30.9168	
  -2.99592	0.00124269	  -3.00212	0.00122829	  -2.99831	0.00121941	  -2.99878	0.00123013	  -2.99878	   30.7532	
  -3.06863	0.00123578	   -3.0749	0.00122159	  -3.07163	0.00121327	  -3.07172	0.00122354	  -3.07172	   30.5886	
  -3.14126	0.00122879	  -3.14759	0.00121485	  -3.14502	0.00120709	  -3.14462	0.00121691	  -3.14462	   30.4228	
  -3.21379	0.00122176	  -3.22016	0.00120808	  -3.21823	0.00120085	  -3.21739	0.00121023	  -3.21739	   30.2558	
   -3.2862	0.00121466	  -3.29259	0.00120131	  -3.29126	0.00119447	  -3.29001	0.00120348	  -3.29001	    30.087	
  -3.35866	0.00120749	  -3.36505	0.00119453	  -3.36399	0.00118794	  -3.36257	0.00119665	  -3.36257	   29.9163	
  -3.43095	0.00120025	  -3.43733	0.00118774	  -3.43593	0.00118123	  -3.43474	0.00118974	  -3.43474	   29.7436	
  -3.50304	0.00119298	   -3.5096	0.00118094	  -3.50674	0.00117434	  -3.50646	0.00118275	  -3.50646	   29.5688	
  -3.57513	0.00118565	  -3.58154	0.00117411	  -3.57706	0.00116729	  -3.57791	0.00117568	  -3.57791	   29.3921	
  -3.64699	0.00117828	  -3.65326	0.00116724	  -3.64766	0.00116011	   -3.6493	0.00116854	   -3.6493	   29.2136	
    -3.719	 0.0011709	  -3.72511	 0.0011603	  -3.71763	0.00115283	  -3.72058	0.00116134	  -3.72058	   29.0335	
  -3.79091	0.00116352	  -3.79687	0.00115327	  -3.78673	0.00114549	  -3.79151	0.00115409	  -3.79151	   28.8523	
  -3.86253	0.00115614	  -3.86834	0.00114615	  -3.85605	0.00113815	   -3.8623	0.00114681	   -3.8623	   28.6703	
  -3.93403	0.00114877	  -3.93988	0.00113892	  -3.92661	0.00113087	  -3.93351	0.00113952	  -3.93351	    28.488	
  -4.00541	0.00114141	  -4.01128	0.00113159	  -3.99743	0.00112366	  -4.00471	0.00113222	  -4.00471	   28.3055	
  -4.07645	0.00113404	  -4.08233	0.00112416	   -4.0674	0.00111656	  -4.07539	0.00112492	  -4.07539	    28.123	
  -4.14754	0.00112665	  -4.15313	0.00111666	  -4.13783	0.00110956	  -4.14616	0.00111762	  -4.14616	   27.9406	
  -4.21845	0.00111922	  -4.22377	 0.0011091	  -4.20932	0.00110265	  -4.21718	0.00111032	  -4.21718	    27.758	
  -4.28899	0.00111172	  -4.29423	0.00110149	  -4.28118	0.00109579	  -4.28813	  0.001103	  -4.28813	    27.575	
  -4.35955	0.00110411	  -4.36441	0.00109387	   -4.3527	0.00108893	  -4.35889	0.00109564	  -4.35889	   27.3909	
  -4.42991	0.00109638	  -4.43442	0.00108624	  -4.42434	0.00108202	  -4.42956	0.00108821	  -4.42956	   27.2053	
  -4.49986	 0.0010885	  -4.50404	0.00107861	  -4.49665	  0.001075	  -4.50019	 0.0010807	  -4.50019	   27.0176	
  -4.56981	0.00108048	  -4.57368	0.00107098	  -4.56897	0.00106783	  -4.57082	 0.0010731	  -4.57082	   26.8275	
  -4.63954	0.00107232	  -4.64311	0.00106336	  -4.64032	0.00106049	  -4.64099	0.00106539	  -4.64099	   26.6347	
  -4.70885	0.00106402	  -4.71233	0.00105571	   -4.7115	0.00105296	  -4.71089	0.00105756	  -4.71089	   26.4391	
  -4.77814	0.00105563	  -4.78153	0.00104804	   -4.7828	0.00104523	  -4.78082	0.00104963	  -4.78082	   26.2408	
   -4.8472	0.00104718	  -4.85051	0.00104031	  -4.85371	0.00103734	  -4.85047	0.00104161	  -4.85047	   26.0402	
  -4.91583	 0.0010387	  -4.91935	 0.0010325	  -4.92402	0.00102932	  -4.91973	0.00103351	  -4.91973	   25.8377	
  -4.98416	0.00103023	  -4.98815	 0.0010246	  -4.99359	0.00102123	  -4.98863	0.00102536	  -4.98863	   25.6339	
  -5.05227	 0.0010218	   -5.0567	0.00101661	  -5.06282	0.00101311	  -5.05726	0.00101717	  -5.05726	   25.4293	
  -5.12028	 0.0010134	  -5.12509	0.00100851	  -5.13153	0.00100502	  -5.12563	0.00100898	  -5.12563	   25.2244	
  -5.18807	0.00100506	  -5.19304	0.00100032	  -5.19957	0.000996979	  -5.19356	0.00100079	  -5.19356	   25.0196	
  -5.25565	0.000996742	  -5.26075	0.000992054	  -5.26704	0.000989015	  -5.26115	0.000992604	  -5.26115	   24.8151	
  -5.32283	0.000988436	  -5.32823	0.000983738	  -5.33467	0.000981126	  -5.32858	0.000984433	  -5.32858	   24.6108	
  -5.39001	0.000980106	  -5.39539	0.000975394	  -5.40222	0.000973294	  -5.39587	0.000976265	  -5.39587	   24.4066	
  -5.45698	0.000971718	  -5.46234	0.000967048	  -5.46912	0.000965486	  -5.46281	0.000968084	  -5.46281	   24.2021	
  -5.52355	0.000963246	  -5.52888	0.000958714	   -5.5356	0.000957665	  -5.52934	0.000959875	  -5.52934	   23.9969	
  -5.59014	0.000954666	  -5.59523	 0.0009504	  -5.60225	0.000949783	  -5.59587	0.000951616	  -5.59587	   23.7904	
  -5.65653	0.000945963	  -5.66139	0.000942102	  -5.66867	0.000941804	  -5.66219	0.00094329	  -5.66219	   23.5822	
  -5.72253	0.000937136	  -5.72718	0.000933814	  -5.73466	0.000933697	  -5.72812	0.000934882	  -5.72812	   23.3721	
  -5.78837	0.000928198	   -5.7928	0.000925516	  -5.80045	0.000925441	  -5.79388	0.000926385	  -5.79388	   23.1596	
  -5.85404	0.000919163	  -5.85827	0.000917189	  -5.86605	0.000917038	  -5.85945	0.000917797	  -5.85945	   22.9449	
  -5.91936	0.000910057	   -5.9234	0.000908808	  -5.93164	 0.0009085	   -5.9248	0.000909121	   -5.9248	    22.728	
  -5.98473	0.000900907	  -5.98858	0.00090035	  -5.99666	0.000899854	  -5.98999	0.00090037	  -5.98999	   22.5093	
  -6.04995	0.000891741	  -6.05363	0.000891797	  -6.06151	0.000891134	  -6.05503	0.000891557	  -6.05503	   22.2889	
  -6.11483	0.000882578	  -6.11834	0.000883142	  -6.12631	0.000882379	  -6.11983	 0.0008827	  -6.11983	   22.0675	
  -6.17939	0.000873433	  -6.18274	0.000874386	  -6.19115	0.000873629	  -6.18442	0.000873816	  -6.18442	   21.8454	
  -6.24384	0.000864305	  -6.24703	0.000865553	  -6.25553	0.000864907	   -6.2488	0.000864922	   -6.2488	    21.623	
  -6.30799	0.000855185	  -6.31104	0.000856654	  -6.31959	0.000856238	  -6.31288	0.000856026	  -6.31288	   21.4006	
  -6.37168	0.000846062	  -6.37459	0.000847708	  -6.38344	0.000847631	  -6.37657	0.000847134	  -6.37657	   21.1783	
  -6.43531	0.000836918	   -6.4379	0.00083874	  -6.44719	0.000839074	  -6.44013	0.000838244	  -6.44013	   20.9561	
   -6.4987	0.000827727	  -6.50098	0.000829768	  -6.51066	0.000830546	  -6.50345	0.000829347	  -6.50345	   20.7337	
  -6.56167	0.000818471	  -6.56368	0.00082081	  -6.57367	0.000822019	  -6.56634	0.000820433	  -6.56634	   20.5108	
  -6.62445	0.000809132	   -6.6262	0.000811865	  -6.63645	0.000813458	  -6.62904	0.000811485	  -6.62904	   20.2871	
  -6.68677	0.000799699	  -6.68857	0.000802936	  -6.69902	0.000804826	  -6.69145	0.000802487	  -6.69145	   20.0622	
  -6.74875	0.000790171	  -6.75061	0.000794018	   -6.7612	0.000796088	  -6.75352	0.000793426	  -6.75352	   19.8356	
  -6.81053	0.000780555	  -6.81243	0.000785091	  -6.82313	0.000787225	  -6.81536	0.00078429	  -6.81536	   19.6073	
  -6.87222	0.000770863	  -6.87416	0.000776131	  -6.88491	0.000778222	   -6.8771	0.000775072	   -6.8771	   19.3768	
  -6.93364	0.000761112	  -6.93562	0.000767124	  -6.94639	0.000769085	  -6.93855	0.000765774	  -6.93855	   19.1443	
  -6.99462	0.000751327	  -6.99682	0.000758056	  -7.00738	0.000759831	  -6.99961	0.000756404	  -6.99961	   18.9101	
  -7.05558	0.00074153	  -7.05799	0.000748907	  -7.06832	0.00075048	  -7.06063	0.000746973	  -7.06063	   18.6743	
  -7.11635	0.000731737	  -7.11894	0.000739682	  -7.12902	0.00074108	  -7.12144	 0.0007375	  -7.12144	   18.4375	
  -7.17674	0.000721963	  -7.17951	0.000730386	  -7.18933	0.000731666	  -7.18186	0.000728005	  -7.18186	   18.2001	
  -7.23718	0.000712211	  -7.23982	0.000721028	  -7.24936	0.000722267	  -7.24212	0.000718502	  -7.24212	   17.9625	
  -7.29749	0.000702475	  -7.29981	0.000711622	  -7.30925	0.000712907	  -7.30218	0.000709001	  -7.30218	    17.725	
  -7.35748	0.000692744	  -7.35951	0.000702182	  -7.36883	0.000703604	  -7.36194	0.00069951	  -7.36194	   17.4878	
   -7.4172	  0.000683	  -7.41876	0.000692726	  -7.42813	0.000694351	  -7.42136	0.000690026	  -7.42136	   17.2506	
  -7.47628	0.000673218	  -7.47799	0.000683265	  -7.48738	0.000685123	  -7.48055	0.000680535	  -7.48055	   17.0134	
  -7.53518	0.000663378	  -7.53703	0.00067381	   -7.5464	0.000675902	  -7.53954	0.00067103	  -7.53954	   16.7757	
  -7.59373	0.000653464	   -7.5957	0.000664368	  -7.60502	0.000666659	  -7.59815	0.000661497	  -7.59815	   16.5374	
  -7.65197	0.000643465	  -7.65406	0.000654933	  -7.66368	0.000657351	  -7.65657	0.000651916	  -7.65657	   16.2979	
  -7.71012	0.000633379	  -7.71232	0.000645495	   -7.7222	0.000647944	  -7.71488	0.000642273	  -7.71488	   16.0568	
  -7.76803	0.000623213	  -7.77033	0.000636041	   -7.7804	0.000638423	  -7.77292	0.000632559	  -7.77292	    15.814	
  -7.82553	0.000612979	  -7.82791	0.000626556	  -7.83814	0.000628776	  -7.83053	0.00062277	  -7.83053	   15.5693	
  -7.88248	0.000602695	  -7.88523	0.000617024	  -7.89584	0.000619002	  -7.88785	0.000612907	  -7.88785	   15.3227	
  -7.93931	0.000592384	   -7.9424	0.000607436	  -7.95333	0.000609127	  -7.94502	0.000602982	  -7.94502	   15.0746	
  -7.99588	0.000582066	  -7.99927	0.000597783	  -8.01047	0.000599183	  -8.00187	0.00059301	  -8.00187	   14.8253	
  -8.05202	0.000571757	  -8.05569	0.000588064	  -8.06708	0.000589201	  -8.05826	0.000583008	  -8.05826	   14.5752	
   -8.1076	0.000561468	  -8.11152	0.000578288	  -8.12335	0.000579221	  -8.11415	0.000572992	  -8.11415	   14.3248	
  -8.16306	 0.0005512	  -8.16721	0.000568463	   -8.1794	0.000569278	  -8.16989	0.00056298	  -8.16989	   14.0745	
  -8.21825	0.000540947	   -8.2226	 0.0005586	  -8.23508	0.000559389	  -8.22531	0.000552979	  -8.22531	   13.8245	
  -8.27302	0.000530693	  -8.27754	0.000548715	  -8.29025	0.000549558	  -8.28027	0.000542989	  -8.28027	   13.5747	
  -8.32753	0.000520424	   -8.3322	0.000538822	  -8.34537	0.000539786	  -8.33503	0.000533011	  -8.33503	   13.3253	
  -8.38191	0.000510122	  -8.38652	0.000528931	  -8.40007	0.000530054	   -8.3895	0.000523035	   -8.3895	   13.0759	
    -8.436	0.000499768	  -8.44056	0.000519046	  -8.45441	0.000520327	  -8.44366	0.000513047	  -8.44366	   12.8262	
  -8.48968	0.000489353	  -8.49417	0.000509174	  -8.50825	0.000510571	  -8.49737	0.000503033	  -8.49737	   12.5758	
   -8.5428	0.000478869	  -8.54722	0.000499306	  -8.56186	0.00050075	  -8.55063	0.000492975	  -8.55063	   12.3244	
  -8.59583	0.000468318	  -8.60017	0.000489429	  -8.61498	0.000490837	  -8.60366	0.000482861	  -8.60366	   12.0715	
   -8.6486	0.000457709	  -8.65287	0.000479529	  -8.66779	0.000480817	  -8.65642	0.000472685	  -8.65642	   11.8171	
  -8.70098	0.000447054	  -8.70518	0.000469573	  -8.72015	0.000470683	  -8.70877	0.000462437	  -8.70877	   11.5609	
  -8.75284	0.000436372	  -8.75715	0.000459524	  -8.77193	0.000460444	  -8.76064	0.000452113	  -8.76064	   11.3028	
  -8.80463	0.000425678	  -8.80846	0.000449387	  -8.82359	0.000450124	  -8.81223	0.00044173	  -8.81223	   11.0432	
  -8.85621	0.000414983	  -8.85959	0.000439185	  -8.87499	0.000439755	   -8.8636	0.000431307	   -8.8636	   10.7827	
  -8.90742	0.000404294	  -8.91039	0.000428916	  -8.92599	0.000429359	   -8.9146	0.000420857	   -8.9146	   10.5214	
  -8.95815	0.000393614	  -8.96073	0.000418615	  -8.97647	0.000418975	  -8.96512	0.000410401	  -8.96512	     10.26	
  -9.00828	0.000382946	  -9.01079	0.00040832	  -9.02659	0.000408638	  -9.01522	0.000399968	  -9.01522	    9.9992	
  -9.05769	0.000372281	  -9.06042	0.000398059	  -9.07624	0.000398353	  -9.06478	0.000389564	  -9.06478	   9.73911	
  -9.10687	0.000361612	   -9.1098	0.000387855	  -9.12558	0.000388133	  -9.11409	 0.0003792	  -9.11409	      9.48	
   -9.1557	0.000350932	  -9.15881	0.000377728	   -9.1745	0.00037799	    -9.163	0.000368883	    -9.163	   9.22209	
  -9.20404	0.000340233	  -9.20731	0.000367687	  -9.22287	0.000367904	  -9.21141	0.000358608	  -9.21141	    8.9652	
  -9.25207	0.00032951	  -9.25549	0.000357717	  -9.27088	0.000357848	  -9.25948	0.000348358	  -9.25948	   8.70896	
  -9.29997	0.000318762	  -9.30313	0.000347803	  -9.31869	0.000347801	  -9.30727	0.000338122	  -9.30727	   8.45305	
  -9.34759	0.000307991	  -9.35051	0.000337917	  -9.36619	0.000337738	  -9.35476	0.000327882	  -9.35476	   8.19705	
  -9.39482	0.000297206	  -9.39751	0.000328005	  -9.41324	0.000327621	  -9.40186	0.000317611	  -9.40186	   7.94027	
  -9.44153	0.000286414	  -9.44402	0.000318012	  -9.46002	0.000317426	  -9.44852	0.000307284	  -9.44852	    7.6821	
  -9.48782	0.000275622	  -9.48992	0.00030791	  -9.50652	0.000307156	  -9.49475	0.000296896	  -9.49475	    7.4224	
  -9.53368	0.000264837	  -9.53542	0.000297669	   -9.5528	0.000296801	  -9.54063	0.000286436	  -9.54063	   7.16089	
  -9.57928	0.000254061	  -9.58069	0.000287275	  -9.59874	0.000286356	  -9.58624	0.000275897	  -9.58624	   6.89743	
  -9.62451	0.000243293	  -9.62562	0.000276738	  -9.64422	0.000275839	  -9.63145	0.00026529	  -9.63145	   6.63225	
  -9.66926	0.000232527	   -9.6701	0.000266076	  -9.68914	0.000265265	  -9.67617	0.000254623	  -9.67617	   6.36557	
  -9.71363	0.000221751	  -9.71421	0.000255326	   -9.7336	0.00025465	  -9.72048	0.000243909	  -9.72048	   6.09773	
   -9.7573	0.000210956	  -9.75823	0.000244538	   -9.7776	0.000244019	  -9.76438	0.000233171	  -9.76438	   5.82927	
   -9.8006	0.000200124	  -9.80204	0.000233773	  -9.82133	0.000233393	  -9.80799	0.00022243	  -9.80799	   5.56075	
   -9.8436	0.000189241	  -9.84551	0.000223073	  -9.86466	0.000222783	  -9.85126	0.000211699	  -9.85126	   5.29247	
   -9.8862	0.000178301	  -9.88855	0.000212477	  -9.90751	0.000212199	  -9.89408	0.000200992	  -9.89408	   5.02481	
   -9.9283	0.000167304	  -9.93105	0.000202007	  -9.94977	0.000201654	  -9.93637	0.000190322	  -9.93637	   4.75804	
     -9.97	0.000156248	  -9.97332	0.000191661	  -9.99156	0.00019114	  -9.97829	0.000179683	  -9.97829	   4.49207	
  -10.0116	0.000145149	  -10.0151	 0.0001814	  -10.0332	0.000180645	    -10.02	0.000169065	    -10.02	   4.22662	
  -10.0529	0.000134027	  -10.0567	0.000171197	  -10.0745	0.000170166	  -10.0614	0.000158463	  -10.0614	   3.96158	
   -10.094	0.000122904	  -10.0979	0.000161004	  -10.1154	0.00015969	  -10.1024	0.000147866	  -10.1024	   3.69665	
  -10.1346	0.000111803	  -10.1387	0.000150782	  -10.1558	 0.0001492	   -10.143	0.000137262	   -10.143	   3.43154	
  -10.1746	0.00010075	  -10.1789	0.000140487	  -10.1957	0.000138688	  -10.1831	0.000126642	  -10.1831	   3.16605	
  -10.2144	8.97573e-05	  -10.2184	0.000130094	  -10.2352	0.00012815	  -10.2227	0.000116001	  -10.2227	   2.90001	
  -10.2536	7.88321e-05	  -10.2577	0.000119602	  -10.2745	0.000117578	  -10.2619	0.000105337	  -10.2619	   2.63343	
  -10.2924	6.79762e-05	  -10.2968	0.000109014	  -10.3135	0.000106973	  -10.3009	9.46541e-05	  -10.3009	   2.36635	
  -10.3308	5.7174e-05	  -10.3355	9.83538e-05	  -10.3522	9.63445e-05	  -10.3395	8.39574e-05	  -10.3395	   2.09894	
  -10.3689	4.64033e-05	  -10.3738	8.76537e-05	  -10.3904	8.56989e-05	  -10.3777	7.3252e-05	  -10.3777	    1.8313	
  -10.4065	3.56377e-05	  -10.4116	7.69451e-05	  -10.4281	7.50454e-05	  -10.4154	6.25427e-05	  -10.4154	   1.56357	
  -10.4435	2.48493e-05	  -10.4489	6.6262e-05	  -10.4654	6.44009e-05	  -10.4526	5.18374e-05	  -10.4526	   1.29593	
  -10.4804	1.40122e-05	  -10.4859	5.56365e-05	  -10.5026	5.37756e-05	  -10.4896	4.11414e-05	  -10.4896	   1.02854	
  -10.5168	3.10565e-06	  -10.5224	4.50894e-05	  -10.5393	4.31743e-05	  -10.5262	3.04565e-05	  -10.5262	  0.761412	
  -10.5524	-7.88099e-06	  -10.5587	3.46208e-05	  -10.5757	3.26011e-05	  -10.5623	1.97803e-05	  -10.5623	  0.494507	
  -10.5875	-1.8951e-05	  -10.5947	2.42106e-05	  -10.6117	2.20576e-05	   -10.598	9.10574e-06	   -10.598	  0.227644	
  -10.6224	-3.00931e-05	  -10.6303	1.38364e-05	  -10.6473	1.15363e-05	  -10.6333	-1.57346e-06	  -10.6333	-0.0393366	
  -10.6568	-4.12887e-05	  -10.6654	3.46671e-06	  -10.6823	1.03316e-06	  -10.6681	-1.22629e-05	  -10.6681	 -0.306573	
  -10.6907	-5.25136e-05	  -10.6999	-6.93328e-06	  -10.7166	-9.45709e-06	  -10.7024	-2.2968e-05	  -10.7024	   -0.5742	
  -10.7243	-6.37379e-05	  -10.7338	-1.73972e-05	  -10.7508	-1.99483e-05	  -10.7363	-3.36945e-05	  -10.7363	 -0.842362	
  -10.7575	-7.49297e-05	   -10.767	-2.79523e-05	  -10.7844	-3.04475e-05	  -10.7696	-4.44432e-05	  -10.7696	  -1.11108	
  -10.7902	-8.60635e-05	  -10.7997	-3.86101e-05	  -10.8176	-4.09605e-05	  -10.8025	-5.52113e-05	  -10.8025	  -1.38028	
  -10.8228	-9.71263e-05	  -10.8322	-4.9373e-05	  -10.8502	-5.14911e-05	  -10.8351	-6.59968e-05	  -10.8351	  -1.64992	
   -10.855	-0.000108112	  -10.8644	-6.0223e-05	  -10.8825	-6.20426e-05	  -10.8673	-7.67927e-05	  -10.8673	  -1.91982	
   -10.887	-0.000119026	  -10.8962	-7.11339e-05	  -10.9143	-7.26101e-05	  -10.8992	-8.75899e-05	  -10.8992	  -2.18975	
  -10.9185	-0.000129883	  -10.9276	-8.20703e-05	  -10.9457	-8.31858e-05	  -10.9306	-9.83797e-05	  -10.9306	  -2.45949	
  -10.9495	-0.000140707	  -10.9585	-9.29852e-05	  -10.9765	-9.37623e-05	  -10.9615	-0.000109152	  -10.9615	  -2.72879	
    -10.98	-0.000151522	  -10.9889	-0.000103833	  -11.0066	-0.000104332	  -10.9918	-0.000119896	  -10.9918	  -2.99739	
    -11.01	-0.000162357	  -11.0188	-0.000114576	  -11.0362	-0.000114884	  -11.0217	-0.000130606	  -11.0217	  -3.26514	
  -11.0397	-0.000173235	  -11.0481	-0.000125192	  -11.0653	-0.000125415	  -11.0511	-0.00014128	  -11.0511	  -3.53201	
  -11.0689	-0.000184169	  -11.0771	-0.000135671	  -11.0941	-0.000135917	    -11.08	-0.000151919	    -11.08	  -3.79798	
  -11.0977	-0.000195166	  -11.1056	-0.000146022	  -11.1227	-0.00014639	  -11.1086	-0.000162526	  -11.1086	  -4.06315	
  -11.1261	-0.00020622	  -11.1338	-0.000156272	  -11.1509	-0.000156836	  -11.1369	-0.000173109	  -11.1369	  -4.32774	
  -11.1543	-0.000217317	  -11.1617	-0.00016646	  -11.1788	-0.000167262	   -11.165	-0.00018368	   -11.165	  -4.59199	
  -11.1821	-0.000228433	  -11.1893	-0.000176636	  -11.2063	-0.000177676	  -11.1926	-0.000194248	  -11.1926	   -4.8562	
  -11.2095	-0.000239542	  -11.2165	-0.000186849	  -11.2333	-0.000188086	  -11.2198	-0.000204826	  -11.2198	  -5.12064	
  -11.2364	-0.000250615	  -11.2432	-0.000197142	  -11.2598	-0.0001985	  -11.2465	-0.000215419	  -11.2465	  -5.38548	
  -11.2628	-0.000261624	  -11.2693	-0.000207549	  -11.2857	-0.000208925	  -11.2726	-0.000226033	  -11.2726	  -5.65082	
  -11.2887	-0.000272553	   -11.295	-0.000218084	  -11.3111	-0.000219361	  -11.2982	-0.000236666	  -11.2982	  -5.91665	
  -11.3139	-0.000283371	    -11.32	-0.000228746	   -11.336	-0.000229806	  -11.3233	-0.000247308	  -11.3233	   -6.1827	
  -11.3388	-0.000294075	  -11.3447	-0.000239512	  -11.3605	-0.000240254	   -11.348	-0.000257947	   -11.348	  -6.44867	
   -11.363	-0.000304671	  -11.3689	-0.00025034	  -11.3845	-0.000250698	  -11.3722	-0.00026857	  -11.3722	  -6.71425	
  -11.3869	-0.00031519	  -11.3927	-0.000261183	  -11.4081	-0.000261128	  -11.3959	-0.000279167	  -11.3959	  -6.97917	
  -11.4103	-0.00032566	  -11.4159	-0.000271979	  -11.4313	-0.000271535	  -11.4192	-0.000289725	  -11.4192	  -7.24311	
  -11.4333	-0.000336122	  -11.4387	-0.000282679	  -11.4542	-0.000281908	  -11.4421	-0.000300237	  -11.4421	  -7.50592	
   -11.456	-0.000346626	  -11.4612	-0.000293241	  -11.4768	-0.000292244	  -11.4647	-0.000310704	  -11.4647	  -7.76759	
  -11.4779	-0.000357198	  -11.4834	-0.000303641	  -11.4991	-0.000302537	  -11.4868	-0.000321125	  -11.4868	  -8.02814	
  -11.4989	-0.000367857	  -11.5053	-0.000313879	   -11.521	-0.000312792	  -11.5084	-0.000331509	  -11.5084	  -8.28773	
  -11.5191	-0.000378611	  -11.5269	-0.000323972	  -11.5425	-0.000323013	  -11.5295	-0.000341865	  -11.5295	  -8.54663	
  -11.5384	-0.000389443	   -11.548	-0.000333958	  -11.5636	-0.000333207	    -11.55	-0.000352202	    -11.55	  -8.80506	
  -11.5572	-0.000400341	  -11.5687	-0.000343887	  -11.5841	-0.000343384	    -11.57	-0.000362537	    -11.57	  -9.06343	
  -11.5752	-0.000411276	   -11.589	-0.00035382	  -11.6042	-0.000353553	  -11.5894	-0.000372883	  -11.5894	  -9.32207	
  -11.5923	-0.00042221	  -11.6087	-0.000363812	  -11.6237	-0.000363719	  -11.6082	-0.000383247	  -11.6082	  -9.58118	
  -11.6089	-0.000433106	  -11.6279	-0.000373908	  -11.6427	-0.000373887	  -11.6265	-0.000393634	  -11.6265	  -9.84085	
  -11.6257	-0.000443924	  -11.6466	-0.00038414	  -11.6611	-0.000384056	  -11.6445	-0.00040404	  -11.6445	   -10.101	
  -11.6425	-0.000454645	  -11.6648	-0.000394515	  -11.6789	-0.000394223	  -11.6621	-0.000414461	  -11.6621	  -10.3615	
  -11.6584	-0.000465249	  -11.6824	-0.00040501	  -11.6962	-0.000404383	   -11.679	-0.000424881	   -11.679	   -10.622	
  -11.6738	-0.000475733	  -11.6994	-0.000415588	  -11.7129	-0.000414527	  -11.6954	-0.000435283	  -11.6954	  -10.8821	
  -11.6895	-0.000486107	  -11.7158	-0.000426195	  -11.7289	-0.000424644	  -11.7114	-0.000445649	  -11.7114	  -11.1412	
  -11.7053	-0.000496378	  -11.7317	-0.000436765	  -11.7444	-0.000434728	  -11.7271	-0.000455957	  -11.7271	  -11.3989	
  -11.7206	-0.000506572	   -11.747	-0.000447239	  -11.7593	-0.000444774	  -11.7423	-0.000466195	  -11.7423	  -11.6549	
  -11.7359	-0.000516712	  -11.7617	-0.000457564	  -11.7736	-0.000454778	  -11.7571	-0.000476352	  -11.7571	  -11.9088	
  -11.7513	-0.000526817	  -11.7758	-0.000467708	  -11.7876	-0.00046474	  -11.7715	-0.000486422	  -11.7715	  -12.1605	
  -11.7666	-0.000536906	  -11.7893	-0.000477662	  -11.8009	-0.000474664	  -11.7856	-0.000496411	  -11.7856	  -12.4103	
  -11.7813	-0.000546992	  -11.8025	-0.000487439	  -11.8137	-0.000484556	  -11.7992	-0.000506329	  -11.7992	  -12.6582	
  -11.7959	-0.000557084	  -11.8151	-0.000497071	  -11.8258	-0.000494425	  -11.8123	-0.000516194	  -11.8123	  -12.9048	
  -11.8104	-0.000567181	  -11.8272	-0.000506611	  -11.8374	-0.000504279	   -11.825	-0.000526024	   -11.825	  -13.1506	
  -11.8247	-0.000577279	  -11.8388	-0.00051612	  -11.8484	-0.000514125	  -11.8373	-0.000535841	  -11.8373	   -13.396	
  -11.8388	-0.000587366	  -11.8499	-0.00052566	  -11.8591	-0.000523967	  -11.8493	-0.000545664	  -11.8493	  -13.6416	
  -11.8525	-0.000597432	  -11.8604	-0.000535282	  -11.8692	-0.000533811	  -11.8607	-0.000555508	  -11.8607	  -13.8877	
  -11.8659	-0.000607468	  -11.8703	-0.000545022	  -11.8788	-0.000543654	  -11.8717	-0.000565382	  -11.8717	  -14.1345	
  -11.8786	-0.000617464	  -11.8797	-0.000554897	  -11.8881	-0.000553495	  -11.8821	-0.000575285	  -11.8821	  -14.3821	
  -11.8904	-0.000627413	  -11.8886	-0.000564898	  -11.8971	-0.000563343	   -11.892	-0.000585218	   -11.892	  -14.6304	
  -11.9015	-0.000637317	  -11.8972	-0.000574992	  -11.9058	-0.000573205	  -11.9015	-0.000595171	  -11.9015	  -14.8793	
  -11.9118	-0.000647181	  -11.9053	-0.000585135	  -11.9139	-0.000583067	  -11.9103	-0.000605127	  -11.9103	  -15.1282	
  -11.9218	-0.000657009	  -11.9129	-0.000595263	  -11.9214	-0.000592904	  -11.9187	-0.000615059	  -11.9187	  -15.3765	
  -11.9306	-0.000666806	    -11.92	-0.000605315	  -11.9287	-0.00060271	  -11.9264	-0.000624944	  -11.9264	  -15.6236	
  -11.9385	-0.00067658	  -11.9266	-0.000615239	  -11.9354	-0.000612462	  -11.9335	-0.00063476	  -11.9335	   -15.869	
  -11.9458	-0.000686333	  -11.9327	-0.000624992	  -11.9416	-0.00062213	    -11.94	-0.000644485	    -11.94	  -16.1121	
  -11.9525	-0.000696064	  -11.9384	-0.000634553	  -11.9474	-0.000631693	  -11.9461	-0.000654104	  -11.9461	  -16.3526	
  -11.9586	-0.00070578	  -11.9437	-0.000643929	  -11.9527	-0.000641144	  -11.9517	-0.000663618	  -11.9517	  -16.5904	
  -11.9643	-0.000715471	  -11.9486	-0.000653144	  -11.9575	-0.000650478	  -11.9568	-0.000673031	  -11.9568	  -16.8258	
  -11.9697	-0.00072513	  -11.9531	-0.000662243	   -11.962	-0.000659712	  -11.9616	-0.000682362	  -11.9616	   -17.059	
   -11.975	-0.000734754	  -11.9572	-0.000671285	   -11.966	-0.000668861	  -11.9661	-0.000691633	  -11.9661	  -17.2908	
  -11.9797	-0.000744334	   -11.961	-0.000680334	  -11.9697	-0.000677945	  -11.9701	-0.000700871	  -11.9701	  -17.5218	
   -11.984	-0.000753866	  -11.9644	-0.000689444	  -11.9729	-0.000686987	  -11.9738	-0.000710099	  -11.9738	  -17.7525	
  -11.9882	-0.000763343	  -11.9675	-0.000698656	  -11.9759	-0.000696028	  -11.9772	-0.000719342	  -11.9772	  -17.9836	
  -11.9918	-0.000772767	  -11.9703	-0.000707992	  -11.9785	-0.000705106	  -11.9802	-0.000728622	  -11.9802	  -18.2155	
  -11.9951	-0.000782138	  -11.9728	-0.000717448	  -11.9808	-0.000714244	  -11.9829	-0.000737943	  -11.9829	  -18.4486	
  -11.9979	-0.00079146	   -11.975	-0.000726995	  -11.9828	-0.000723455	  -11.9852	-0.000747303	  -11.9852	  -18.6826	
  -12.0003	-0.000800743	  -11.9769	-0.000736582	  -11.9846	-0.000732743	  -11.9873	-0.000756689	  -11.9873	  -18.9172	
  -12.0024	-0.000809991	  -11.9786	-0.000746146	   -11.986	-0.000742096	   -11.989	-0.000766078	   -11.989	  -19.1519	
  -12.0036	-0.000819208	  -11.9801	-0.000755619	  -11.9873	-0.000751489	  -11.9903	-0.000775438	  -11.9903	   -19.386	
  -12.0039	-0.000828404	  -11.9807	-0.000764941	   -11.988	-0.000760882	  -11.9909	-0.000784743	  -11.9909	  -19.6186	
  -12.0038	-0.00083758	  -11.9811	-0.000774066	  -11.9883	-0.000770234	  -11.9911	-0.00079396	  -11.9911	   -19.849	
  -12.0029	-0.000846736	  -11.9809	-0.000782967	  -11.9879	-0.000779504	  -11.9906	-0.000803069	  -11.9906	  -20.0767	
  -12.0014	-0.000855868	  -11.9803	-0.000791651	  -11.9872	-0.000788664	  -11.9897	-0.000812061	  -11.9897	  -20.3015	
  -11.9992	-0.000864975	  -11.9791	-0.000800151	  -11.9859	-0.000797694	  -11.9881	-0.00082094	  -11.9881	  -20.5235	
  -11.9965	-0.000874048	  -11.9773	-0.00080852	  -11.9839	-0.000806581	  -11.9859	-0.000829716	  -11.9859	  -20.7429	
  -11.9932	-0.000883086	  -11.9749	-0.000816827	  -11.9814	-0.000815322	  -11.9832	-0.000838412	  -11.9832	  -20.9603	
  -11.9894	-0.00089209	  -11.9721	-0.000825152	  -11.9784	-0.000823935	    -11.98	-0.000847059	    -11.98	  -21.1765	
  -11.9853	-0.000901049	  -11.9688	-0.000833563	   -11.975	-0.000832446	  -11.9764	-0.000855686	  -11.9764	  -21.3921	
  -11.9807	-0.000909955	  -11.9652	-0.000842111	  -11.9712	-0.000840884	  -11.9723	-0.000864316	  -11.9723	  -21.6079	
  -11.9758	-0.000918801	  -11.9612	-0.000850826	   -11.967	-0.000849283	   -11.968	-0.00087297	   -11.968	  -21.8242	
  -11.9706	-0.000927579	  -11.9566	-0.000859708	  -11.9624	-0.000857672	  -11.9632	-0.000881653	  -11.9632	  -22.0413	
   -11.965	-0.000936281	  -11.9517	-0.00086872	  -11.9576	-0.000866077	  -11.9581	-0.000890359	  -11.9581	   -22.259	
  -11.9592	-0.000944903	   -11.946	-0.000877805	  -11.9523	-0.000874518	  -11.9525	-0.000899075	  -11.9525	  -22.4769	
  -11.9528	-0.00095345	  -11.9398	-0.000886887	  -11.9466	-0.000882998	  -11.9464	-0.000907778	  -11.9464	  -22.6945	
  -11.9457	-0.000961926	   -11.933	-0.000895885	  -11.9405	-0.000891509	  -11.9397	-0.00091644	  -11.9397	   -22.911	
  -11.9381	-0.000970342	  -11.9256	-0.000904721	  -11.9339	-0.000900037	  -11.9325	-0.000925033	  -11.9325	  -23.1258	
  -11.9298	-0.000978711	  -11.9177	-0.000913335	  -11.9266	-0.000908559	  -11.9247	-0.000933535	  -11.9247	  -23.3384	
  -11.9212	-0.000987045	  -11.9093	-0.000921693	  -11.9189	-0.000917052	  -11.9164	-0.00094193	  -11.9164	  -23.5483	
  -11.9121	-0.000995355	  -11.9005	-0.000929794	  -11.9107	-0.000925488	  -11.9077	-0.000950212	  -11.9077	  -23.7553	
  -11.9026	-0.00100365	  -11.8914	-0.000937666	   -11.902	-0.000933842	  -11.8987	-0.000958386	  -11.8987	  -23.9597	
  -11.8926	-0.00101194	  -11.8817	-0.000945364	  -11.8931	-0.000942098	  -11.8891	-0.000966466	  -11.8891	  -24.1617	
  -11.8818	-0.00102021	  -11.8719	-0.00095295	  -11.8838	-0.000950236	  -11.8792	-0.000974465	  -11.8792	  -24.3616	
  -11.8709	-0.00102846	  -11.8617	-0.000960521	  -11.8739	-0.000958269	  -11.8688	-0.000982418	  -11.8688	  -24.5604	
  -11.8596	-0.00103668	  -11.8508	-0.00096816	  -11.8632	-0.000966208	  -11.8579	-0.000990349	  -11.8579	  -24.7587	
  -11.8477	-0.00104484	  -11.8393	-0.000975928	  -11.8519	-0.000974068	  -11.8463	-0.000998279	  -11.8463	   -24.957	
  -11.8353	-0.00105294	  -11.8273	-0.000983869	  -11.8401	-0.000981877	  -11.8342	-0.00100623	  -11.8342	  -25.1557	
  -11.8225	-0.00106096	  -11.8149	-0.000991991	  -11.8277	-0.00098966	  -11.8217	-0.0010142	  -11.8217	  -25.3551	
  -11.8093	-0.00106891	  -11.8021	-0.00100028	   -11.815	-0.000997444	  -11.8088	-0.00102221	  -11.8088	  -25.5552	
  -11.7958	-0.00107677	   -11.789	-0.00100867	  -11.8017	-0.00100525	  -11.7955	-0.00103023	  -11.7955	  -25.7557	
  -11.7822	-0.00108456	  -11.7757	-0.0010171	  -11.7882	-0.00101307	   -11.782	-0.00103825	   -11.782	  -25.9561	
  -11.7677	-0.00109229	  -11.7619	-0.00102548	  -11.7741	-0.00102093	  -11.7679	-0.00104623	  -11.7679	  -26.1559	
  -11.7529	-0.00109997	  -11.7473	-0.00103373	  -11.7593	-0.00102881	  -11.7532	-0.00105417	  -11.7532	  -26.3542	
  -11.7376	-0.00110762	  -11.7323	-0.00104178	  -11.7439	-0.00103667	  -11.7379	-0.00106202	  -11.7379	  -26.5506	
  -11.7218	-0.00111525	  -11.7167	-0.00104959	   -11.728	-0.00104451	  -11.7222	-0.00106978	  -11.7222	  -26.7445	
  -11.7055	-0.00112287	  -11.7007	-0.00105714	  -11.7117	-0.00105228	   -11.706	-0.00107743	   -11.706	  -26.9357	
   -11.689	-0.00113049	  -11.6843	-0.00106444	  -11.6951	-0.00105995	  -11.6895	-0.00108496	  -11.6895	   -27.124	
  -11.6722	-0.0011381	  -11.6676	-0.00107153	  -11.6783	-0.00106749	  -11.6727	-0.00109238	  -11.6727	  -27.3094	
  -11.6547	-0.00114569	  -11.6502	-0.00107848	  -11.6607	-0.0010749	  -11.6552	-0.00109969	  -11.6552	  -27.4922	
  -11.6369	-0.00115323	  -11.6322	-0.00108536	   -11.643	-0.00108217	  -11.6374	-0.00110692	  -11.6374	   -27.673	
  -11.6185	-0.00116072	  -11.6136	-0.00109224	  -11.6248	-0.00108932	   -11.619	-0.00111409	   -11.619	  -27.8523	
  -11.5996	-0.00116813	  -11.5947	-0.00109919	  -11.6061	-0.00109638	  -11.6001	-0.00112123	  -11.6001	  -28.0309	
  -11.5804	-0.00117547	  -11.5754	-0.00110626	  -11.5869	-0.00110336	  -11.5809	-0.00112836	  -11.5809	   -28.209	
  -11.5606	-0.00118271	  -11.5558	-0.00111346	  -11.5675	-0.0011103	  -11.5613	-0.00113549	  -11.5613	  -28.3872	
  -11.5404	-0.00118987	  -11.5356	-0.0011208	  -11.5476	-0.00111722	  -11.5412	-0.00114263	  -11.5412	  -28.5658	
  -11.5195	-0.00119694	  -11.5148	-0.00112824	  -11.5272	-0.00112416	  -11.5205	-0.00114978	  -11.5205	  -28.7445	
  -11.4981	-0.00120394	  -11.4936	-0.00113572	  -11.5062	-0.00113113	  -11.4993	-0.00115693	  -11.4993	  -28.9232	
  -11.4763	-0.00121088	   -11.472	-0.00114318	  -11.4847	-0.00113812	  -11.4777	-0.00116406	  -11.4777	  -29.1015	
  -11.4541	-0.00121778	    -11.45	-0.00115055	  -11.4629	-0.00114513	  -11.4557	-0.00117115	  -11.4557	  -29.2788	
  -11.4317	-0.00122464	  -11.4274	-0.00115777	  -11.4407	-0.00115214	  -11.4333	-0.00117818	  -11.4333	  -29.4546	
  -11.4089	-0.00123147	  -11.4041	-0.0011648	  -11.4178	-0.00115912	  -11.4103	-0.00118513	  -11.4103	  -29.6283	
  -11.3855	-0.00123827	  -11.3803	-0.0011716	  -11.3943	-0.00116606	  -11.3867	-0.00119198	  -11.3867	  -29.7994	
  -11.3615	-0.00124504	   -11.356	-0.00117818	  -11.3702	-0.00117291	  -11.3626	-0.00119871	  -11.3626	  -29.9678	
  -11.3372	-0.00125178	  -11.3314	-0.00118457	  -11.3458	-0.00117965	  -11.3381	-0.00120534	  -11.3381	  -30.1334	
  -11.3123	-0.00125847	  -11.3066	-0.00119082	  -11.3207	-0.00118628	  -11.3132	-0.00121186	  -11.3132	  -30.2965	
   -11.287	-0.00126511	  -11.2813	-0.00119698	   -11.295	-0.00119279	  -11.2877	-0.0012183	  -11.2877	  -30.4574	
   -11.261	-0.00127169	  -11.2554	-0.00120312	  -11.2687	-0.00119918	  -11.2617	-0.00122467	  -11.2617	  -30.6167	
  -11.2348	-0.0012782	   -11.229	-0.0012093	  -11.2423	-0.00120548	  -11.2354	-0.00123099	  -11.2354	  -30.7748	
  -11.2083	-0.00128463	  -11.2023	-0.00121554	  -11.2155	-0.00121171	  -11.2087	-0.00123729	  -11.2087	  -30.9323	
  -11.1814	-0.00129098	  -11.1753	-0.00122189	  -11.1878	-0.0012179	  -11.1815	-0.00124359	  -11.1815	  -31.0897	
  -11.1542	-0.00129724	  -11.1478	-0.00122833	    -11.16	-0.00122408	   -11.154	-0.00124988	   -11.154	  -31.2471	
  -11.1263	-0.00130341	  -11.1197	-0.00123485	  -11.1321	-0.00123028	   -11.126	-0.00125618	   -11.126	  -31.4045	
  -11.0981	-0.0013095	  -11.0911	-0.00124141	  -11.1039	-0.00123651	  -11.0977	-0.00126247	  -11.0977	  -31.5618	
  -11.0695	-0.00131552	  -11.0622	-0.00124795	  -11.0753	-0.00124276	   -11.069	-0.00126875	   -11.069	  -31.7186	
  -11.0406	-0.0013215	   -11.033	-0.00125442	  -11.0464	-0.00124902	    -11.04	-0.00127498	    -11.04	  -31.8745	
  -11.0112	-0.00132744	  -11.0032	-0.00126076	  -11.0173	-0.00125527	  -11.0106	-0.00128115	  -11.0106	  -32.0289	
  -10.9813	-0.00133336	  -10.9731	-0.00126693	  -10.9881	-0.00126147	  -10.9808	-0.00128725	  -10.9808	  -32.1814	
  -10.9508	-0.00133928	  -10.9425	-0.00127291	   -10.959	-0.00126759	  -10.9508	-0.00129326	  -10.9508	  -32.3315	
    -10.92	-0.00134521	  -10.9117	-0.00127871	  -10.9299	-0.0012736	  -10.9205	-0.00129917	  -10.9205	  -32.4793	
   -10.889	-0.00135112	  -10.8806	-0.00128434	  -10.9007	-0.00127948	  -10.8901	-0.00130498	  -10.8901	  -32.6245	
  -10.8576	-0.00135702	  -10.8489	-0.00128984	  -10.8708	-0.00128521	  -10.8591	-0.00131069	  -10.8591	  -32.7673	
  -10.8256	-0.00136289	  -10.8166	-0.00129526	  -10.8402	-0.0012908	  -10.8275	-0.00131632	  -10.8275	   -32.908	
  -10.7931	-0.0013687	   -10.784	-0.00130066	  -10.8091	-0.00129626	  -10.7954	-0.00132187	  -10.7954	  -33.0468	
  -10.7604	-0.00137443	  -10.7512	-0.00130606	  -10.7773	-0.00130161	   -10.763	-0.00132737	   -10.763	  -33.1842	
  -10.7273	-0.00138006	  -10.7179	-0.00131152	  -10.7441	-0.00130689	  -10.7298	-0.00133282	  -10.7298	  -33.3206	
  -10.6935	-0.00138558	  -10.6841	-0.00131704	    -10.71	-0.00131213	  -10.6959	-0.00133825	  -10.6959	  -33.4563	
  -10.6592	-0.00139098	  -10.6499	-0.00132261	  -10.6758	-0.00131737	  -10.6616	-0.00134365	  -10.6616	  -33.5913	
  -10.6247	-0.00139627	  -10.6154	-0.00132819	  -10.6412	-0.00132263	  -10.6271	-0.00134903	  -10.6271	  -33.7258	
  -10.5897	-0.00140145	  -10.5801	-0.00133377	  -10.6057	-0.00132792	  -10.5918	-0.00135438	  -10.5918	  -33.8595	
   -10.554	-0.00140657	  -10.5446	-0.00133931	  -10.5697	-0.00133325	  -10.5561	-0.00135971	  -10.5561	  -33.9928	
  -10.5179	-0.00141165	  -10.5086	-0.00134478	  -10.5333	-0.00133863	    -10.52	-0.00136502	    -10.52	  -34.1255	
  -10.4815	-0.0014167	  -10.4721	-0.00135015	  -10.4966	 -0.001344	  -10.4834	-0.00137028	  -10.4834	  -34.2571	
  -10.4449	-0.00142174	   -10.435	-0.00135542	  -10.4592	-0.00134936	  -10.4464	-0.0013755	  -10.4464	  -34.3876	
   -10.408	-0.00142677	  -10.3974	-0.00136057	  -10.4211	-0.00135468	  -10.4088	-0.00138067	  -10.4088	  -34.5169	
  -10.3705	-0.00143181	  -10.3586	-0.00136563	  -10.3832	-0.00135991	  -10.3708	-0.00138579	  -10.3708	  -34.6447	
  -10.3328	-0.00143685	  -10.3184	-0.00137063	  -10.3449	-0.00136505	   -10.332	-0.00139084	   -10.332	   -34.771	
  -10.2946	-0.00144184	  -10.2776	-0.00137557	  -10.3053	-0.00137005	  -10.2925	-0.00139582	  -10.2925	  -34.8955	
  -10.2558	-0.00144678	  -10.2366	-0.00138049	  -10.2649	-0.00137494	  -10.2524	-0.00140074	  -10.2524	  -35.0185	
  -10.2166	-0.00145164	  -10.1949	-0.00138542	  -10.2248	-0.0013797	  -10.2121	-0.00140559	  -10.2121	  -35.1397	
   -10.177	-0.00145638	   -10.152	-0.00139038	  -10.1845	-0.00138435	  -10.1712	-0.00141037	  -10.1712	  -35.2592	
  -10.1371	-0.00146099	  -10.1087	-0.00139535	  -10.1427	-0.00138889	  -10.1295	-0.00141508	  -10.1295	  -35.3769	
  -10.0965	-0.00146546	  -10.0663	-0.00140032	     -10.1	-0.00139336	  -10.0876	-0.00141971	  -10.0876	  -35.4928	
  -10.0555	-0.00146981	   -10.024	-0.00140526	  -10.0585	-0.00139776	   -10.046	-0.00142428	   -10.046	  -35.6069	
  -10.0143	-0.00147405	  -9.98077	-0.00141013	  -10.0172	-0.00140213	  -10.0041	-0.00142877	  -10.0041	  -35.7192	
  -9.97298	-0.00147821	  -9.93738	-0.0014149	   -9.9743	-0.00140648	  -9.96155	-0.0014332	  -9.96155	  -35.8299	
  -9.93111	-0.00148233	  -9.89486	-0.00141953	  -9.93081	-0.00141081	  -9.91893	-0.00143756	  -9.91893	   -35.939	
  -9.88887	-0.00148642	    -9.853	 -0.001424	  -9.88879	-0.00141515	  -9.87689	-0.00144186	  -9.87689	  -36.0464	
  -9.84621	-0.00149052	  -9.81082	-0.00142829	  -9.84693	-0.00141948	  -9.83465	-0.0014461	  -9.83465	  -36.1524	
  -9.80292	-0.00149461	  -9.76865	-0.00143241	  -9.80322	-0.0014238	   -9.7916	-0.00145028	   -9.7916	  -36.2569	
  -9.75918	-0.00149872	  -9.72683	-0.0014364	   -9.7591	-0.0014281	  -9.74837	-0.00145441	  -9.74837	  -36.3602	
  -9.71515	-0.00150283	  -9.68468	-0.00144028	  -9.71587	-0.00143238	  -9.70523	-0.0014585	  -9.70523	  -36.4624	
  -9.67043	-0.00150693	   -9.6412	-0.00144409	  -9.67247	-0.00143661	  -9.66137	-0.00146254	  -9.66137	  -36.5636	
   -9.6252	-0.00151099	  -9.59721	-0.00144788	  -9.62709	-0.00144078	   -9.6165	-0.00146655	   -9.6165	  -36.6638	
  -9.57964	-0.00151499	  -9.55318	-0.0014517	  -9.58111	-0.00144488	  -9.57131	-0.00147052	  -9.57131	   -36.763	
  -9.53372	-0.00151891	  -9.50875	-0.00145556	  -9.53595	-0.00144888	  -9.52614	-0.00147445	  -9.52614	  -36.8612	
  -9.48722	-0.00152273	  -9.46343	-0.00145948	  -9.49073	-0.00145279	  -9.48046	-0.00147833	  -9.48046	  -36.9583	
  -9.44034	-0.00152646	  -9.41751	-0.00146345	  -9.44405	-0.00145659	  -9.43396	-0.00148217	  -9.43396	  -37.0542	
  -9.39325	-0.0015301	  -9.37138	-0.00146746	  -9.39684	-0.00146029	  -9.38715	-0.00148595	  -9.38715	  -37.1488	
  -9.34591	-0.00153365	  -9.32442	-0.00147148	  -9.35015	-0.00146389	  -9.34016	-0.00148967	  -9.34016	  -37.2418	
   -9.2981	-0.00153713	  -9.27646	-0.00147545	  -9.30322	-0.0014674	  -9.29259	-0.00149332	  -9.29259	  -37.3331	
  -9.25001	-0.00154055	  -9.22811	-0.00147933	  -9.25497	-0.00147083	  -9.24436	-0.0014969	  -9.24436	  -37.4225	
  -9.20152	-0.00154393	  -9.17973	-0.00148309	  -9.20631	-0.00147419	  -9.19586	-0.0015004	  -9.19586	  -37.5101	
  -9.15251	-0.00154728	   -9.1312	-0.00148669	   -9.1583	-0.00147751	  -9.14734	-0.00150383	  -9.14734	  -37.5957	
  -9.10318	-0.00155061	  -9.08199	-0.00149013	  -9.11045	-0.0014808	  -9.09854	-0.00150718	  -9.09854	  -37.6795	
  -9.05342	-0.00155393	  -9.03213	-0.0014934	  -9.06145	-0.00148407	    -9.049	-0.00151047	    -9.049	  -37.7616	
  -9.00332	-0.00155722	  -8.98238	-0.00149652	  -9.01145	-0.00148733	  -8.99905	-0.00151369	  -8.99905	  -37.8422	
  -8.95286	-0.00156049	  -8.93261	-0.00149952	  -8.96164	-0.00149057	  -8.94904	-0.00151686	  -8.94904	  -37.9215	
  -8.90223	-0.00156372	  -8.88229	-0.00150245	  -8.91158	-0.0014938	   -8.8987	-0.00151999	   -8.8987	  -37.9998	
  -8.85131	-0.0015669	  -8.83172	-0.00150534	  -8.86057	-0.00149701	  -8.84787	-0.00152308	  -8.84787	  -38.0771	
  -8.79998	-0.00157001	  -8.78117	-0.00150824	  -8.80896	-0.00150018	   -8.7967	-0.00152614	   -8.7967	  -38.1536	
  -8.74844	-0.00157306	  -8.73041	-0.00151117	   -8.7577	-0.0015033	  -8.74551	-0.00152918	  -8.74551	  -38.2294	
  -8.69647	-0.00157602	  -8.67903	-0.00151415	  -8.70635	-0.00150636	  -8.69395	-0.00153218	  -8.69395	  -38.3044	
  -8.64407	-0.00157889	  -8.62695	-0.00151717	  -8.65421	-0.00150934	  -8.64174	-0.00153513	  -8.64174	  -38.3784	
  -8.59145	-0.00158168	  -8.57467	-0.00152023	   -8.6015	-0.00151224	  -8.58921	-0.00153805	  -8.58921	  -38.4512	
  -8.53838	-0.00158439	  -8.52237	-0.00152329	  -8.54891	-0.00151505	  -8.53655	-0.00154091	  -8.53655	  -38.5227	
  -8.48489	-0.00158702	  -8.46963	-0.00152631	  -8.49639	-0.00151778	  -8.48364	-0.0015437	  -8.48364	  -38.5926	
  -8.43116	-0.0015896	  -8.41626	-0.00152926	  -8.44315	-0.00152042	  -8.43019	-0.00154643	  -8.43019	  -38.6607	
  -8.37708	-0.00159212	  -8.36258	-0.00153209	   -8.3892	 -0.001523	  -8.37629	-0.00154907	  -8.37629	  -38.7268	
  -8.32257	-0.00159461	  -8.30886	-0.00153479	  -8.33535	-0.00152551	  -8.32226	-0.00155164	  -8.32226	   -38.791	
  -8.26783	-0.00159706	   -8.2546	-0.00153734	  -8.28146	-0.00152798	  -8.26796	-0.00155413	  -8.26796	  -38.8531	
  -8.21265	-0.00159948	  -8.19972	-0.00153974	  -8.22684	-0.0015304	  -8.21307	-0.00155654	  -8.21307	  -38.9135	
  -8.15705	-0.00160187	  -8.14444	 -0.001542	  -8.17171	-0.00153278	  -8.15773	-0.00155888	  -8.15773	  -38.9721	
  -8.10122	-0.00160422	  -8.08896	-0.00154416	  -8.11628	-0.00153514	  -8.10216	-0.00156117	  -8.10216	  -39.0293	
  -8.04536	-0.00160654	  -8.03318	-0.00154624	  -8.06075	-0.00153745	  -8.04643	-0.00156341	  -8.04643	  -39.0853	
  -7.98907	-0.0016088	  -7.97699	-0.00154829	   -8.0047	-0.00153973	  -7.99025	-0.00156561	  -7.99025	  -39.1402	
  -7.93255	-0.00161099	  -7.92061	-0.00155034	  -7.94798	-0.00154197	  -7.93371	-0.00156777	  -7.93371	  -39.1942	
  -7.87541	-0.00161311	  -7.86422	-0.00155242	  -7.89118	-0.00154416	  -7.87693	-0.0015699	  -7.87693	  -39.2474	
  -7.81787	-0.00161514	  -7.80741	-0.00155453	   -7.8343	-0.00154629	  -7.81986	-0.00157199	  -7.81986	  -39.2997	
  -7.76015	-0.00161709	  -7.75011	-0.00155668	  -7.77685	-0.00154835	  -7.76237	-0.00157404	  -7.76237	  -39.3509	
  -7.70205	-0.00161894	  -7.69263	-0.00155884	  -7.71876	-0.00155034	  -7.70448	-0.00157604	  -7.70448	   -39.401	
  -7.64358	-0.00162071	  -7.63477	 -0.001561	  -7.66054	-0.00155226	   -7.6463	-0.00157799	   -7.6463	  -39.4498	
  -7.58496	-0.00162241	  -7.57654	-0.0015631	  -7.60229	-0.00155411	  -7.58793	-0.00157987	  -7.58793	  -39.4968	
   -7.5258	-0.00162404	  -7.51778	-0.00156512	  -7.54341	-0.00155588	    -7.529	-0.00158168	    -7.529	   -39.542	
  -7.46632	-0.00162563	  -7.45869	 -0.001567	  -7.48415	-0.00155759	  -7.46972	-0.00158341	  -7.46972	  -39.5852	
  -7.40672	-0.00162717	  -7.39949	-0.00156876	   -7.4247	-0.00155924	   -7.4103	-0.00158506	   -7.4103	  -39.6264	
  -7.34721	-0.00162869	  -7.33979	-0.00157037	  -7.36497	-0.00156084	  -7.35066	-0.00158663	  -7.35066	  -39.6658	
  -7.28737	-0.00163018	  -7.27981	-0.00157186	  -7.30489	-0.00156239	  -7.29069	-0.00158814	  -7.29069	  -39.7036	
  -7.22742	-0.00163165	  -7.21975	-0.00157325	  -7.24466	-0.0015639	  -7.23061	-0.0015896	  -7.23061	    -39.74	
  -7.16716	-0.00163308	  -7.15943	-0.00157458	   -7.1841	-0.00156537	  -7.17023	-0.00159101	  -7.17023	  -39.7753	
   -7.1066	-0.00163448	  -7.09884	-0.00157587	  -7.12321	-0.00156681	  -7.10955	-0.00159239	  -7.10955	  -39.8097	
  -7.04559	-0.00163582	  -7.03763	-0.00157717	  -7.06203	-0.0015682	  -7.04842	-0.00159373	  -7.04842	  -39.8432	
  -6.98442	-0.0016371	  -6.97604	-0.00157849	  -7.00038	-0.00156955	  -6.98695	-0.00159504	  -6.98695	  -39.8761	
  -6.92302	-0.00163829	  -6.91427	-0.00157984	  -6.93849	-0.00157084	  -6.92526	-0.00159632	  -6.92526	  -39.9081	
   -6.8613	-0.00163939	  -6.85195	-0.00158122	  -6.87655	-0.00157209	  -6.86327	-0.00159757	  -6.86327	  -39.9392	
  -6.79918	-0.0016404	  -6.78932	-0.00158261	   -6.8142	-0.00157328	   -6.8009	-0.00159876	   -6.8009	  -39.9691	
  -6.73689	-0.00164133	   -6.7266	-0.00158398	  -6.75164	-0.00157441	  -6.73838	-0.00159991	  -6.73838	  -39.9977	
  -6.67444	-0.00164218	  -6.66359	-0.00158531	  -6.68871	-0.00157547	  -6.67558	-0.00160098	  -6.67558	  -40.0246	
  -6.61165	-0.00164295	  -6.60032	-0.00158654	  -6.62544	-0.00157647	  -6.61247	-0.00160199	  -6.61247	  -40.0497	
  -6.54874	-0.00164368	    -6.537	-0.00158767	  -6.56175	-0.00157739	  -6.54916	-0.00160291	  -6.54916	  -40.0728	
  -6.48551	-0.00164437	  -6.47345	-0.00158867	  -6.49758	-0.00157823	  -6.48551	-0.00160376	  -6.48551	  -40.0939	
  -6.42201	-0.00164502	  -6.40969	-0.00158957	  -6.43317	-0.00157901	  -6.42162	-0.00160453	  -6.42162	  -40.1133	
  -6.35824	-0.00164565	  -6.34573	-0.00159036	  -6.36873	-0.00157972	  -6.35757	-0.00160525	  -6.35757	  -40.1311	
  -6.29405	-0.00164627	   -6.2814	-0.00159105	  -6.30389	-0.0015804	  -6.29312	-0.0016059	  -6.29312	  -40.1476	
  -6.22967	-0.00164685	  -6.21694	-0.00159166	  -6.23888	-0.00158103	   -6.2285	-0.00160651	   -6.2285	  -40.1628	
   -6.1653	-0.0016474	  -6.15254	-0.00159222	  -6.17362	-0.00158163	  -6.16382	-0.00160709	  -6.16382	  -40.1771	
  -6.10057	-0.00164789	  -6.08782	-0.00159277	  -6.10804	-0.00158222	  -6.09881	-0.00160763	  -6.09881	  -40.1907	
   -6.0357	-0.00164832	  -6.02301	-0.0015933	  -6.04237	-0.00158279	  -6.03369	-0.00160814	  -6.03369	  -40.2034	
  -5.97032	-0.00164866	  -5.95792	-0.00159383	  -5.97642	-0.00158334	  -5.96822	-0.00160861	  -5.96822	  -40.2152	
  -5.90468	-0.00164889	  -5.89259	-0.00159436	  -5.91024	-0.00158387	   -5.9025	-0.00160904	   -5.9025	   -40.226	
  -5.83899	-0.00164902	  -5.82694	-0.00159487	  -5.84404	-0.00158435	  -5.83665	-0.00160941	  -5.83665	  -40.2353	
  -5.77307	-0.00164904	  -5.76091	-0.00159534	  -5.77763	-0.00158479	  -5.77054	-0.00160972	  -5.77054	   -40.243	
  -5.70695	-0.00164895	  -5.69473	-0.00159576	  -5.71106	-0.00158515	  -5.70425	-0.00160995	  -5.70425	  -40.2489	
  -5.64066	-0.00164877	  -5.62843	-0.00159611	  -5.64433	-0.00158544	  -5.63781	-0.00161011	  -5.63781	  -40.2527	
  -5.57403	-0.00164853	  -5.56183	-0.00159638	  -5.57729	-0.00158563	  -5.57105	-0.00161018	  -5.57105	  -40.2545	
  -5.50729	-0.00164824	  -5.49497	-0.00159657	  -5.50997	-0.00158573	  -5.50408	-0.00161018	  -5.50408	  -40.2545	
  -5.44008	-0.0016479	  -5.42769	-0.0015967	  -5.44251	-0.00158574	  -5.43676	-0.00161012	  -5.43676	  -40.2529	
  -5.37263	-0.00164755	  -5.36022	-0.00159676	  -5.37483	-0.00158568	  -5.36922	  -0.00161	  -5.36922	  -40.2499	
  -5.30518	-0.00164719	  -5.29279	-0.00159677	  -5.30715	-0.00158557	  -5.30171	-0.00160984	  -5.30171	   -40.246	
  -5.23735	-0.00164681	  -5.22522	-0.00159671	  -5.23911	-0.00158541	  -5.23389	-0.00160965	  -5.23389	  -40.2412	
  -5.16937	-0.00164643	  -5.15753	-0.00159661	  -5.17094	-0.00158522	  -5.16595	-0.00160942	  -5.16595	  -40.2355	
  -5.10148	-0.00164602	  -5.08936	-0.00159645	  -5.10229	-0.00158501	  -5.09771	-0.00160916	  -5.09771	   -40.229	
  -5.03348	-0.00164558	  -5.02095	-0.00159624	  -5.03339	-0.00158479	  -5.02928	-0.00160887	  -5.02928	  -40.2217	
   -4.9654	-0.00164507	  -4.95255	-0.00159599	  -4.96449	-0.00158454	  -4.96081	-0.00160853	  -4.96081	  -40.2133	
  -4.89688	-0.0016445	  -4.88377	-0.00159567	  -4.89541	-0.00158426	  -4.89202	-0.00160814	  -4.89202	  -40.2036	
  -4.82816	-0.00164385	  -4.81485	-0.00159529	  -4.82618	-0.00158393	  -4.82306	-0.00160769	  -4.82306	  -40.1922	
  -4.75946	-0.0016431	  -4.74584	-0.00159484	  -4.75702	-0.00158353	  -4.75411	-0.00160716	  -4.75411	  -40.1789	
  -4.69043	-0.00164224	  -4.67684	-0.00159433	  -4.68757	-0.00158304	  -4.68495	-0.00160654	  -4.68495	  -40.1634	
  -4.62129	-0.00164131	  -4.60759	-0.00159376	  -4.61806	-0.00158243	  -4.61565	-0.00160583	  -4.61565	  -40.1459	
  -4.55169	-0.00164031	  -4.53822	-0.00159313	  -4.54842	-0.00158171	  -4.54611	-0.00160505	  -4.54611	  -40.1262	
  -4.48188	-0.00163924	  -4.46867	-0.00159245	  -4.47858	-0.00158088	  -4.47638	-0.00160419	  -4.47638	  -40.1047	
  -4.41209	-0.00163814	  -4.39916	-0.0015917	  -4.40877	-0.00157995	  -4.40667	-0.00160326	  -4.40667	  -40.0815	
  -4.34195	-0.00163702	  -4.32933	-0.0015909	  -4.33863	-0.00157894	  -4.33664	-0.00160229	  -4.33664	  -40.0572	
   -4.2717	-0.00163589	  -4.25922	-0.00159005	  -4.26839	-0.00157789	  -4.26644	-0.00160128	  -4.26644	  -40.0319	
    -4.201	-0.00163476	  -4.18897	-0.00158914	  -4.19771	-0.00157682	  -4.19589	-0.00160024	  -4.19589	  -40.0059	
  -4.13009	-0.00163362	  -4.11852	-0.00158815	  -4.12683	-0.00157576	  -4.12515	-0.00159918	  -4.12515	  -39.9794	
   -4.0592	-0.00163247	  -4.04782	-0.00158709	  -4.05599	-0.00157472	  -4.05434	-0.00159809	  -4.05434	  -39.9523	
  -3.98799	-0.00163128	   -3.9768	-0.00158596	  -3.98482	-0.00157371	   -3.9832	-0.00159698	   -3.9832	  -39.9246	
  -3.91667	-0.00163005	  -3.90572	-0.00158475	  -3.91328	-0.00157272	  -3.91189	-0.00159584	  -3.91189	   -39.896	
  -3.84531	-0.00162875	   -3.8346	-0.00158346	  -3.84171	-0.00157174	  -3.84054	-0.00159465	  -3.84054	  -39.8662	
  -3.77371	-0.00162737	  -3.76328	-0.00158209	  -3.76995	-0.00157074	  -3.76898	-0.0015934	  -3.76898	   -39.835	
  -3.70195	-0.00162588	   -3.6918	-0.00158067	  -3.69804	-0.00156969	  -3.69726	-0.00159208	  -3.69726	  -39.8021	
  -3.62985	-0.0016243	  -3.62058	-0.0015792	  -3.62582	-0.00156857	  -3.62542	-0.00159069	  -3.62542	  -39.7672	
  -3.55767	-0.00162261	  -3.54924	-0.00157769	  -3.55355	-0.00156734	  -3.55349	-0.00158921	  -3.55349	  -39.7304	
  -3.48526	-0.00162082	  -3.47763	-0.00157616	  -3.48144	-0.00156599	  -3.48144	-0.00158766	  -3.48144	  -39.6914	
  -3.41265	-0.00161895	  -3.40579	-0.00157462	  -3.40913	-0.0015645	  -3.40919	-0.00158602	  -3.40919	  -39.6505	
  -3.33989	-0.00161702	  -3.33397	-0.00157306	  -3.33686	-0.00156287	  -3.33691	-0.00158431	  -3.33691	  -39.6079	
  -3.26685	-0.00161504	  -3.26209	-0.00157148	  -3.26427	-0.00156113	   -3.2644	-0.00158255	   -3.2644	  -39.5637	
  -3.19375	-0.00161302	  -3.19009	-0.00156986	   -3.1916	-0.00155929	  -3.19181	-0.00158072	  -3.19181	  -39.5181	
  -3.12053	-0.00161099	  -3.11791	-0.00156819	  -3.11879	-0.00155739	  -3.11908	-0.00157886	  -3.11908	  -39.4714	
  -3.04715	-0.00160895	   -3.0455	-0.00156646	  -3.04579	-0.00155545	  -3.04615	-0.00157695	  -3.04615	  -39.4238	
  -2.97356	-0.00160689	  -2.97309	-0.00156464	  -2.97255	-0.00155351	  -2.97307	-0.00157501	  -2.97307	  -39.3753	
  -2.89989	-0.00160481	  -2.90071	-0.00156273	  -2.89903	-0.00155157	  -2.89987	-0.00157304	  -2.89987	   -39.326	
  -2.82618	-0.0016027	   -2.8282	-0.00156073	  -2.82546	-0.00154965	  -2.82661	-0.00157103	  -2.82661	  -39.2756	
  -2.75238	-0.00160053	  -2.75551	-0.00155862	  -2.75208	-0.00154775	  -2.75332	-0.00156897	  -2.75332	  -39.2242	
  -2.67844	-0.0015983	  -2.68257	-0.00155642	  -2.67852	-0.00154585	  -2.67984	-0.00156686	  -2.67984	  -39.1715	
  -2.60429	-0.00159598	  -2.60964	-0.00155416	  -2.60502	-0.00154394	  -2.60632	-0.00156469	  -2.60632	  -39.1173	
  -2.53009	-0.00159356	  -2.53675	-0.00155182	  -2.53123	-0.00154199	  -2.53269	-0.00156246	  -2.53269	  -39.0614	
  -2.45588	-0.00159103	  -2.46372	-0.00154934	  -2.45739	-0.00154007	    -2.459	-0.00156015	    -2.459	  -39.0037	
  -2.38188	-0.00158838	   -2.3908	-0.00154686	  -2.38374	-0.00153802	  -2.38547	-0.00155775	  -2.38547	  -38.9438	
  -2.30773	-0.00158561	  -2.31761	-0.0015444	   -2.3099	-0.00153578	  -2.31175	-0.00155527	  -2.31175	  -38.8816	
  -2.23346	-0.00158274	  -2.24442	-0.00154196	  -2.23573	-0.00153335	  -2.23787	-0.00155268	  -2.23787	  -38.8171	
  -2.15924	-0.00157977	  -2.17085	-0.00153955	  -2.16158	-0.00153073	  -2.16389	-0.00155002	  -2.16389	  -38.7504	
  -2.08516	-0.00157672	  -2.09717	-0.00153715	  -2.08738	-0.00152794	  -2.08991	-0.00154727	  -2.08991	  -38.6818	
  -2.01099	-0.00157363	  -2.02333	-0.00153474	  -2.01309	-0.00152501	   -2.0158	-0.00154446	   -2.0158	  -38.6115	
  -1.93666	-0.00157051	  -1.94927	-0.00153227	  -1.93864	-0.00152199	  -1.94152	-0.00154159	  -1.94152	  -38.5398	
