# User: ACHyster
# File name: C:/ACHYSTER/ACHyster SENS/SHAMS/CoFe2O4-1gl-water-Zero Glycerol- Sens-07-03-2023/CoFe2O4-1gl-water-zero Glycerol- 10_100F- 24kAm -Sens-07-03-20230003#1.txt
# Saved at: ma. mar. 7 14:41:34 2023
# Hyster Loop (3 iterations). Intensity: 24.0 kA/m; Tuned frequency: 41.9 kHz
# Units x axis: (kA/m)
# Units y axis: "Repeats y" & "Average y" (10^(-3)Am^2); "Mass avg y" (Am^2/kg)
# Magnetic mass: 4e-05 g
# Parameter      	Repeat   1	Repeat   2	Repeat   3	Average   	Sigma     
# H_C (kA/m)     	      13.3	      13.3	      13.0	      13.2	       0.1
# M_R (Am^2/kg)  	      56.4	      56.5	      56.2	      56.4	       0.1
# M_max (Am^2/kg)	      76.6	      76.1	      78.0	      76.9	       0.8
# Area (mJ/kg)   	    4355.9	    4360.0	    4310.1	    4342.0	      22.6
# SAR (W/g)      	     182.6	     182.8	     180.7	     182.0	       0.9
#Repeat 1 x	Repeat 1 y	Repeat 2 x	Repeat 2 y	Repeat 3 x	Repeat 3 y	Average x 	Average y 	Mass avg x 	Mass avg y 
  -3.38015	-0.00252316	  -3.37958	-0.00252982	  -3.40929	-0.00253205	  -3.38967	-0.00252834	  -3.38967	  -63.2085	
  -3.23235	-0.00251304	  -3.23208	-0.00251961	  -3.26068	-0.00252154	  -3.24171	-0.00251806	  -3.24171	  -62.9516	
  -3.08418	-0.00250284	  -3.08417	-0.00250933	   -3.1121	-0.00251083	  -3.09349	-0.00250767	  -3.09349	  -62.6918	
  -2.93591	-0.00249263	  -2.93638	-0.00249901	  -2.96352	-0.00250002	  -2.94527	-0.00249722	  -2.94527	  -62.4305	
  -2.78751	-0.00248238	  -2.78893	-0.00248859	  -2.81465	-0.00248915	  -2.79703	-0.0024867	  -2.79703	  -62.1676	
  -2.63898	-0.00247197	   -2.6415	-0.00247797	  -2.66602	-0.0024782	  -2.64883	-0.00247605	  -2.64883	  -61.9012	
  -2.49029	-0.0024613	  -2.49353	-0.00246709	  -2.51731	-0.00246709	  -2.50038	-0.00246516	  -2.50038	  -61.6291	
  -2.34091	-0.00245038	  -2.34505	-0.00245597	  -2.36825	-0.00245577	   -2.3514	-0.00245404	   -2.3514	   -61.351	
  -2.19165	-0.00243927	  -2.19658	-0.00244469	   -2.2191	-0.00244421	  -2.20244	-0.00244273	  -2.20244	  -61.0682	
  -2.04249	-0.00242808	  -2.04784	-0.00243335	  -2.06985	-0.00243244	  -2.05339	-0.00243129	  -2.05339	  -60.7822	
   -1.8934	-0.00241683	  -1.89883	-0.00242195	    -1.921	-0.00242052	  -1.90441	-0.00241977	  -1.90441	  -60.4942	
   -1.7446	-0.00240546	  -1.75008	-0.00241041	  -1.77198	-0.00240847	  -1.75555	-0.00240812	  -1.75555	  -60.2029	
  -1.59579	-0.00239387	  -1.60153	-0.00239865	   -1.6233	-0.00239628	  -1.60687	-0.00239627	  -1.60687	  -59.9067	
  -1.44694	-0.00238202	  -1.45315	-0.00238662	  -1.47464	-0.00238397	  -1.45824	-0.0023842	  -1.45824	  -59.6051	
  -1.29802	-0.00236992	  -1.30437	-0.00237436	  -1.32571	-0.00237153	  -1.30937	-0.00237194	  -1.30937	  -59.2985	
  -1.14929	-0.00235768	  -1.15572	-0.00236194	  -1.17756	-0.00235892	  -1.16086	-0.00235951	  -1.16086	  -58.9878	
  -1.00044	-0.00234534	  -1.00638	-0.00234942	  -1.02905	-0.00234608	  -1.01196	-0.00234695	  -1.01196	  -58.6736	
 -0.851451	-0.00233288	 -0.857158	-0.00233678	 -0.880447	-0.00233299	 -0.863019	-0.00233422	 -0.863019	  -58.3555	
 -0.702578	-0.00232024	 -0.708038	-0.00232397	 -0.731732	-0.00231965	 -0.714116	-0.00232129	 -0.714116	  -58.0321	
 -0.554051	-0.00230732	 -0.558717	-0.00231089	 -0.582889	-0.00230614	 -0.565219	-0.00230812	 -0.565219	   -57.703	
 -0.405547	-0.00229413	 -0.409187	-0.00229756	 -0.433901	-0.00229251	 -0.416211	-0.00229474	 -0.416211	  -57.3684	
 -0.257301	-0.00228073	 -0.259445	-0.00228401	  -0.28476	-0.00227878	 -0.267169	-0.00228117	 -0.267169	  -57.0293	
 -0.109005	-0.00226718	 -0.109749	-0.00227031	 -0.135716	-0.00226489	 -0.118157	-0.00226746	 -0.118157	  -56.6865	
 0.0393658	-0.00225354	 0.0401917	-0.00225649	 0.0135281	-0.00225076	 0.0310285	-0.0022536	 0.0310285	  -56.3399	
  0.188092	-0.00223976	  0.190111	-0.00224254	  0.162718	-0.00223636	  0.180307	-0.00223955	  0.180307	  -55.9888	
  0.336644	-0.00222577	   0.33977	-0.00222838	  0.311879	-0.00222169	  0.329431	-0.00222528	  0.329431	   -55.632	
  0.485591	-0.00221152	  0.489214	-0.00221398	  0.461302	-0.00220681	  0.478703	-0.00221077	  0.478703	  -55.2692	
    0.6344	 -0.002197	  0.638486	-0.00219932	  0.610727	-0.00219178	  0.627871	-0.00219604	  0.627871	  -54.9009	
  0.783368	-0.00218228	  0.787619	-0.00218444	   0.75965	-0.00217662	  0.776879	-0.00218112	  0.776879	  -54.5279	
  0.931979	-0.00216739	  0.936915	-0.00216941	  0.908662	-0.00216127	  0.925852	-0.00216602	  0.925852	  -54.1506	
   1.08029	-0.00215235	   1.08691	-0.00215422	   1.05752	-0.00214566	   1.07491	-0.00215074	   1.07491	  -53.7686	
   1.22861	-0.0021371	   1.23677	-0.00213886	   1.20573	-0.00212975	    1.2237	-0.00213524	    1.2237	  -53.3809	
   1.37671	-0.00212163	    1.3868	-0.00212325	   1.35416	-0.00211356	   1.37256	-0.00211948	   1.37256	   -52.987	
   1.52463	-0.0021059	   1.53649	-0.00210738	   1.50309	-0.00209718	    1.5214	-0.00210349	    1.5214	  -52.5871	
   1.67216	-0.00208994	   1.68587	-0.00209129	    1.6517	-0.00208064	   1.66991	-0.00208729	   1.66991	  -52.1822	
   1.81961	-0.00207379	   1.83499	-0.00207501	   1.80059	-0.00206393	    1.8184	-0.00207091	    1.8184	  -51.7728	
   1.96676	-0.00205748	   1.98391	-0.00205856	   1.94948	-0.00204702	   1.96672	-0.00205435	   1.96672	  -51.3589	
   2.11393	-0.00204096	   2.13319	-0.00204191	    2.0984	-0.00202984	   2.11517	-0.00203757	   2.11517	  -50.9392	
   2.26087	-0.00202421	   2.28229	 -0.002025	   2.24737	-0.00201237	   2.26351	-0.00202053	   2.26351	  -50.5132	
   2.40818	-0.00200719	   2.43126	-0.00200783	   2.39615	-0.00199464	   2.41187	-0.00200322	   2.41187	  -50.0805	
   2.55533	-0.00198991	   2.57988	-0.00199039	   2.54478	-0.0019767	      2.56	-0.00198567	      2.56	  -49.6417	
   2.70208	-0.00197242	   2.72844	-0.00197273	   2.69357	-0.00195859	   2.70803	-0.00196791	   2.70803	  -49.1978	
   2.84878	-0.00195474	   2.87726	-0.0019549	   2.84225	-0.00194029	    2.8561	-0.00194998	    2.8561	  -48.7494	
   2.99625	-0.00193687	   3.02634	-0.0019369	   2.99061	-0.00192175	    3.0044	-0.00193184	    3.0044	   -48.296	
   3.14339	-0.00191878	   3.17567	-0.00191867	    3.1387	-0.00190294	   3.15258	-0.00191346	   3.15258	  -47.8366	
    3.2908	-0.00190043	   3.32526	-0.00190016	   3.28655	-0.00188385	   3.30087	-0.00189481	   3.30087	  -47.3703	
   3.43796	-0.00188181	   3.47432	-0.00188132	   3.43423	-0.00186452	   3.44884	-0.00187588	   3.44884	   -46.897	
   3.58545	-0.00186293	   3.62318	-0.0018622	   3.58177	-0.00184499	    3.5968	-0.00185671	    3.5968	  -46.4176	
   3.73299	-0.00184383	   3.77189	-0.00184287	   3.72895	-0.00182527	   3.74461	-0.00183733	   3.74461	  -45.9331	
   3.88063	-0.00182454	     3.921	-0.00182339	    3.8761	-0.00180534	   3.89258	-0.00181776	   3.89258	   -45.444	
   4.02811	-0.00180507	   4.06999	-0.00180377	   4.02299	-0.00178515	   4.04036	-0.00179799	   4.04036	  -44.9498	
   4.17522	-0.00178536	   4.21861	-0.00178391	   4.16967	-0.00176467	   4.18783	-0.00177798	   4.18783	  -44.4495	
   4.32254	-0.00176539	   4.36694	-0.00176377	   4.31592	-0.00174391	   4.33513	-0.00175769	   4.33513	  -43.9423	
   4.46957	-0.00174512	   4.51501	-0.00174333	   4.46182	-0.00172291	   4.48213	-0.00173712	   4.48213	   -43.428	
   4.61645	-0.00172455	   4.66272	-0.00172261	   4.60747	-0.00170169	   4.62888	-0.00171629	   4.62888	  -42.9071	
   4.76366	-0.00170374	   4.81029	-0.00170168	   4.75316	-0.00168027	    4.7757	-0.00169523	    4.7757	  -42.3808	
   4.91067	-0.00168276	   4.95749	-0.00168059	   4.89916	-0.00165862	   4.92244	-0.00167399	   4.92244	  -41.8497	
   5.05806	-0.00166163	   5.10465	-0.00165931	   5.04497	-0.00163669	   5.06923	-0.00165255	   5.06923	  -41.3136	
    5.2053	-0.00164031	   5.25181	-0.00163779	   5.19116	-0.00161448	   5.21609	-0.00163086	   5.21609	  -40.7714	
   5.35217	-0.00161871	   5.39899	-0.00161596	   5.33694	 -0.001592	    5.3627	-0.00160889	    5.3627	  -40.2222	
   5.49899	-0.00159678	   5.54569	-0.00159381	   5.48266	-0.00156928	   5.50911	-0.00158662	   5.50911	  -39.6656	
   5.64553	-0.00157455	   5.69198	-0.00157136	   5.62807	-0.00154636	   5.65519	-0.00156409	   5.65519	  -39.1023	
   5.79212	-0.00155209	   5.83768	-0.00154871	   5.77352	-0.00152323	   5.80111	-0.00154134	   5.80111	  -38.5336	
   5.93879	-0.00152947	    5.9826	-0.00152591	   5.91877	-0.00149985	   5.94672	-0.00151841	   5.94672	  -37.9602	
    6.0845	-0.0015067	    6.1271	-0.00150292	   6.06387	-0.00147619	   6.09182	-0.00149527	   6.09182	  -37.3817	
   6.23042	-0.00148371	   6.27153	-0.00147968	   6.20834	-0.00145226	   6.23676	-0.00147188	   6.23676	  -36.7971	
   6.37579	-0.00146044	   6.41593	-0.00145614	   6.35307	-0.00142808	    6.3816	-0.00144822	    6.3816	  -36.2055	
   6.52068	-0.00143686	   6.56007	-0.00143228	   6.49781	-0.00140368	   6.52619	-0.00142427	   6.52619	  -35.6068	
   6.66516	-0.00141303	   6.70376	-0.00140814	   6.64181	-0.00137907	   6.67025	-0.00140008	   6.67025	   -35.002	
   6.80906	-0.00138898	   6.84761	-0.0013838	   6.78597	-0.00135424	   6.81421	-0.00137567	   6.81421	  -34.3918	
   6.95298	-0.00136474	    6.9911	-0.00135926	   6.92951	-0.00132917	   6.95786	-0.00135106	   6.95786	  -33.7764	
    7.0967	-0.00134025	   7.13432	-0.0013345	   7.07307	-0.00130383	   7.10136	-0.0013262	   7.10136	  -33.1549	
   7.24003	-0.00131548	   7.27734	-0.00130949	   7.21588	-0.00127823	   7.24442	-0.00130107	   7.24442	  -32.5267	
   7.38355	-0.00129042	   7.42021	-0.00128419	   7.35806	-0.00125239	   7.38727	-0.00127567	   7.38727	  -31.8917	
   7.52676	-0.00126515	   7.56221	-0.00125859	   7.49997	-0.00122637	   7.52965	-0.00125004	   7.52965	  -31.2509	
   7.66975	-0.0012397	   7.70397	-0.00123273	   7.64142	-0.00120012	   7.67172	-0.00122418	   7.67172	  -30.6046	
   7.81205	-0.00121407	   7.84531	-0.00120667	   7.78249	-0.00117351	   7.81329	-0.00119808	   7.81329	  -29.9521	
   7.95402	-0.00118822	   7.98631	-0.00118042	   7.92301	-0.00114654	   7.95445	-0.00117173	   7.95445	  -29.2931	
   8.09547	-0.0011621	   8.12678	-0.00115396	   8.06334	-0.00111928	   8.09519	-0.00114511	   8.09519	  -28.6278	
   8.23649	-0.00113567	   8.26656	-0.00112724	   8.20327	-0.00109182	   8.23544	-0.00111824	   8.23544	  -27.9561	
   8.37719	-0.00110898	   8.40576	-0.00110022	   8.34317	-0.00106427	   8.37537	-0.00109116	   8.37537	  -27.2789	
   8.51805	-0.00108209	   8.54517	-0.00107293	   8.48288	-0.00103661	   8.51536	-0.00106387	   8.51536	  -26.5969	
   8.65869	-0.00105503	   8.68467	-0.00104545	   8.62268	-0.00100868	   8.65535	-0.00103639	   8.65535	  -25.9097	
   8.79919	-0.00102786	   8.82379	-0.00101785	    8.7621	-0.000980379	   8.79502	-0.00100869	   8.79502	  -25.2173	
   8.93908	-0.00100046	   8.96235	-0.0009901	   8.90122	-0.000951708	   8.93421	-0.000980755	   8.93421	  -24.5189	
   9.07846	-0.000972673	   9.10072	-0.000962117	   9.04012	-0.000922775	    9.0731	-0.000952521	    9.0731	   -23.813	
   9.21744	-0.000944503	   9.23844	-0.000933811	   9.17809	-0.000893706	   9.21132	-0.000924006	   9.21132	  -23.1002	
   9.35557	-0.000916063	   9.37616	-0.00090518	   9.31606	-0.000864562	   9.34926	-0.000895269	   9.34926	  -22.3817	
   9.49352	-0.0008875	   9.51368	-0.000876357	   9.45356	-0.000835271	   9.48692	-0.000866376	   9.48692	  -21.6594	
   9.63057	-0.000858939	   9.65081	-0.000847399	   9.59149	-0.000805718	   9.62429	-0.000837352	   9.62429	  -20.9338	
   9.76739	-0.000830337	   9.78713	-0.000818303	   9.72909	-0.000775839	    9.7612	-0.000808159	    9.7612	   -20.204	
    9.9038	-0.000801522	   9.92356	-0.000789043	   9.86643	-0.000745675	   9.89793	-0.000778747	   9.89793	  -19.4687	
   10.0399	-0.000772325	   10.0594	-0.000759547	   10.0031	-0.00071532	   10.0341	-0.000749064	   10.0341	  -18.7266	
   10.1755	-0.000742713	   10.1944	-0.000729752	   10.1389	-0.000684861	   10.1696	-0.000719108	   10.1696	  -17.9777	
   10.3105	-0.00071278	   10.3288	-0.000699696	   10.2746	-0.000654306	   10.3046	-0.000688927	   10.3046	  -17.2232	
    10.445	-0.000682735	   10.4627	-0.000669459	   10.4091	-0.000623597	   10.4389	-0.000658597	   10.4389	  -16.4649	
    10.578	-0.000652699	   10.5967	-0.000639105	   10.5434	-0.000592644	   10.5727	-0.000628149	   10.5727	  -15.7037	
   10.7103	-0.000622603	   10.7304	-0.000608659	   10.6774	-0.000561419	    10.706	-0.00059756	    10.706	   -14.939	
    10.842	-0.000592296	   10.8639	-0.000578081	   10.8114	-0.000529964	   10.8391	-0.00056678	   10.8391	  -14.1695	
   10.9746	-0.000561695	   10.9965	-0.00054729	   10.9455	-0.000498368	   10.9722	-0.000535784	   10.9722	  -13.3946	
   11.1065	-0.000530801	   11.1286	-0.000516242	   11.0794	-0.000466695	   11.1048	-0.000504579	   11.1048	  -12.6145	
   11.2388	-0.000499711	   11.2602	-0.00048497	   11.2126	-0.000434941	   11.2372	-0.000473207	   11.2372	  -11.8302	
   11.3717	-0.000468524	   11.3919	-0.000453559	   11.3446	-0.000403032	   11.3694	-0.000441705	   11.3694	  -11.0426	
   11.5038	-0.000437263	   11.5232	-0.000422078	   11.4757	-0.000370896	   11.5009	-0.000410079	   11.5009	   -10.252	
   11.6356	-0.000405897	   11.6536	-0.000390547	   11.6066	-0.000338524	   11.6319	-0.000378323	   11.6319	  -9.45807	
   11.7674	-0.00037436	   11.7835	-0.000358911	    11.737	-0.000305978	   11.7626	-0.000346416	   11.7626	  -8.66041	
   11.8977	-0.000342591	   11.9127	-0.000327102	   11.8667	-0.000273332	   11.8923	-0.000314342	   11.8923	  -7.85854	
   12.0283	-0.000310602	   12.0414	-0.000295091	   11.9957	-0.000240631	   12.0218	-0.000282108	   12.0218	   -7.0527	
   12.1581	-0.00027848	   12.1697	-0.000262908	   12.1244	-0.000207852	   12.1507	-0.000249747	   12.1507	  -6.24366	
   12.2873	-0.000246301	   12.2978	-0.000230608	   12.2527	-0.000174934	   12.2793	-0.000217281	   12.2793	  -5.43203	
   12.4167	-0.000214081	   12.4259	-0.000198247	   12.3801	-0.000141843	   12.4075	-0.000184724	   12.4075	  -4.61809	
   12.5447	-0.000181776	   12.5535	-0.000165837	    12.507	-0.000108577	   12.5351	-0.000152063	   12.5351	  -3.80159	
   12.6729	-0.000149317	   12.6805	-0.000133336	   12.6334	-7.52169e-05	   12.6622	-0.00011929	   12.6622	  -2.98225	
   12.7997	-0.000116678	   12.8065	-0.000100705	   12.7598	-4.18212e-05	   12.7887	-8.64017e-05	   12.7887	  -2.16004	
   12.9263	-8.39027e-05	   12.9322	-6.79583e-05	   12.8852	-8.43601e-06	   12.9146	-5.34323e-05	   12.9146	  -1.33581	
   13.0526	-5.1057e-05	   13.0576	-3.51201e-05	   13.0101	2.49304e-05	   13.0401	-2.04156e-05	   13.0401	 -0.510389	
   13.1783	-1.81809e-05	   13.1824	-2.23189e-06	   13.1343	5.83524e-05	    13.165	1.26465e-05	    13.165	  0.316164	
   13.3038	1.47357e-05	   13.3063	3.06917e-05	   13.2586	9.19321e-05	   13.2895	4.57865e-05	   13.2895	   1.14466	
   13.4281	4.77482e-05	   13.4294	 6.368e-05	   13.3834	0.000125682	   13.4137	7.90367e-05	   13.4137	   1.97592	
   13.5516	8.08889e-05	   13.5521	9.67505e-05	   13.5073	0.000159522	    13.537	0.000112387	    13.537	   2.80968	
    13.675	0.00011412	   13.6738	0.000129901	   13.6309	0.000193353	   13.6599	0.000145791	   13.6599	   3.64478	
   13.7979	0.000147345	   13.7952	0.00016311	   13.7538	0.000227098	   13.7823	0.000179184	   13.7823	    4.4796	
   13.9203	0.000180523	   13.9164	0.00019634	   13.8765	0.000260775	   13.9044	0.000212546	   13.9044	   5.31365	
   14.0418	0.000213682	   14.0374	0.000229613	   13.9989	0.000294519	    14.026	0.000245938	    14.026	   6.14845	
   14.1632	0.000246895	   14.1575	0.000262892	   14.1202	0.000328361	    14.147	0.000279383	    14.147	   6.98457	
   14.2838	0.000280221	   14.2772	0.000296172	    14.241	0.000362267	   14.2673	0.000312887	   14.2673	   7.82217	
   14.4037	0.000313652	    14.397	0.000329436	   14.3614	0.000396119	   14.3874	0.000346402	   14.3874	   8.66005	
    14.523	0.000347097	   14.5164	0.000362628	   14.4805	0.000429882	   14.5066	0.000379869	   14.5066	   9.49674	
   14.6421	0.000380457	   14.6366	0.000395769	   14.5996	0.000463561	   14.6261	0.000413262	   14.6261	   10.3316	
   14.7602	 0.0004137	   14.7566	0.00042896	   14.7183	0.000497237	    14.745	0.000446633	    14.745	   11.1658	
   14.8773	0.00044688	   14.8777	0.000462236	   14.8365	0.000530956	   14.8638	0.000480024	   14.8638	   12.0006	
   14.9938	0.000480073	   14.9956	0.000495579	   14.9543	0.000564727	   14.9812	0.000513459	   14.9812	   12.8365	
   15.1101	0.000513332	   15.1137	0.000528896	    15.072	0.000598476	   15.0986	0.000546901	   15.0986	   13.6725	
   15.2256	0.000546624	   15.2293	0.000562081	   15.1891	0.000632098	   15.2147	0.000580268	   15.2147	   14.5067	
   15.3406	0.000579869	   15.3432	0.000595089	   15.3061	0.000665554	     15.33	0.000613504	     15.33	   15.3376	
   15.4549	0.000612997	    15.458	0.000628004	   15.4225	0.000698902	   15.4452	0.000646634	   15.4452	   16.1658	
   15.5683	0.000646001	   15.5723	0.000660929	   15.5381	0.000732219	   15.5596	0.000679716	   15.5596	   16.9929	
   15.6811	0.000678922	   15.6874	0.000693915	    15.653	0.00076556	   15.6738	0.000712799	   15.6738	     17.82	
   15.7932	0.000711843	   15.8015	0.000726888	   15.7675	0.000798883	   15.7874	0.000745871	   15.7874	   18.6468	
   15.9042	0.00074478	   15.9152	0.000759732	   15.8811	0.000832089	   15.9002	0.000778867	   15.9002	   19.4717	
   16.0144	0.000777641	   16.0279	0.000792396	   15.9945	0.000865101	   16.0122	0.000811713	   16.0122	   20.2928	
   16.1242	0.000810346	   16.1392	0.000824887	   16.1066	0.000897928	   16.1234	0.000844387	   16.1234	   21.1097	
   16.2329	0.000842843	   16.2503	0.000857297	    16.218	0.000930634	   16.2337	0.000876924	   16.2337	   21.9231	
   16.3407	0.000875168	   16.3604	0.000889634	   16.3287	0.00096328	   16.3433	0.000909361	   16.3433	    22.734	
   16.4485	0.000907425	   16.4696	0.000921917	   16.4386	0.000995878	   16.4522	0.00094174	   16.4522	   23.5435	
   16.5558	0.000939693	   16.5783	0.000954064	   16.5476	0.00102837	   16.5606	0.000974042	   16.5606	    24.351	
   16.6628	0.000971924	   16.6858	0.000986057	   16.6563	0.00106067	   16.6683	0.00100622	   16.6683	   25.1554	
   16.7693	  0.001004	    16.793	 0.0010179	   16.7644	0.00109272	   16.7756	0.00103821	   16.7756	   25.9551	
   16.8752	 0.0010358	   16.8991	0.00104961	   16.8711	0.00112457	   16.8818	0.00106999	   16.8818	   26.7498	
   16.9805	0.00106733	   17.0047	0.00108111	   16.9769	0.00115626	   16.9874	0.00110157	   16.9874	   27.5392	
   17.0851	0.00109866	   17.1093	0.00111245	   17.0819	0.00118784	   17.0921	0.00113298	   17.0921	   28.3246	
   17.1888	 0.0011299	   17.2133	0.00114358	   17.1864	0.00121931	   17.1962	0.00116426	   17.1962	   29.1066	
   17.2919	0.00116107	   17.3164	0.00117454	   17.2904	 0.0012506	   17.2996	0.00119541	   17.2996	   29.8852	
   17.3943	0.00119213	    17.419	0.00120537	   17.3938	0.00128164	   17.4024	0.00122638	   17.4024	   30.6594	
   17.4964	0.00122293	   17.5206	 0.0012361	    17.496	0.00131239	   17.5044	0.00125714	   17.5044	   31.4285	
   17.5978	0.00125344	   17.6213	0.00126665	   17.5976	 0.0013429	   17.6056	0.00128766	   17.6056	   32.1915	
    17.698	0.00128366	   17.7217	0.00129696	   17.6989	0.00137323	   17.7062	0.00131795	   17.7062	   32.9487	
   17.7977	0.00131368	   17.8212	  0.001327	   17.7994	0.00140342	   17.8061	0.00134803	   17.8061	   33.7008	
   17.8966	0.00134358	   17.9195	0.00135677	    17.899	0.00143344	   17.9051	0.00137793	   17.9051	   34.4483	
   17.9949	0.00137339	   18.0174	0.00138631	   17.9973	 0.0014632	   18.0032	0.00140763	   18.0032	   35.1908	
   18.0921	0.00140303	   18.1148	0.00141568	   18.0953	0.00149266	   18.1007	0.00143712	   18.1007	    35.928	
   18.1888	0.00143239	   18.2113	0.00144488	    18.192	0.00152183	   18.1974	0.00146637	   18.1974	   36.6592	
   18.2847	0.00146142	   18.3073	0.00147388	   18.2879	0.00155083	   18.2933	0.00149538	   18.2933	   37.3845	
   18.3798	0.00149015	   18.4022	0.00150261	   18.3829	0.00157968	   18.3883	0.00152414	   18.3883	   38.1036	
    18.474	0.00151864	   18.4961	0.00153105	    18.477	0.00160833	   18.4824	0.00155267	   18.4824	   38.8168	
   18.5679	0.00154697	   18.5892	0.00155919	   18.5708	0.00163668	    18.576	0.00158095	    18.576	   39.5237	
   18.6614	0.00157516	   18.6816	0.00158709	   18.6636	0.00166468	   18.6689	0.00160898	   18.6689	   40.2244	
   18.7546	0.00160313	   18.7735	 0.0016148	   18.7558	0.00169232	   18.7613	0.00163675	   18.7613	   40.9187	
   18.8468	0.00163079	   18.8647	 0.0016423	   18.8471	0.00171968	   18.8529	0.00166426	   18.8529	   41.6065	
   18.9385	0.00165811	   18.9557	0.00166955	   18.9379	0.00174688	    18.944	0.00169151	    18.944	   42.2878	
   19.0294	 0.0016851	   19.0457	0.00169649	   19.0278	0.00177391	   19.0343	 0.0017185	   19.0343	   42.9626	
   19.1191	0.00171186	    19.135	0.00172312	   19.1171	0.00180069	   19.1237	0.00174522	   19.1237	   43.6306	
   19.2073	0.00173843	   19.2233	0.00174946	   19.2059	0.00182712	   19.2122	0.00177167	   19.2122	   44.2917	
   19.2946	0.00176476	   19.3113	0.00177555	   19.2941	0.00185316	      19.3	0.00179783	      19.3	   44.9457	
   19.3809	0.00179081	   19.3981	0.00180142	   19.3813	0.00187886	   19.3868	 0.0018237	   19.3868	   45.5924	
   19.4671	0.00181653	   19.4846	0.00182703	   19.4681	0.00190429	   19.4733	0.00184929	   19.4733	   46.2321	
   19.5529	0.00184193	     19.57	0.00185235	   19.5538	0.00192952	   19.5589	 0.0018746	   19.5589	   46.8649	
   19.6379	0.00186704	   19.6549	0.00187734	   19.6394	0.00195452	   19.6441	0.00189963	   19.6441	   47.4908	
    19.722	 0.0018919	   19.7387	  0.001902	   19.7241	 0.0019792	   19.7282	0.00192437	   19.7282	   48.1092	
   19.8056	0.00191648	   19.8219	0.00192638	   19.8083	0.00200351	   19.8119	0.00194879	   19.8119	   48.7198	
   19.8883	0.00194076	   19.9047	0.00195049	    19.892	0.00202743	    19.895	 0.0019729	    19.895	   49.3224	
   19.9707	0.00196472	   19.9871	0.00197435	   19.9751	0.00205099	   19.9776	0.00199668	   19.9776	   49.9171	
   20.0522	0.00198834	   20.0689	0.00199793	   20.0576	0.00207432	   20.0596	 0.0020202	   20.0596	   50.5049	
   20.1335	0.00201167	   20.1504	0.00202119	   20.1394	0.00209746	   20.1411	0.00204344	   20.1411	    51.086	
   20.2137	0.00203474	    20.231	0.00204412	   20.2201	0.00212037	   20.2216	0.00206641	   20.2216	   51.6602	
   20.2927	0.00205757	   20.3106	 0.0020667	   20.3002	0.00214295	   20.3012	0.00208907	   20.3012	   52.2268	
   20.3717	0.00208012	   20.3893	0.00208899	   20.3797	0.00216509	   20.3802	 0.0021114	   20.3802	    52.785	
   20.4503	0.00210236	   20.4673	  0.002111	   20.4588	0.00218677	   20.4588	0.00213338	   20.4588	   53.3344	
   20.5281	0.00212424	   20.5446	0.00213274	   20.5372	 0.0022081	   20.5366	0.00215503	   20.5366	   53.8757	
   20.6053	0.00214579	   20.6212	0.00215418	   20.6141	0.00222925	   20.6135	0.00217641	   20.6135	   54.4102	
   20.6813	0.00216704	   20.6969	 0.0021753	   20.6903	0.00225026	   20.6895	0.00219754	   20.6895	   54.9384	
   20.7566	0.00218808	    20.772	0.00219607	   20.7657	0.00227106	   20.7648	 0.0022184	   20.7648	   55.4601	
   20.8317	0.00220888	   20.8463	0.00221653	   20.8407	0.00229142	   20.8396	0.00223895	   20.8396	   55.9736	
   20.9063	0.00222938	   20.9198	0.00223669	   20.9152	0.00231122	   20.9138	 0.0022591	   20.9138	   56.4775	
   20.9802	0.00224947	   20.9927	0.00225658	    20.989	0.00233054	   20.9873	0.00227886	   20.9873	   56.9716	
   21.0526	0.00226915	   21.0652	0.00227619	   21.0615	0.00234959	   21.0598	0.00229831	   21.0598	   57.4577	
   21.1239	 0.0022885	   21.1372	0.00229553	   21.1336	0.00236856	   21.1316	0.00231753	   21.1316	   57.9383	
   21.1946	0.00230763	   21.2082	0.00231453	   21.2049	 0.0023875	   21.2026	0.00233655	   21.2026	   58.4139	
   21.2642	0.00232659	   21.2786	0.00233317	   21.2752	0.00240622	   21.2727	0.00235533	   21.2727	   58.8832	
   21.3339	0.00234535	   21.3484	0.00235143	   21.3445	0.00242449	   21.3422	0.00237376	   21.3422	   59.3439	
   21.4028	0.00236378	   21.4174	0.00236935	   21.4132	0.00244219	   21.4111	0.00239178	   21.4111	   59.7944	
   21.4712	 0.0023818	   21.4858	0.00238702	    21.481	0.00245943	   21.4793	0.00240942	   21.4793	   60.2355	
   21.5384	0.00239942	   21.5534	0.00240454	    21.548	0.00247643	   21.5466	 0.0024268	   21.5466	   60.6699	
   21.6048	0.00241671	   21.6199	0.00242187	   21.6143	0.00249337	    21.613	0.00244399	    21.613	   61.0996	
   21.6705	0.00243378	   21.6853	 0.0024389	   21.6796	0.00251023	   21.6785	0.00246097	   21.6785	   61.5242	
   21.7353	 0.0024507	   21.7495	0.00245551	   21.7443	0.00252681	    21.743	0.00247767	    21.743	   61.9419	
   21.7997	0.00246738	   21.8133	0.00247169	   21.8082	0.00254292	   21.8071	  0.002494	   21.8071	   62.3499	
   21.8639	0.00248375	   21.8756	 0.0024875	   21.8711	0.00255852	   21.8702	0.00250992	   21.8702	    62.748	
   21.9273	0.00249971	   21.9373	0.00250308	   21.9335	0.00257375	   21.9327	0.00252552	   21.9327	   63.1379	
   21.9899	0.00251526	   21.9979	0.00251852	   21.9949	0.00258884	   21.9943	0.00254087	   21.9943	   63.5218	
   22.0514	0.00253048	    22.058	0.00253378	   22.0552	0.00260386	   22.0549	0.00255604	   22.0549	    63.901	
   22.1118	 0.0025455	   22.1176	0.00254874	   22.1143	0.00261877	   22.1146	  0.002571	   22.1146	   64.2751	
   22.1718	0.00256043	   22.1765	0.00256331	   22.1729	0.00263335	   22.1737	 0.0025857	   22.1737	   64.6424	
   22.2311	 0.0025752	   22.2346	 0.0025775	   22.2302	0.00264747	    22.232	0.00260005	    22.232	   65.0014	
   22.2901	0.00258971	   22.2917	0.00259136	   22.2865	0.00266112	   22.2895	0.00261406	   22.2895	   65.3516	
   22.3477	0.00260388	   22.3481	0.00260495	   22.3417	0.00267446	   22.3458	0.00262776	   22.3458	   65.6941	
   22.4044	0.00261769	    22.403	0.00261831	   22.3959	0.00268766	   22.4011	0.00264122	   22.4011	   66.0305	
   22.4602	0.00263118	   22.4572	0.00263144	   22.4494	0.00270077	   22.4556	0.00265446	   22.4556	   66.3616	
   22.5152	0.00264445	   22.5106	0.00264431	   22.5018	 0.0027137	   22.5092	0.00266749	   22.5092	   66.6872	
   22.5694	0.00265756	   22.5633	 0.0026569	   22.5541	0.00272628	   22.5623	0.00268024	   22.5623	   67.0061	
   22.6229	0.00267047	   22.6152	0.00266921	   22.6054	0.00273843	   22.6145	 0.0026927	   22.6145	   67.3176	
   22.6747	0.00268314	   22.6659	0.00268125	   22.6557	 0.0027502	   22.6655	0.00270486	   22.6655	   67.6216	
   22.7257	 0.0026955	   22.7159	0.00269304	   22.7057	0.00276176	   22.7158	0.00271676	   22.7158	   67.9191	
   22.7758	0.00270756	   22.7651	 0.0027046	    22.755	 0.0027732	   22.7653	0.00272845	   22.7653	   68.2114	
   22.8247	0.00271935	   22.8128	0.00271594	   22.8034	0.00278454	   22.8136	0.00273994	   22.8136	   68.4986	
   22.8723	0.00273093	   22.8597	0.00272704	   22.8507	0.00279564	   22.8609	 0.0027512	   22.8609	   68.7801	
   22.9187	0.00274233	   22.9059	0.00273788	   22.8974	0.00280638	   22.9073	 0.0027622	   22.9073	   69.0549	
   22.9641	0.00275353	   22.9509	0.00274848	   22.9434	0.00281672	   22.9528	0.00277291	   22.9528	   69.3228	
    23.009	0.00276448	   22.9947	0.00275885	   22.9887	 0.0028268	   22.9975	0.00278338	   22.9975	   69.5844	
    23.053	0.00277514	    23.038	0.00276901	   23.0332	0.00283676	   23.0414	0.00279364	   23.0414	   69.8409	
   23.0965	0.00278551	   23.0802	0.00277896	   23.0771	0.00284667	   23.0846	0.00280371	   23.0846	   70.0928	
   23.1387	0.00279566	   23.1218	0.00278869	   23.1195	0.00285645	   23.1267	 0.0028136	   23.1267	     70.34	
   23.1795	0.00280565	   23.1629	0.00279823	   23.1613	0.00286593	   23.1679	0.00282327	   23.1679	   70.5818	
   23.2197	0.00281551	   23.2027	0.00280759	   23.2017	  0.002875	    23.208	 0.0028327	    23.208	   70.8175	
   23.2584	0.00282516	   23.2413	0.00281678	    23.241	0.00288376	   23.2469	 0.0028419	   23.2469	   71.0475	
   23.2957	0.00283456	   23.2786	0.00282578	   23.2792	0.00289234	   23.2845	0.00285089	   23.2845	   71.2723	
   23.3319	0.00284366	   23.3144	0.00283454	   23.3163	0.00290089	   23.3208	 0.0028597	   23.3208	   71.4924	
   23.3671	0.00285251	   23.3495	0.00284305	   23.3524	0.00290944	   23.3564	0.00286833	   23.3564	   71.7084	
   23.4019	0.00286115	   23.3843	0.00285137	    23.388	 0.0029179	   23.3914	0.00287681	   23.3914	   71.9202	
   23.4357	0.00286964	   23.4188	 0.0028595	   23.4226	0.00292608	   23.4257	0.00288507	   23.4257	   72.1268	
   23.4684	  0.002878	   23.4529	0.00286745	   23.4562	0.00293387	   23.4591	0.00289311	   23.4591	   72.3277	
   23.5002	0.00288618	   23.4863	0.00287529	   23.4888	0.00294129	   23.4918	0.00290092	   23.4918	    72.523	
   23.5318	0.00289414	   23.5187	0.00288298	   23.5203	0.00294849	   23.5236	0.00290854	   23.5236	   72.7134	
   23.5625	0.00290185	   23.5499	0.00289048	   23.5514	0.00295566	   23.5546	  0.002916	   23.5546	      72.9	
   23.5924	0.00290934	   23.5798	 0.0028978	   23.5818	0.00296285	   23.5847	0.00292333	   23.5847	   73.0832	
   23.6212	0.00291666	   23.6089	0.00290492	   23.6112	0.00296993	   23.6138	 0.0029305	   23.6138	   73.2625	
   23.6489	0.00292385	   23.6367	0.00291186	     23.64	0.00297675	   23.6419	0.00293749	   23.6419	   73.4372	
    23.676	0.00293091	   23.6641	0.00291867	   23.6678	0.00298323	   23.6693	0.00294427	   23.6693	   73.6068	
   23.7019	0.00293783	   23.6902	0.00292536	   23.6945	0.00298942	   23.6956	0.00295087	   23.6956	   73.7718	
   23.7267	0.00294451	   23.7152	0.00293192	   23.7201	 0.0029955	   23.7207	0.00295731	   23.7207	   73.9328	
   23.7512	0.00295092	   23.7396	0.00293831	   23.7448	0.00300158	   23.7452	 0.0029636	   23.7452	   74.0901	
   23.7739	0.00295709	   23.7632	0.00294452	   23.7685	0.00300765	   23.7685	0.00296975	   23.7685	   74.2439	
    23.796	0.00296313	   23.7858	0.00295055	   23.7908	0.00301358	   23.7909	0.00297575	   23.7909	   74.3937	
   23.8172	0.00296909	   23.8076	0.00295641	   23.8121	0.00301923	   23.8123	0.00298158	   23.8123	   74.5394	
   23.8373	0.00297498	   23.8285	0.00296214	   23.8328	0.00302458	   23.8329	0.00298724	   23.8329	   74.6809	
   23.8567	0.00298077	   23.8488	0.00296776	   23.8527	0.00302973	   23.8528	0.00299275	   23.8528	   74.8188	
   23.8751	0.00298637	   23.8682	0.00297327	   23.8719	0.00303483	   23.8717	0.00299815	   23.8717	   74.9539	
   23.8928	0.00299173	   23.8864	0.00297866	   23.8894	0.00303996	   23.8895	0.00300345	   23.8895	   75.0862	
   23.9097	 0.0029969	   23.9032	0.00298392	   23.9062	0.00304506	   23.9064	0.00300863	   23.9064	   75.2157	
   23.9263	0.00300192	   23.9187	0.00298905	   23.9217	0.00305005	   23.9222	0.00301367	   23.9222	   75.3419	
   23.9419	0.00300686	   23.9327	0.00299402	   23.9361	0.00305482	   23.9369	0.00301857	   23.9369	   75.4642	
   23.9565	0.00301172	   23.9457	0.00299884	    23.949	0.00305931	   23.9504	0.00302329	   23.9504	   75.5823	
   23.9697	0.00301645	   23.9576	0.00300353	   23.9613	0.00306362	   23.9629	0.00302787	   23.9629	   75.6966	
   23.9814	  0.003021	   23.9684	0.00300811	   23.9726	0.00306786	   23.9741	0.00303232	   23.9741	   75.8081	
   23.9919	 0.0030254	   23.9784	0.00301259	   23.9834	 0.0030721	   23.9846	 0.0030367	   23.9846	   75.9174	
    24.001	0.00302966	   23.9873	0.00301697	   23.9937	0.00307634	    23.994	0.00304099	    23.994	   76.0248	
   24.0096	0.00303386	    23.995	0.00302124	   24.0029	0.00308049	   24.0025	 0.0030452	   24.0025	   76.1299	
   24.0172	  0.003038	   24.0022	 0.0030254	   24.0112	0.00308445	   24.0102	0.00304928	   24.0102	    76.232	
   24.0235	0.00304205	   24.0081	0.00302943	   24.0186	0.00308818	   24.0167	0.00305322	   24.0167	   76.3305	
   24.0292	0.00304598	   24.0133	0.00303333	   24.0249	0.00309176	   24.0225	0.00305702	   24.0225	   76.4255	
   24.0338	0.00304974	   24.0172	0.00303711	   24.0304	 0.0030953	   24.0272	0.00306072	   24.0272	   76.5179	
   24.0377	0.00305335	     24.02	0.00304081	   24.0347	0.00309883	   24.0308	0.00306433	   24.0308	   76.6083	
   24.0402	0.00305686	   24.0216	0.00304444	   24.0381	0.00310236	   24.0333	0.00306789	   24.0333	   76.6972	
   24.0425	0.00306037	    24.022	0.00304798	   24.0408	0.00310583	   24.0351	0.00307139	   24.0351	   76.7848	
   24.0438	0.00306388	   24.0215	0.00305143	    24.043	0.00310904	   24.0361	0.00307478	   24.0361	   76.8696	
    24.044	0.00306736	   24.0204	0.00305475	    24.045	0.00311203	   24.0365	0.00307805	   24.0365	   76.9511	
    24.043	0.00307071	   24.0188	0.00305794	   24.0467	0.00311487	   24.0362	0.00308117	   24.0362	   77.0294	
   24.0414	0.00307384	   24.0164	0.00306105	   24.0487	0.00311771	   24.0355	 0.0030842	   24.0355	    77.105	
   24.0384	0.00307676	   24.0132	0.00306408	   24.0499	0.00312061	   24.0338	0.00308715	   24.0338	   77.1788	
   24.0348	 0.0030796	   24.0093	0.00306704	   24.0493	0.00312358	   24.0311	0.00309007	   24.0311	   77.2518	
   24.0299	0.00308245	   24.0047	0.00306991	   24.0476	0.00312646	   24.0274	0.00309294	   24.0274	   77.3236	
   24.0238	0.00308535	   23.9994	0.00307269	   24.0426	 0.0031291	   24.0219	0.00309571	   24.0219	   77.3929	
    24.017	0.00308823	   23.9927	0.00307535	   24.0371	 0.0031315	   24.0156	0.00309836	   24.0156	    77.459	
   24.0099	0.00309096	   23.9849	0.00307791	   24.0296	 0.0031338	   24.0081	0.00310089	   24.0081	   77.5223	
    24.002	0.00309349	   23.9765	0.00308041	   24.0222	0.00313613	   24.0002	0.00310334	   24.0002	   77.5836	
   23.9928	0.00309587	   23.9679	0.00308285	   24.0138	0.00313854	   23.9915	0.00310575	   23.9915	   77.6438	
   23.9823	0.00309821	   23.9584	0.00308522	   24.0045	0.00314096	   23.9818	0.00310813	   23.9818	   77.7033	
   23.9711	 0.0031006	   23.9478	0.00308753	   23.9948	0.00314325	   23.9712	0.00311046	   23.9712	   77.7614	
   23.9591	  0.003103	   23.9363	0.00308974	   23.9827	0.00314532	   23.9594	0.00311268	   23.9594	   77.8171	
   23.9465	0.00310534	   23.9234	0.00309186	   23.9697	 0.0031472	   23.9465	 0.0031148	   23.9465	     77.87	
   23.9331	0.00310751	   23.9091	0.00309391	   23.9561	0.00314903	   23.9327	0.00311682	   23.9327	   77.9204	
   23.9183	0.00310951	   23.8937	0.00309591	   23.9414	0.00315088	   23.9178	0.00311877	   23.9178	   77.9692	
   23.9026	0.00311141	   23.8772	0.00309787	   23.9263	 0.0031528	   23.9021	0.00312069	   23.9021	   78.0173	
   23.8858	 0.0031133	   23.8604	0.00309977	     23.91	0.00315471	   23.8854	 0.0031226	   23.8854	   78.0649	
   23.8677	0.00311524	   23.8428	0.00310161	   23.8929	0.00315649	   23.8678	0.00312445	   23.8678	   78.1112	
   23.8485	 0.0031172	   23.8246	0.00310337	   23.8751	0.00315809	   23.8494	0.00312622	   23.8494	   78.1554	
   23.8282	0.00311908	   23.8052	0.00310505	   23.8555	0.00315957	   23.8297	 0.0031279	   23.8297	   78.1975	
   23.8069	0.00312083	   23.7851	0.00310667	   23.8348	0.00316101	   23.8089	 0.0031295	   23.8089	   78.2376	
   23.7847	0.00312244	   23.7642	0.00310825	   23.8127	0.00316249	   23.7872	0.00313106	   23.7872	   78.2765	
   23.7622	0.00312399	   23.7421	0.00310979	   23.7894	0.00316399	   23.7646	0.00313259	   23.7646	   78.3148	
   23.7391	0.00312555	   23.7187	0.00311129	   23.7651	0.00316543	    23.741	0.00313409	    23.741	   78.3523	
   23.7151	0.00312714	   23.6948	0.00311272	   23.7403	0.00316672	   23.7167	0.00313552	   23.7167	   78.3881	
     23.69	 0.0031287	   23.6702	0.00311406	    23.715	0.00316786	   23.6917	0.00313687	   23.6917	   78.4219	
   23.6635	0.00313016	   23.6447	0.00311533	   23.6886	0.00316895	   23.6656	0.00313815	   23.6656	   78.4537	
   23.6364	0.00313149	   23.6186	0.00311654	   23.6615	0.00317006	   23.6388	0.00313936	   23.6388	   78.4841	
   23.6082	0.00313272	   23.5916	0.00311771	   23.6337	0.00317122	   23.6112	0.00314055	   23.6112	   78.5138	
   23.5791	0.00313392	   23.5638	0.00311889	   23.6049	0.00317235	   23.5826	0.00314172	   23.5826	    78.543	
   23.5491	0.00313514	   23.5344	0.00312004	    23.575	0.00317339	   23.5528	0.00314286	   23.5528	   78.5715	
    23.518	0.00313637	   23.5046	0.00312113	   23.5442	0.00317428	   23.5223	0.00314393	   23.5223	   78.5982	
   23.4858	0.00313754	   23.4738	0.00312215	   23.5128	0.00317504	   23.4908	0.00314491	   23.4908	   78.6227	
   23.4527	 0.0031386	   23.4421	0.00312308	   23.4807	0.00317577	   23.4585	0.00314582	   23.4585	   78.6454	
   23.4186	0.00313953	   23.4093	0.00312398	   23.4481	0.00317653	   23.4253	0.00314668	   23.4253	   78.6669	
   23.3839	0.00314038	   23.3754	0.00312484	   23.4143	0.00317733	   23.3912	0.00314752	   23.3912	    78.688	
   23.3478	0.00314123	   23.3406	0.00312566	   23.3797	0.00317812	    23.356	0.00314833	    23.356	   78.7084	
   23.3105	0.00314209	    23.305	0.00312642	   23.3444	 0.0031788	     23.32	 0.0031491	     23.32	   78.7276	
    23.272	0.00314295	   23.2684	0.00312713	   23.3079	0.00317933	   23.2828	 0.0031498	   23.2828	   78.7451	
   23.2333	0.00314373	   23.2309	0.00312779	   23.2708	0.00317978	    23.245	0.00315043	    23.245	   78.7608	
   23.1932	 0.0031444	   23.1928	0.00312839	   23.2332	0.00318022	   23.2064	  0.003151	   23.2064	   78.7751	
   23.1523	0.00314496	   23.1536	0.00312898	   23.1947	0.00318069	   23.1669	0.00315154	   23.1669	   78.7886	
   23.1101	0.00314548	   23.1137	 0.0031295	   23.1553	 0.0031812	   23.1264	0.00315206	   23.1264	   78.8015	
    23.067	  0.003146	   23.0729	0.00313001	   23.1145	0.00318167	   23.0848	0.00315256	   23.0848	    78.814	
   23.0227	0.00314653	   23.0312	0.00313052	   23.0724	0.00318203	   23.0421	0.00315303	   23.0421	   78.8256	
   22.9776	0.00314705	   22.9888	0.00313103	    23.029	0.00318227	   22.9985	0.00315345	   22.9985	   78.8363	
   22.9321	0.00314752	   22.9456	0.00313148	   22.9847	0.00318244	   22.9541	0.00315381	   22.9541	   78.8453	
   22.8867	 0.0031479	   22.9018	0.00313183	   22.9397	 0.0031826	   22.9094	0.00315411	   22.9094	   78.8528	
   22.8406	0.00314821	   22.8563	0.00313208	   22.8939	0.00318279	   22.8636	0.00315436	   22.8636	    78.859	
    22.794	0.00314847	   22.8097	0.00313227	    22.847	0.00318299	   22.8169	0.00315458	   22.8169	   78.8645	
   22.7463	0.00314872	   22.7625	0.00313247	   22.7992	0.00318314	   22.7693	0.00315478	   22.7693	   78.8694	
   22.6977	0.00314897	   22.7144	0.00313269	   22.7502	0.00318318	   22.7208	0.00315495	   22.7208	   78.8736	
   22.6483	 0.0031492	   22.6651	0.00313291	   22.7003	0.00318311	   22.6712	0.00315507	   22.6712	   78.8769	
   22.5985	0.00314936	   22.6151	0.00313307	     22.65	0.00318301	   22.6212	0.00315515	   22.6212	   78.8787	
   22.5481	0.00314944	   22.5641	0.00313317	   22.5987	0.00318292	   22.5703	0.00315518	   22.5703	   78.8794	
   22.4968	0.00314947	   22.5119	0.00313321	   22.5466	0.00318285	   22.5185	0.00315518	   22.5185	   78.8794	
   22.4446	0.00314947	   22.4589	0.00313321	   22.4936	0.00318276	   22.4657	0.00315515	   22.4657	   78.8787	
   22.3916	0.00314947	   22.4052	0.00313319	     22.44	0.00318261	   22.4123	0.00315509	   22.4123	   78.8773	
   22.3375	0.00314945	    22.351	0.00313317	   22.3853	0.00318236	    22.358	0.00315499	    22.358	   78.8749	
   22.2827	0.00314939	   22.2958	0.00313314	   22.3299	0.00318204	   22.3028	0.00315485	   22.3028	   78.8714	
   22.2273	0.00314925	   22.2395	0.00313307	   22.2736	0.00318171	   22.2468	0.00315468	   22.2468	   78.8669	
   22.1708	0.00314906	   22.1821	0.00313296	   22.2162	0.00318139	   22.1897	0.00315447	   22.1897	   78.8617	
   22.1135	0.00314883	   22.1243	 0.0031328	   22.1575	0.00318107	   22.1318	0.00315423	   22.1318	   78.8558	
   22.0554	0.00314859	   22.0651	0.00313259	   22.0981	0.00318071	   22.0729	0.00315397	   22.0729	   78.8491	
   21.9959	0.00314835	   22.0049	0.00313239	   22.0377	0.00318027	   22.0128	0.00315367	   22.0128	   78.8418	
   21.9351	0.00314807	    21.944	 0.0031322	   21.9767	0.00317975	    21.952	0.00315334	    21.952	   78.8335	
   21.8734	0.00314775	   21.8826	0.00313197	   21.9143	0.00317919	   21.8901	0.00315297	   21.8901	   78.8242	
   21.8112	0.00314736	   21.8208	0.00313167	   21.8511	0.00317863	   21.8277	0.00315255	   21.8277	   78.8138	
   21.7472	0.00314692	   21.7582	0.00313128	   21.7871	0.00317809	   21.7642	 0.0031521	   21.7642	   78.8024	
   21.6821	0.00314645	   21.6951	0.00313082	   21.7223	0.00317755	   21.6999	0.00315161	   21.6999	   78.7901	
   21.6162	0.00314597	    21.631	0.00313037	   21.6562	  0.003177	   21.6345	0.00315111	   21.6345	   78.7778	
   21.5497	0.00314548	   21.5661	0.00312996	   21.5889	0.00317636	   21.5683	 0.0031506	   21.5683	   78.7651	
   21.4825	0.00314497	   21.5003	0.00312958	   21.5207	0.00317561	   21.5012	0.00315005	   21.5012	   78.7513	
   21.4144	 0.0031444	   21.4336	0.00312917	   21.4514	0.00317477	   21.4331	0.00314945	   21.4331	   78.7361	
    21.345	0.00314376	   21.3657	0.00312866	   21.3809	0.00317392	   21.3638	0.00314878	   21.3638	   78.7195	
   21.2749	0.00314309	   21.2966	0.00312804	   21.3095	0.00317313	   21.2937	0.00314808	   21.2937	   78.7021	
    21.204	0.00314239	   21.2263	0.00312737	   21.2373	0.00317239	   21.2225	0.00314739	   21.2225	   78.6846	
   21.1322	0.00314168	   21.1547	0.00312672	   21.1643	0.00317164	   21.1504	0.00314668	   21.1504	    78.667	
   21.0595	0.00314097	   21.0826	0.00312612	   21.0903	0.00317076	   21.0775	0.00314595	   21.0775	   78.6488	
   20.9859	0.00314023	   21.0095	0.00312552	   21.0155	0.00316975	   21.0037	0.00314517	   21.0037	   78.6292	
   20.9114	0.00313943	    20.935	0.00312488	   20.9401	0.00316867	   20.9288	0.00314433	   20.9288	   78.6082	
   20.8359	0.00313857	   20.8589	0.00312412	   20.8641	0.00316756	    20.853	0.00314342	    20.853	   78.5854	
   20.7602	0.00313771	   20.7823	0.00312325	   20.7876	0.00316648	   20.7767	0.00314248	   20.7767	    78.562	
   20.6834	0.00313682	   20.7046	0.00312238	   20.7101	0.00316552	   20.6994	0.00314157	   20.6994	   78.5393	
   20.6058	0.00313588	   20.6262	0.00312156	    20.632	 0.0031646	   20.6214	0.00314068	   20.6214	    78.517	
   20.5277	0.00313488	   20.5467	0.00312081	   20.5527	0.00316361	   20.5424	0.00313977	   20.5424	   78.4942	
   20.4481	0.00313385	   20.4658	0.00312002	   20.4727	0.00316247	   20.4622	0.00313878	   20.4622	   78.4695	
    20.367	0.00313281	    20.384	 0.0031191	    20.392	0.00316117	    20.381	0.00313769	    20.381	   78.4423	
    20.285	0.00313179	   20.3019	0.00311804	   20.3101	0.00315974	    20.299	0.00313652	    20.299	   78.4131	
   20.2019	0.00313077	   20.2189	0.00311693	   20.2274	0.00315836	   20.2161	0.00313535	   20.2161	   78.3839	
    20.118	0.00312972	   20.1354	0.00311588	   20.1438	0.00315711	   20.1324	0.00313424	   20.1324	    78.356	
   20.0334	0.00312857	   20.0511	0.00311492	   20.0595	0.00315596	    20.048	0.00313315	    20.048	   78.3288	
   19.9482	0.00312733	   19.9658	0.00311392	    19.975	0.00315477	    19.963	0.00313201	    19.963	   78.3002	
   19.8622	0.00312603	   19.8796	0.00311282	   19.8899	0.00315345	   19.8772	0.00313077	   19.8772	   78.2692	
   19.7757	0.00312474	   19.7922	0.00311156	   19.8039	0.00315196	   19.7906	0.00312942	   19.7906	   78.2355	
   19.6879	0.00312349	   19.7038	0.00311022	   19.7171	0.00315037	   19.7029	0.00312802	   19.7029	   78.2006	
   19.5995	0.00312225	   19.6147	 0.0031089	   19.6298	0.00314884	   19.6146	0.00312666	   19.6146	   78.1665	
   19.5104	0.00312096	   19.5247	0.00310768	   19.5415	0.00314744	   19.5255	0.00312536	   19.5255	    78.134	
   19.4201	0.00311958	   19.4343	0.00310652	   19.4526	0.00314615	   19.4357	0.00312408	   19.4357	   78.1021	
   19.3291	0.00311811	   19.3425	0.00310535	   19.3636	0.00314484	   19.3451	0.00312276	   19.3451	   78.0691	
   19.2371	 0.0031166	     19.25	0.00310406	   19.2741	 0.0031434	   19.2537	0.00312135	   19.2537	   78.0338	
   19.1445	 0.0031151	   19.1568	0.00310265	   19.1838	0.00314185	   19.1617	0.00311987	   19.1617	   77.9967	
   19.0516	0.00311364	   19.0632	0.00310119	   19.0926	0.00314024	   19.0691	0.00311835	   19.0691	   77.9588	
    18.958	0.00311217	   18.9683	0.00309976	   19.0009	0.00313869	   18.9757	0.00311687	   18.9757	   77.9217	
   18.8637	0.00311065	   18.8734	 0.0030984	    18.908	0.00313721	   18.8817	0.00311542	   18.8817	   77.8855	
   18.7686	0.00310902	   18.7777	0.00309707	   18.8139	0.00313571	   18.7868	0.00311393	   18.7868	   77.8483	
   18.6732	0.00310727	   18.6814	0.00309568	   18.7185	0.00313411	    18.691	0.00311235	    18.691	   77.8088	
   18.5771	0.00310545	   18.5846	0.00309416	   18.6227	0.00313239	   18.5948	0.00311067	   18.5948	   77.7667	
   18.4801	0.00310364	   18.4874	0.00309253	   18.5262	0.00313061	   18.4979	0.00310893	   18.4979	   77.7232	
   18.3827	0.00310187	   18.3899	0.00309087	   18.4286	0.00312888	   18.4004	0.00310721	   18.4004	   77.6802	
   18.2843	0.00310013	   18.2911	0.00308925	   18.3305	0.00312724	    18.302	0.00310554	    18.302	   77.6385	
   18.1851	0.00309834	   18.1909	0.00308767	   18.2313	0.00312565	   18.2024	0.00310389	   18.2024	   77.5971	
   18.0851	0.00309645	   18.0896	0.00308608	   18.1309	0.00312396	   18.1019	0.00310216	   18.1019	   77.5541	
   17.9846	0.00309449	    17.988	0.00308439	   18.0292	0.00312209	   18.0006	0.00310032	   18.0006	   77.5081	
   17.8838	0.00309246	   17.8861	0.00308259	   17.9273	0.00312007	    17.899	0.00309837	    17.899	   77.4593	
   17.7816	0.00309042	   17.7836	 0.0030807	   17.8251	0.00311803	   17.7967	0.00309638	   17.7967	   77.4096	
   17.6789	0.00308838	   17.6807	0.00307881	   17.7226	0.00311606	   17.6941	0.00309442	   17.6941	   77.3604	
   17.5757	0.00308633	    17.577	0.00307694	   17.6198	0.00311417	   17.5908	0.00309248	   17.5908	   77.3121	
   17.4712	0.00308423	   17.4724	 0.0030751	   17.5159	0.00311228	   17.4865	0.00309054	   17.4865	   77.2634	
   17.3657	0.00308206	   17.3665	0.00307322	   17.4108	0.00311027	    17.381	0.00308852	    17.381	   77.2129	
   17.2593	0.00307981	     17.26	0.00307132	   17.3051	0.00310811	   17.2748	0.00308641	   17.2748	   77.1602	
   17.1522	 0.0030775	   17.1531	 0.0030693	   17.1977	0.00310581	   17.1677	 0.0030842	   17.1677	   77.1051	
   17.0446	0.00307517	   17.0462	0.00306714	     17.09	0.00310349	   17.0603	0.00308194	   17.0603	   77.0484	
    16.936	0.00307283	   16.9378	0.00306485	   16.9816	0.00310124	   16.9518	0.00307964	   16.9518	    76.991	
   16.8267	0.00307048	   16.8289	0.00306252	   16.8729	0.00309905	   16.8428	0.00307735	   16.8428	   76.9337	
   16.7167	0.00306807	   16.7222	0.00306022	   16.7646	0.00309686	   16.7345	0.00307505	   16.7345	   76.8763	
   16.6059	 0.0030656	   16.6141	0.00305808	   16.6551	0.00309456	    16.625	0.00307275	    16.625	   76.8187	
   16.4942	0.00306307	   16.5066	0.00305595	   16.5444	 0.0030921	   16.5151	0.00307037	   16.5151	   76.7593	
   16.3818	0.00306048	   16.3935	0.00305371	   16.4324	0.00308954	   16.4025	0.00306791	   16.4025	   76.6978	
   16.2684	0.00305787	    16.281	0.00305127	   16.3194	0.00308698	   16.2896	0.00306537	   16.2896	   76.6344	
   16.1542	0.00305526	   16.1656	0.00304866	   16.2066	0.00308448	   16.1755	 0.0030628	   16.1755	   76.5699	
   16.0393	0.00305261	   16.0495	0.00304598	    16.093	0.00308201	   16.0606	 0.0030602	   16.0606	   76.5051	
   15.9232	 0.0030499	   15.9341	0.00304344	   15.9794	0.00307951	   15.9456	0.00305762	   15.9456	   76.4404	
   15.8067	0.00304712	   15.8177	0.00304101	   15.8648	0.00307688	   15.8297	0.00305501	   15.8297	   76.3751	
   15.6894	0.00304429	   15.7013	0.00303857	   15.7498	0.00307413	   15.7135	0.00305233	   15.7135	   76.3082	
   15.5715	0.00304142	   15.5853	0.00303598	   15.6341	 0.0030713	    15.597	0.00304957	    15.597	   76.2392	
   15.4532	0.00303854	    15.468	0.00303318	    15.518	0.00306848	   15.4797	0.00304673	   15.4797	   76.1683	
   15.3345	0.00303564	    15.351	0.00303023	   15.4014	0.00306569	   15.3623	0.00304385	   15.3623	   76.0963	
   15.2157	0.00303268	    15.232	0.00302728	   15.2836	0.00306289	   15.2438	0.00304095	   15.2438	   76.0238	
   15.0962	0.00302965	   15.1131	0.00302443	   15.1649	0.00306002	   15.1247	0.00303803	   15.1247	   75.9508	
   14.9764	0.00302655	   14.9931	0.00302165	   15.0458	0.00305702	   15.0051	0.00303507	   15.0051	   75.8768	
   14.8558	 0.0030234	   14.8719	0.00301881	   14.9256	0.00305391	   14.8844	0.00303204	   14.8844	    75.801	
   14.7346	0.00302027	   14.7506	0.00301581	   14.8046	0.00305076	   14.7633	0.00302895	   14.7633	   75.7237	
   14.6128	 0.0030171	   14.6286	0.00301264	   14.6832	0.00304761	   14.6415	0.00302578	   14.6415	   75.6445	
   14.4908	0.00301391	   14.5057	0.00300938	   14.5614	0.00304445	   14.5193	0.00302258	   14.5193	   75.5644	
   14.3685	0.00301059	   14.3825	0.00300613	   14.4394	0.00304123	   14.3968	0.00301932	   14.3968	   75.4829	
   14.2462	0.00300709	   14.2581	0.00300296	   14.3167	0.00303788	   14.2737	0.00301598	   14.2737	   75.3994	
   14.1244	0.00300346	   14.1336	0.00299981	   14.1933	0.00303445	   14.1505	0.00301257	   14.1505	   75.3143	
   14.0021	0.00299986	   14.0083	0.00299659	   14.0693	0.00303099	   14.0266	0.00300915	   14.0266	   75.2287	
   13.8801	0.00299637	   13.8827	0.00299322	   13.9444	0.00302761	   13.9024	0.00300573	   13.9024	   75.1432	
   13.7548	0.00299297	   13.7565	0.00298967	   13.8187	 0.0030242	   13.7767	0.00300228	   13.7767	    75.057	
   13.6301	0.00298955	   13.6298	0.00298602	   13.6924	0.00302059	   13.6508	0.00299872	   13.6508	    74.968	
   13.5017	0.00298596	   13.5027	0.00298235	    13.566	0.00301672	   13.5235	0.00299501	   13.5235	   74.8753	
   13.3732	0.00298213	    13.375	0.00297866	   13.4397	0.00301268	    13.396	0.00299116	    13.396	   74.7789	
   13.2442	0.00297817	    13.247	  0.002975	   13.3151	0.00300863	   13.2688	0.00298727	   13.2688	   74.6817	
   13.1147	0.00297423	   13.1182	0.00297138	   13.1893	0.00300475	   13.1407	0.00298345	   13.1407	   74.5864	
   12.9854	0.00297038	   12.9884	0.00296774	    13.064	0.00300102	   13.0126	0.00297971	   13.0126	   74.4928	
   12.8558	0.00296659	   12.8579	  0.002964	   12.9353	0.00299724	    12.883	0.00297594	    12.883	   74.3985	
   12.7262	0.00296273	    12.727	0.00296012	   12.8048	0.00299316	   12.7527	  0.002972	   12.7527	   74.3001	
   12.5955	0.00295867	   12.5958	0.00295607	   12.6741	0.00298881	   12.6218	0.00296785	   12.6218	   74.1963	
   12.4636	0.00295442	   12.4643	 0.0029519	   12.5415	 0.0029843	   12.4898	0.00296354	   12.4898	   74.0885	
   12.3321	0.00295006	   12.3327	0.00294769	   12.4095	0.00297991	   12.3581	0.00295922	   12.3581	   73.9805	
   12.1994	0.00294574	   12.2006	0.00294351	   12.2769	0.00297571	   12.2256	0.00295499	   12.2256	   73.8747	
   12.0665	0.00294149	   12.0681	0.00293935	   12.1442	0.00297157	   12.0929	0.00295081	   12.0929	   73.7701	
   11.9338	0.00293728	   11.9353	0.00293513	   12.0116	0.00296723	   11.9602	0.00294655	   11.9602	   73.6636	
   11.8006	0.00293298	   11.8021	0.00293077	   11.8777	0.00296257	   11.8268	0.00294211	   11.8268	   73.5527	
   11.6672	0.00292853	   11.6686	0.00292625	   11.7436	0.00295766	   11.6931	0.00293748	   11.6931	    73.437	
   11.5331	0.00292388	   11.5347	0.00292164	   11.6086	0.00295272	   11.5588	0.00293275	   11.5588	   73.3186	
   11.3991	0.00291911	      11.4	0.00291699	   11.4721	0.00294794	   11.4238	0.00292801	   11.4238	   73.2003	
   11.2643	0.00291434	   11.2657	0.00291233	   11.3356	0.00294332	   11.2885	0.00292333	   11.2885	   73.0833	
   11.1287	0.00290961	   11.1313	0.00290764	   11.1978	0.00293867	   11.1526	0.00291864	   11.1526	    72.966	
    10.993	 0.0029049	   10.9963	0.00290287	     11.06	0.00293378	   11.0164	0.00291385	   11.0164	   72.8462	
   10.8573	 0.0029001	   10.8606	0.00289797	   10.9218	 0.0029286	   10.8799	0.00290889	   10.8799	   72.7223	
   10.7219	0.00289514	   10.7242	0.00289296	   10.7831	0.00292325	   10.7431	0.00290379	   10.7431	   72.5946	
   10.5865	0.00289003	   10.5871	 0.0028879	   10.6443	0.00291791	    10.606	0.00289861	    10.606	   72.4653	
   10.4508	0.00288482	   10.4496	0.00288281	   10.5051	 0.0029127	   10.4685	0.00289344	   10.4685	   72.3361	
   10.3145	0.00287961	   10.3119	0.00287771	   10.3654	0.00290758	   10.3306	 0.0028883	   10.3306	   72.2074	
   10.1778	0.00287441	   10.1743	0.00287254	   10.2253	0.00290235	   10.1924	 0.0028831	   10.1924	   72.0775	
   10.0406	0.00286918	   10.0363	0.00286728	   10.0853	0.00289688	   10.0541	0.00287778	   10.0541	   71.9445	
   9.90278	0.00286385	   9.89767	0.00286188	    9.9447	 0.0028911	   9.91505	0.00287228	   9.91505	   71.8069	
   9.76474	0.00285835	   9.75846	0.00285637	   9.80386	0.00288516	   9.77568	0.00286662	   9.77568	   71.6656	
   9.62647	0.00285272	   9.61888	0.00285079	   9.66272	0.00287922	   9.63602	0.00286091	   9.63602	   71.5227	
   9.48745	0.00284702	   9.47871	0.00284519	   9.52104	0.00287339	   9.49573	 0.0028552	   9.49573	     71.38	
   9.34763	 0.0028413	    9.3384	0.00283956	    9.3785	 0.0028676	   9.35484	0.00284949	   9.35484	   71.2372	
   9.20782	0.00283557	   9.19792	0.00283385	   9.23565	0.00286166	    9.2138	0.00284369	    9.2138	   71.0923	
   9.06742	0.00282976	   9.05723	0.00282803	     9.093	0.00285545	   9.07255	0.00283774	   9.07255	   70.9436	
    8.9267	0.00282381	    8.9163	0.00282207	   8.95022	0.00284897	   8.93107	0.00283161	   8.93107	   70.7904	
   8.78536	0.00281769	   8.77482	0.00281603	   8.80755	0.00284237	   8.78924	0.00282536	   8.78924	   70.6341	
   8.64367	0.00281145	   8.63332	0.00280993	   8.66439	0.00283584	   8.64713	0.00281907	   8.64713	   70.4768	
   8.50162	0.00280515	   8.49123	0.00280379	   8.52127	0.00282938	    8.5047	0.00281277	    8.5047	   70.3193	
   8.35864	0.00279882	   8.34854	0.00279757	   8.37788	0.00282287	   8.36169	0.00280642	   8.36169	   70.1605	
   8.21531	 0.0027924	   8.20527	0.00279127	   8.23421	0.00281613	   8.21826	0.00279993	   8.21826	   69.9983	
   8.07161	0.00278587	   8.06193	0.00278484	    8.0897	 0.0028091	   8.07441	0.00279327	   8.07441	   69.8318	
   7.92753	 0.0027792	   7.91824	 0.0027783	   7.94518	0.00280186	   7.93031	0.00278645	   7.93031	   69.6614	
   7.78331	0.00277243	   7.77469	0.00277167	    7.8006	0.00279461	    7.7862	0.00277957	    7.7862	   69.4893	
   7.63868	 0.0027656	    7.6302	0.00276497	    7.6554	0.00278747	   7.64143	0.00277268	   7.64143	    69.317	
   7.49388	0.00275874	   7.48505	 0.0027582	   7.51014	0.00278035	   7.49635	0.00276576	   7.49635	    69.144	
   7.34863	0.00275176	   7.33952	0.00275132	   7.36476	0.00277312	   7.35097	0.00275873	   7.35097	   68.9683	
    7.2024	0.00274463	   7.19361	0.00274431	   7.21925	0.00276566	   7.20509	0.00275153	   7.20509	   68.7883	
    7.0555	0.00273731	   7.04732	0.00273719	   7.07332	0.00275794	   7.05871	0.00274415	   7.05871	   68.6037	
   6.90796	0.00272987	   6.90038	0.00272996	   6.92749	0.00275005	   6.91194	0.00273663	   6.91194	   68.4157	
   6.76058	0.00272231	    6.7536	0.00272266	   6.78145	0.00274219	   6.76521	0.00272905	   6.76521	   68.2263	
   6.61307	0.00271469	   6.60668	0.00271529	    6.6352	0.00273436	   6.61832	0.00272145	   6.61832	   68.0362	
   6.46513	0.00270702	    6.4596	0.00270783	   6.48897	0.00272647	   6.47123	0.00271377	   6.47123	   67.8442	
   6.31731	 0.0026993	   6.31233	0.00270024	     6.343	 0.0027184	   6.32421	0.00270598	   6.32421	   67.6495	
   6.16931	0.00269151	    6.1646	0.00269251	    6.1967	 0.0027101	   6.17687	0.00269804	   6.17687	    67.451	
   6.02163	0.00268357	   6.01721	0.00268464	   6.05059	0.00270158	   6.02981	0.00268993	   6.02981	   67.2483	
   5.87317	0.00267545	   5.86983	0.00267665	   5.90409	0.00269299	   5.88236	 0.0026817	   5.88236	   67.0424	
   5.72501	0.00266709	   5.72218	0.00266858	   5.75722	 0.0026844	    5.7348	0.00267335	    5.7348	   66.8339	
   5.57648	0.00265854	   5.57383	0.00266041	   5.61048	0.00267577	   5.58693	0.00266491	   5.58693	   66.6227	
   5.42795	0.00264998	   5.42522	0.00265213	   5.46331	0.00266701	   5.43883	0.00265637	   5.43883	   66.4093	
   5.27886	0.00264145	   5.27635	0.00264371	   5.31572	0.00265801	   5.29031	0.00264773	   5.29031	   66.1932	
   5.13029	0.00263292	   5.12775	0.00263515	   5.16771	0.00264878	   5.14192	0.00263895	   5.14192	   65.9737	
   4.98138	0.00262425	   4.97884	0.00262645	   5.01928	0.00263938	   4.99317	0.00263002	   4.99317	   65.7506	
   4.83214	0.00261528	   4.82936	0.00261762	   4.87045	0.00262993	   4.84398	0.00262094	   4.84398	   65.5236	
   4.68256	0.00260597	   4.67986	 0.0026087	   4.72096	0.00262046	   4.69446	0.00261171	   4.69446	   65.2927	
   4.53318	0.00259649	   4.53085	0.00259967	    4.5711	 0.0026109	   4.54504	0.00260235	   4.54504	   65.0588	
    4.3837	0.00258703	   4.38146	0.00259053	    4.4214	0.00260117	   4.39552	0.00259291	   4.39552	   64.8228	
   4.23357	0.00257764	   4.23172	0.00258124	   4.27184	0.00259124	   4.24571	0.00258337	   4.24571	   64.5843	
   4.08389	0.00256827	   4.08215	0.00257178	   4.12212	0.00258112	   4.09605	0.00257372	   4.09605	   64.3431	
   3.93432	 0.0025587	   3.93271	0.00256218	   3.97197	0.00257086	   3.94633	0.00256391	   3.94633	   64.0978	
   3.78458	0.00254874	   3.78284	0.00255244	   3.82192	0.00256053	   3.79645	 0.0025539	   3.79645	   63.8476	
   3.63491	0.00253839	   3.63256	0.00254258	   3.67169	 0.0025501	   3.64639	0.00254369	   3.64639	   63.5923	
   3.48503	0.00252788	   3.48241	0.00253259	   3.52152	0.00253954	   3.49632	0.00253334	   3.49632	   63.3335	
   3.33521	0.00251744	    3.3321	0.00252245	    3.3714	0.00252879	   3.34624	 0.0025229	   3.34624	   63.0724	
   3.18541	0.00250716	   3.18215	0.00251215	   3.22131	0.00251783	   3.19629	0.00251238	   3.19629	   62.8095	
   3.03561	0.00249686	   3.03225	0.00250169	   3.07175	0.00250671	   3.04654	0.00250175	   3.04654	   62.5438	
   2.88526	0.00248629	   2.88262	0.00249106	   2.92161	0.00249549	    2.8965	0.00249095	    2.8965	   62.2737	
   2.73493	0.00247528	    2.7335	0.00248027	   2.77116	0.00248418	   2.74653	0.00247991	   2.74653	   61.9977	
   2.58405	0.00246391	   2.58401	0.00246933	   2.62042	0.00247274	   2.59616	0.00246866	   2.59616	   61.7165	
   2.43292	0.00245239	   2.43445	0.00245828	   2.46912	0.00246114	    2.4455	0.00245727	    2.4455	   61.4317	
   2.28127	0.00244096	   2.28451	0.00244712	   2.31757	 0.0024493	   2.29445	 0.0024458	   2.29445	   61.1449	
   2.12941	0.00242966	   2.13423	0.00243581	   2.16576	0.00243726	   2.14313	0.00243424	   2.14313	   60.8561	
   1.97706	0.00241832	   1.98254	0.00242431	   2.01397	0.00242504	   1.99119	0.00242256	   1.99119	   60.5639	
   1.82478	 0.0024067	    1.8306	0.00241257	   1.86191	0.00241269	    1.8391	0.00241065	    1.8391	   60.2663	
    1.6723	0.00239467	   1.67816	0.00240066	   1.71011	0.00240022	   1.68686	0.00239852	   1.68686	   59.9629	
   1.51986	0.00238235	   1.52641	0.00238858	   1.55861	0.00238759	   1.53496	0.00238617	   1.53496	   59.6543	
   1.36747	0.00236993	   1.37489	0.00237634	   1.40756	0.00237475	   1.38331	0.00237368	   1.38331	   59.3419	
   1.21483	0.00235757	   1.22385	0.00236398	   1.25638	 0.0023617	   1.23169	0.00236108	   1.23169	   59.0271	
   1.06222	0.00234524	    1.0727	0.00235143	   1.10481	0.00234845	   1.07991	0.00234838	   1.07991	   58.7094	
  0.909369	0.00233275	  0.921426	0.00233869	  0.953395	0.00233504	  0.928063	0.00233549	  0.928063	   58.3874	
  0.756538	0.00231992	  0.769762	 0.0023257	  0.802096	0.00232149	  0.776132	0.00232237	  0.776132	   58.0593	
  0.603979	0.00230672	  0.618249	0.00231249	  0.650887	0.00230774	  0.624372	0.00230899	  0.624372	   57.7246	
  0.451135	0.00229328	  0.465806	 0.0022991	   0.49975	 0.0022938	   0.47223	0.00229539	   0.47223	   57.3848	
  0.298542	0.00227977	  0.312759	0.00228556	  0.348658	0.00227965	  0.319987	0.00228166	  0.319987	   57.0415	
  0.146167	0.00226627	   0.16073	0.00227189	  0.197325	0.00226535	  0.168074	0.00226783	  0.168074	   56.6959	
-0.00681144	0.00225269	 0.0075117	0.00225804	 0.0460211	 0.0022509	 0.0155738	0.00225388	 0.0155738	   56.3469	
 -0.159827	0.00223887	 -0.144703	0.00224395	 -0.105802	0.00223628	 -0.136778	 0.0022397	 -0.136778	   55.9925	
  -0.31289	 0.0022247	 -0.297322	 0.0022296	 -0.257327	0.00222143	  -0.28918	0.00222524	  -0.28918	    55.631	
 -0.466268	0.00221019	 -0.449796	0.00221502	 -0.409119	0.00220632	 -0.441728	0.00221051	 -0.441728	   55.2627	
 -0.618889	0.00219549	 -0.601102	0.00220026	 -0.560643	0.00219099	 -0.593545	0.00219558	 -0.593545	   54.8894	
 -0.771623	0.00218072	  -0.75267	0.00218536	 -0.712204	0.00217546	 -0.745499	0.00218051	 -0.745499	   54.5128	
 -0.923681	 0.0021659	 -0.904225	 0.0021703	 -0.863553	0.00215978	 -0.897153	0.00216533	 -0.897153	   54.1332	
  -1.07513	0.00215091	  -1.05579	0.00215504	  -1.01525	0.00214395	  -1.04872	0.00214997	  -1.04872	   53.7491	
  -1.22656	0.00213562	  -1.20842	0.00213951	  -1.16675	0.00212788	  -1.20058	0.00213434	  -1.20058	   53.3585	
  -1.37774	0.00211998	  -1.36074	0.00212371	  -1.31861	0.00211156	  -1.35237	0.00211842	  -1.35237	   52.9604	
  -1.52896	0.00210404	  -1.51331	0.00210769	  -1.47056	0.00209499	  -1.50428	0.00210224	  -1.50428	    52.556	
  -1.67996	0.00208794	  -1.66507	0.00209149	  -1.62234	0.00207822	  -1.65579	0.00208588	  -1.65579	   52.1471	
  -1.83106	0.00207175	  -1.81688	0.00207514	  -1.77399	0.00206125	  -1.80731	0.00206938	  -1.80731	   51.7345	
  -1.98225	0.00205544	   -1.9685	0.00205861	  -1.92578	0.00204411	  -1.95884	0.00205272	  -1.95884	    51.318	
  -2.13382	0.00203894	  -2.12022	0.00204184	  -2.07719	0.00202673	  -2.11041	0.00203584	  -2.11041	   50.8959	
  -2.28574	0.00202217	  -2.27179	0.00202481	  -2.22881	0.00200909	  -2.26211	0.00201869	  -2.26211	   50.4673	
  -2.43827	0.00200512	   -2.4227	0.00200753	  -2.38009	0.00199121	  -2.41369	0.00200129	  -2.41369	   50.0322	
  -2.59111	0.00198782	  -2.57346	0.00199005	  -2.53093	0.00197316	  -2.56517	0.00198368	  -2.56517	   49.5919	
  -2.74424	0.00197032	  -2.72393	0.00197243	   -2.6818	0.00195492	  -2.71666	0.00196589	  -2.71666	   49.1472	
  -2.89606	0.00195264	  -2.87442	0.00195464	  -2.83273	0.00193649	  -2.86774	0.00194792	  -2.86774	   48.6981	
   -3.0475	0.00193478	  -3.02415	0.00193658	  -2.98345	0.00191783	  -3.01837	0.00192973	  -3.01837	   48.2433	
  -3.19807	0.00191667	  -3.17295	 0.0019182	  -3.13453	0.00189889	  -3.16852	0.00191125	  -3.16852	   47.7813	
  -3.34759	0.00189825	  -3.32224	0.00189952	  -3.28465	0.00187963	  -3.31816	0.00189247	  -3.31816	   47.3117	
  -3.49645	0.00187959	  -3.47093	0.00188059	  -3.43442	 0.0018601	  -3.46727	0.00187343	  -3.46727	   46.8356	
  -3.64444	0.00186071	  -3.61965	0.00186153	  -3.58285	0.00184039	  -3.61565	0.00185421	  -3.61565	   46.3552	
  -3.79274	0.00184166	   -3.7684	0.00184235	  -3.73087	0.00182054	    -3.764	0.00183485	    -3.764	   45.8712	
  -3.94081	0.00182243	  -3.91669	0.00182302	  -3.87852	0.00180055	  -3.91201	0.00181533	  -3.91201	   45.3833	
  -4.08869	0.00180294	  -4.06511	0.00180342	  -4.02694	0.00178033	  -4.06025	0.00179556	  -4.06025	    44.889	
  -4.23697	0.00178313	  -4.21314	0.00178345	  -4.17502	0.00175981	  -4.20838	0.00177546	  -4.20838	   44.3865	
  -4.38458	0.00176301	  -4.36059	0.00176312	   -4.3244	0.00173895	  -4.35652	0.00175503	  -4.35652	   43.8756	
  -4.53213	0.00174265	  -4.50859	0.00174253	  -4.47368	0.00171781	   -4.5048	0.00173433	   -4.5048	   43.3582	
   -4.6794	0.00172213	  -4.65632	0.00172183	  -4.62132	0.00169647	  -4.65234	0.00171348	  -4.65234	   42.8369	
  -4.82617	0.00170145	   -4.8041	0.00170106	  -4.77011	0.00167499	  -4.80013	 0.0016925	  -4.80013	   42.3124	
  -4.97278	0.00168054	  -4.95143	0.00168014	  -4.91735	0.00165333	  -4.94719	0.00167134	  -4.94719	   41.7834	
  -5.11901	0.00165935	  -5.09891	 0.0016589	  -5.06503	0.00163143	  -5.09432	 0.0016499	  -5.09432	   41.2474	
  -5.26519	0.00163784	  -5.24627	0.00163725	   -5.2129	0.00160923	  -5.24145	0.00162811	  -5.24145	   40.7027	
  -5.41135	0.00161605	  -5.39384	0.00161522	  -5.36016	0.00158671	  -5.38845	0.00160599	  -5.38845	   40.1499	
  -5.55701	0.00159406	  -5.54056	0.00159296	  -5.50795	0.00156393	  -5.53518	0.00158365	  -5.53518	   39.5912	
  -5.70304	0.00157185	   -5.6876	 0.0015706	  -5.65495	0.00154095	  -5.68186	0.00156113	  -5.68186	   39.0283	
  -5.84838	0.00154942	  -5.83442	0.00154816	  -5.80203	0.00151778	  -5.82828	0.00153845	  -5.82828	   38.4613	
  -5.99418	0.00152673	  -5.98108	0.00152554	  -5.94897	0.00149442	  -5.97474	0.00151556	  -5.97474	    37.889	
  -6.13965	0.00150373	  -6.12711	0.00150259	  -6.09554	0.00147081	  -6.12076	0.00149238	  -6.12076	   37.3094	
  -6.28538	0.00148046	   -6.2731	0.00147922	  -6.24232	0.00144691	  -6.26693	0.00146886	  -6.26693	   36.7216	
  -6.43059	0.00145699	  -6.41884	 0.0014555	  -6.38803	0.00142271	  -6.41249	0.00144507	  -6.41249	   36.1267	
  -6.57526	0.00143333	  -6.56402	0.00143159	  -6.53414	0.00139825	  -6.55781	0.00142105	  -6.55781	   35.5264	
  -6.71984	0.00140944	  -6.70908	0.00140757	  -6.67957	0.00137356	  -6.70283	0.00139686	  -6.70283	   34.9215	
   -6.8641	0.00138529	  -6.85381	0.00138343	  -6.82491	0.00134868	  -6.84761	0.00137247	  -6.84761	   34.3117	
  -7.00813	0.00136083	  -6.99906	0.00135906	   -6.9697	0.00132358	   -6.9923	0.00134782	   -6.9923	   33.6956	
  -7.15145	0.00133606	  -7.14431	0.00133433	  -7.11428	0.00129824	  -7.13668	0.00132288	  -7.13668	   33.0719	
  -7.29442	0.00131106	  -7.28958	0.00130923	   -7.2587	0.00127262	   -7.2809	0.00129764	   -7.2809	   32.4409	
  -7.43739	0.00128587	   -7.4344	0.00128385	  -7.40329	0.00124672	  -7.42503	0.00127215	  -7.42503	   31.8037	
  -7.58014	0.00126049	  -7.57935	 0.0012583	  -7.54727	0.00122058	  -7.56892	0.00124646	  -7.56892	   31.1614	
  -7.72299	0.00123488	  -7.72421	0.00123264	  -7.69075	0.00119424	  -7.71265	0.00122059	  -7.71265	   30.5147	
  -7.86597	  0.001209	  -7.86902	0.00120681	  -7.83353	0.00116771	  -7.85617	0.00119451	  -7.85617	   29.8627	
  -8.00914	0.00118282	  -8.01303	0.00118072	  -7.97625	0.00114089	  -7.99947	0.00116814	  -7.99947	   29.2036	
  -8.15224	0.00115636	  -8.15688	0.00115429	  -8.11896	0.00111378	  -8.14269	0.00114148	  -8.14269	   28.5369	
  -8.29506	0.00112966	  -8.30036	0.00112754	  -8.26144	0.00108639	  -8.28562	0.00111453	  -8.28562	   27.8633	
  -8.43768	0.00110276	  -8.44328	0.00110057	  -8.40323	0.00105879	  -8.42806	0.00108737	  -8.42806	   27.1844	
  -8.58016	0.00107567	  -8.58573	0.00107345	  -8.54496	0.00103105	  -8.57028	0.00106006	  -8.57028	   26.5014	
  -8.72229	0.00104836	  -8.72806	0.00104616	  -8.68617	0.00100317	  -8.71217	0.00103256	  -8.71217	   25.8141	
  -8.86414	 0.0010208	  -8.86953	0.00101868	  -8.82694	0.000975092	  -8.85353	0.00100486	  -8.85353	   25.1214	
  -9.00526	0.000992986	  -9.01106	0.000990872	  -8.96736	0.000946729	  -8.99456	0.000976862	  -8.99456	   24.4216	
  -9.14604	0.000964938	  -9.15163	0.000962804	  -9.10804	0.000918062	  -9.13524	0.000948602	  -9.13524	    23.715	
  -9.28653	0.000936685	  -9.29139	0.000934534	  -9.24849	0.000889136	  -9.27547	0.000920118	  -9.27547	    23.003	
  -9.42657	0.000908253	  -9.43098	0.000906163	  -9.38877	0.000860028	  -9.41544	0.000891481	  -9.41544	    22.287	
  -9.56624	0.000879612	  -9.56994	0.000877611	  -9.52843	0.000830793	  -9.55487	0.000862672	  -9.55487	   21.5668	
   -9.7051	0.000850727	  -9.70864	0.000848872	   -9.6681	0.000801413	  -9.69395	0.00083367	  -9.69395	   20.8418	
  -9.84328	0.000821572	  -9.84743	0.000819826	  -9.80705	0.00077182	  -9.83259	0.000804406	  -9.83259	   20.1102	
  -9.98089	0.000792174	  -9.98583	0.000790475	  -9.94618	0.000741961	  -9.97097	0.00077487	  -9.97097	   19.3717	
   -10.118	0.00076258	  -10.1237	0.000760875	  -10.0848	0.00071184	  -10.1088	0.000745098	  -10.1088	   18.6275	
  -10.2546	0.000732854	  -10.2619	0.00073114	  -10.2229	0.000681507	  -10.2464	0.000715167	  -10.2464	   17.8792	
  -10.3907	0.000702995	  -10.3998	0.000701296	  -10.3601	0.000651022	  -10.3836	0.000685104	  -10.3836	   17.1276	
  -10.5262	0.000672965	  -10.5374	0.000671332	  -10.4967	0.000620455	  -10.5201	0.000654917	  -10.5201	   16.3729	
  -10.6622	0.000642681	  -10.6745	0.000641173	  -10.6328	0.000589761	  -10.6565	0.000624538	  -10.6565	   15.6135	
  -10.7971	0.000612128	  -10.8112	 0.0006108	  -10.7685	0.000558877	  -10.7923	0.000593935	  -10.7923	   14.8484	
  -10.9317	0.000581351	  -10.9476	0.000580152	  -10.9042	0.000527725	  -10.9278	0.000563076	  -10.9278	   14.0769	
  -11.0655	0.00055048	  -11.0835	0.000549308	  -11.0391	0.000496298	  -11.0627	0.000532029	  -11.0627	   13.3007	
  -11.1997	0.000519563	   -11.219	0.000518309	  -11.1732	0.00046466	  -11.1973	0.000500844	  -11.1973	   12.5211	
  -11.3334	0.000488552	   -11.354	0.000487201	   -11.307	0.000432915	  -11.3315	0.000469556	  -11.3315	   11.7389	
   -11.467	0.000457256	  -11.4889	0.000455974	  -11.4406	0.000401123	  -11.4655	0.000438118	  -11.4655	   10.9529	
  -11.6003	0.000425628	  -11.6229	0.000424635	  -11.5735	0.000369267	  -11.5989	0.00040651	  -11.5989	   10.1628	
  -11.7325	0.000393773	  -11.7564	0.000393113	  -11.7061	0.000337252	  -11.7317	0.000374713	  -11.7317	   9.36782	
  -11.8619	0.000361839	  -11.8889	0.000361415	   -11.838	0.000304994	  -11.8629	0.000342749	  -11.8629	   8.56873	
   -11.991	0.000329916	  -12.0211	0.000329565	  -11.9702	0.000272502	  -11.9941	0.000310661	  -11.9941	   7.76653	
   -12.122	0.000298018	  -12.1528	0.000297597	  -12.1019	0.000239859	  -12.1256	0.000278491	  -12.1256	   6.96228	
  -12.2524	0.000266004	  -12.2838	0.000265512	  -12.2334	0.000207155	  -12.2565	0.000246223	  -12.2565	   6.15558	
  -12.3859	0.000233715	  -12.4139	0.000233327	  -12.3644	0.000174429	  -12.3881	0.000213824	  -12.3881	    5.3456	
  -12.5179	0.00020114	  -12.5438	0.000201027	  -12.4953	0.000141633	   -12.519	0.000181267	   -12.519	   4.53166	
  -12.6493	0.000168419	  -12.6734	0.000168591	  -12.6253	0.000108685	  -12.6494	0.000148565	  -12.6494	   3.71412	
  -12.7805	0.000135708	  -12.8026	0.000136022	   -12.755	7.55452e-05	  -12.7794	0.000115758	  -12.7794	   2.89396	
  -12.9102	0.000103079	  -12.9311	0.000103349	  -12.8845	4.22517e-05	  -12.9086	8.28932e-05	  -12.9086	   2.07233	
  -13.0397	7.04477e-05	  -13.0592	7.05951e-05	  -13.0134	8.88438e-06	  -13.0374	4.99757e-05	  -13.0374	   1.24939	
  -13.1681	3.76648e-05	  -13.1865	3.77753e-05	  -13.1419	-2.44893e-05	  -13.1655	1.69836e-05	  -13.1655	   0.42459	
  -13.2962	4.60389e-06	  -13.3135	4.88714e-06	  -13.2697	-5.78605e-05	  -13.2932	-1.61232e-05	  -13.2932	 -0.403079	
  -13.4243	-2.86996e-05	  -13.4403	-2.80891e-05	  -13.3975	-9.12765e-05	  -13.4207	-4.93551e-05	  -13.4207	  -1.23388	
  -13.5514	-6.20919e-05	  -13.5666	-6.11601e-05	  -13.5248	-0.000124807	  -13.5476	-8.26864e-05	  -13.5476	  -2.06716	
  -13.6782	-9.54204e-05	  -13.6918	-9.43026e-05	  -13.6515	-0.000158474	  -13.6739	-0.000116066	  -13.6739	  -2.90164	
  -13.8038	-0.000128651	  -13.8166	-0.000127491	  -13.7773	-0.000192229	  -13.7992	-0.000149457	  -13.7992	  -3.73643	
  -13.9286	-0.000161863	  -13.9407	-0.00016071	  -13.9029	-0.000225997	  -13.9241	-0.000182857	  -13.9241	  -4.57142	
  -14.0529	-0.000195195	  -14.0642	-0.000193958	  -14.0279	-0.000259723	  -14.0483	-0.000216292	  -14.0483	  -5.40731	
  -14.1767	-0.000228729	  -14.1876	-0.00022725	  -14.1515	-0.000293416	  -14.1719	-0.000249799	  -14.1719	  -6.24496	
  -14.2999	-0.000262417	  -14.3106	-0.000260587	  -14.2744	-0.000327135	  -14.2949	-0.00028338	  -14.2949	  -7.08449	
  -14.4227	-0.00029611	  -14.4329	-0.000293955	  -14.3963	-0.000360927	  -14.4173	-0.000316997	  -14.4173	  -7.92494	
   -14.545	-0.000329682	  -14.5539	-0.00032733	  -14.5177	-0.000394779	  -14.5389	-0.000350597	  -14.5389	  -8.76492	
  -14.6667	-0.000363117	  -14.6743	-0.000360694	  -14.6386	-0.000428625	  -14.6599	-0.000384145	  -14.6599	  -9.60364	
  -14.7879	-0.000396522	  -14.7945	-0.000394042	  -14.7591	-0.000462406	  -14.7805	-0.000417657	  -14.7805	  -10.4414	
  -14.9083	-0.000430029	  -14.9143	-0.000427377	  -14.8788	-0.000496101	  -14.9005	-0.000451169	  -14.9005	  -11.2792	
  -15.0278	-0.00046368	  -15.0336	-0.000460704	   -14.998	-0.000529749	  -15.0198	-0.000484711	  -15.0198	  -12.1178	
  -15.1468	-0.000497379	  -15.1525	-0.000494024	  -15.1162	-0.000563396	  -15.1385	-0.000518266	  -15.1385	  -12.9567	
  -15.2648	-0.000530982	  -15.2711	-0.000527324	  -15.2339	-0.000597055	  -15.2566	-0.000551787	  -15.2566	  -13.7947	
  -15.3816	-0.000564406	   -15.389	-0.000560579	  -15.3511	-0.000630691	  -15.3739	-0.000585225	  -15.3739	  -14.6306	
  -15.4984	-0.000597686	  -15.5064	-0.000593769	  -15.4681	-0.000664238	   -15.491	-0.000618564	   -15.491	  -15.4641	
  -15.6138	-0.000630933	  -15.6235	-0.00062689	  -15.5841	-0.000697637	  -15.6072	-0.00065182	  -15.6072	  -16.2955	
  -15.7285	-0.000664232	  -15.7396	-0.000659955	  -15.6993	-0.000730901	  -15.7225	-0.000685029	  -15.7225	  -17.1257	
  -15.8424	-0.000697567	  -15.8553	-0.000692966	  -15.8141	-0.000764094	  -15.8373	-0.000718209	  -15.8373	  -17.9552	
  -15.9553	-0.000730831	  -15.9704	-0.000725909	  -15.9285	-0.00079728	  -15.9514	-0.00075134	  -15.9514	  -18.7835	
  -16.0679	-0.000763916	  -16.0848	-0.000758736	  -16.0419	-0.000830446	  -16.0649	-0.000784366	  -16.0649	  -19.6091	
  -16.1795	-0.000796792	  -16.1985	-0.000791423	  -16.1549	-0.000863529	  -16.1776	-0.000817248	  -16.1776	  -20.4312	
  -16.2905	-0.00082952	  -16.3117	-0.000823989	  -16.2678	-0.000896438	    -16.29	-0.000849982	    -16.29	  -21.2496	
  -16.4007	-0.000862192	  -16.4238	-0.000856491	  -16.3803	-0.00092912	  -16.4016	-0.000882601	  -16.4016	   -22.065	
  -16.5103	-0.000894855	  -16.5353	-0.00088893	  -16.4916	-0.0009616	  -16.5124	-0.000915128	  -16.5124	  -22.8782	
  -16.6194	-0.000927474	  -16.6461	-0.000921292	  -16.6023	-0.000993973	  -16.6226	-0.00094758	  -16.6226	  -23.6895	
  -16.7281	-0.000959946	  -16.7556	-0.00095351	  -16.7127	-0.00102631	  -16.7321	-0.000979923	  -16.7321	  -24.4981	
  -16.8365	-0.000992188	  -16.8647	-0.000985523	   -16.822	-0.00105863	   -16.841	-0.00101211	   -16.841	  -25.3028	
  -16.9447	-0.00102419	  -16.9729	-0.00101733	  -16.9309	-0.00109083	  -16.9495	-0.00104412	  -16.9495	  -26.1029	
  -17.0523	-0.00105604	  -17.0801	-0.00104898	  -17.0392	-0.00112278	  -17.0572	-0.00107593	  -17.0572	  -26.8983	
  -17.1594	-0.00108779	  -17.1861	-0.00108048	   -17.147	-0.00115442	  -17.1641	-0.00110756	  -17.1641	  -27.6891	
  -17.2656	-0.00111947	  -17.2913	-0.00111186	  -17.2538	-0.0011858	  -17.2702	-0.00113904	  -17.2702	   -28.476	
  -17.3715	 -0.001151	  -17.3956	-0.0011431	  -17.3607	-0.00121705	  -17.3759	-0.00117038	  -17.3759	  -29.2596	
   -17.476	-0.00118231	  -17.4995	-0.00117416	  -17.4674	-0.00124824	   -17.481	-0.00120157	   -17.481	  -30.0392	
  -17.5799	-0.00121335	  -17.6026	-0.00120499	  -17.5737	-0.00127934	  -17.5854	-0.00123256	  -17.5854	   -30.814	
  -17.6823	-0.00124414	  -17.7049	-0.00123559	  -17.6793	-0.00131024	  -17.6888	-0.00126332	  -17.6888	  -31.5831	
  -17.7846	-0.00127477	  -17.8066	-0.00126597	  -17.7845	-0.00134083	  -17.7919	-0.00129386	  -17.7919	  -32.3465	
   -17.886	-0.00130528	  -17.9077	-0.00129617	  -17.8889	-0.00137108	  -17.8942	-0.00132418	  -17.8942	  -33.1044	
  -17.9872	-0.00133563	  -18.0081	-0.00132618	  -17.9926	-0.00140108	   -17.996	-0.0013543	   -17.996	  -33.8574	
  -18.0877	-0.00136578	  -18.1072	-0.00135599	  -18.0954	-0.00143092	  -18.0968	-0.00138423	  -18.0968	  -34.6057	
  -18.1874	-0.00139564	  -18.2056	-0.00138555	  -18.1977	-0.00146065	  -18.1969	-0.00141395	  -18.1969	  -35.3487	
   -18.286	-0.00142523	  -18.3032	-0.00141484	  -18.2991	-0.00149021	  -18.2961	-0.00144343	  -18.2961	  -36.0857	
  -18.3841	-0.00145457	  -18.4006	-0.00144389	  -18.3999	-0.00151949	  -18.3949	-0.00147265	  -18.3949	  -36.8163	
   -18.482	-0.00148373	  -18.4974	-0.00147272	  -18.4995	-0.00154842	   -18.493	-0.00150162	   -18.493	  -37.5406	
  -18.5799	-0.00151269	  -18.5939	-0.00150134	   -18.598	-0.00157702	  -18.5906	-0.00153035	  -18.5906	  -38.2587	
  -18.6768	-0.00154139	  -18.6896	-0.00152974	  -18.6954	-0.00160536	  -18.6873	-0.00155883	  -18.6873	  -38.9708	
  -18.7731	-0.00156978	   -18.785	-0.0015579	   -18.792	-0.00163353	  -18.7834	-0.00158707	  -18.7834	  -39.6767	
  -18.8685	-0.0015979	  -18.8795	-0.00158577	  -18.8875	-0.00166152	  -18.8785	-0.00161506	  -18.8785	  -40.3766	
  -18.9633	-0.00162578	  -18.9731	-0.00161333	  -18.9827	-0.00168928	   -18.973	-0.0016428	   -18.973	  -41.0699	
  -19.0567	-0.00165347	  -19.0661	-0.00164062	  -19.0766	-0.00171671	  -19.0665	-0.00167027	  -19.0665	  -41.7567	
  -19.1492	-0.00168097	  -19.1581	-0.00166767	  -19.1697	-0.00174378	   -19.159	-0.00169747	   -19.159	  -42.4368	
  -19.2407	-0.00170822	  -19.2492	-0.0016945	  -19.2618	-0.00177051	  -19.2506	-0.00172441	  -19.2506	  -43.1102	
  -19.3317	-0.0017351	  -19.3395	-0.00172109	  -19.3529	-0.00179698	  -19.3414	-0.00175106	  -19.3414	  -43.7765	
  -19.4214	-0.00176157	  -19.4289	-0.0017474	  -19.4434	-0.00182325	  -19.4312	-0.0017774	  -19.4312	  -44.4351	
  -19.5107	-0.00178767	  -19.5175	-0.00177338	  -19.5329	-0.00184931	  -19.5204	-0.00180345	  -19.5204	  -45.0863	
  -19.5987	-0.00181353	  -19.6054	-0.00179905	  -19.6218	-0.00187509	  -19.6086	-0.00182922	  -19.6086	  -45.7306	
   -19.686	-0.00183924	  -19.6932	-0.00182444	  -19.7097	-0.00190052	  -19.6963	-0.00185473	  -19.6963	  -46.3683	
  -19.7727	-0.00186477	  -19.7798	-0.00184957	  -19.7965	-0.00192559	   -19.783	-0.00187998	   -19.783	  -46.9994	
  -19.8585	-0.00189002	  -19.8655	-0.00187446	   -19.882	-0.00195033	  -19.8687	-0.00190494	  -19.8687	  -47.6234	
  -19.9433	-0.00191485	  -19.9507	-0.00189907	  -19.9668	-0.00197483	  -19.9536	-0.00192958	  -19.9536	  -48.2396	
  -20.0274	-0.00193924	   -20.035	-0.00192337	   -20.051	-0.00199912	  -20.0378	-0.00195391	  -20.0378	  -48.8477	
  -20.1107	-0.00196328	  -20.1185	-0.00194734	  -20.1343	-0.00202314	  -20.1212	-0.00197792	  -20.1212	   -49.448	
  -20.1934	-0.00198709	  -20.2014	-0.00197099	  -20.2173	-0.00204685	   -20.204	-0.00200164	   -20.204	  -50.0411	
   -20.275	-0.00201076	  -20.2833	-0.00199434	  -20.2992	-0.00207017	  -20.2858	-0.00202509	  -20.2858	  -50.6273	
  -20.3555	-0.00203421	  -20.3648	-0.00201743	  -20.3809	-0.00209314	  -20.3671	-0.00204826	  -20.3671	  -51.2065	
  -20.4355	-0.00205731	  -20.4455	-0.00204026	  -20.4618	-0.00211581	  -20.4476	-0.00207112	  -20.4476	  -51.7781	
  -20.5143	-0.00207998	  -20.5254	-0.00206279	  -20.5421	-0.00213825	  -20.5273	-0.00209367	  -20.5273	  -52.3418	
  -20.5926	-0.00210225	  -20.6046	 -0.002085	  -20.6214	-0.00216045	  -20.6062	-0.0021159	  -20.6062	  -52.8975	
    -20.67	-0.00212421	  -20.6828	-0.00210687	  -20.7002	-0.00218236	  -20.6843	-0.00213781	  -20.6843	  -53.4453	
  -20.7469	-0.00214606	  -20.7605	-0.00212842	  -20.7785	-0.00220388	  -20.7619	-0.00215945	  -20.7619	  -53.9863	
  -20.8229	-0.00216773	  -20.8375	-0.00214969	   -20.856	 -0.002225	  -20.8388	-0.00218081	  -20.8388	  -54.5202	
   -20.898	-0.00218911	  -20.9136	-0.00217069	  -20.9326	-0.00224578	  -20.9147	-0.00220186	  -20.9147	  -55.0465	
  -20.9721	-0.00220999	  -20.9889	-0.0021914	  -21.0091	-0.00226631	    -20.99	-0.00222257	    -20.99	  -55.5642	
  -21.0457	-0.00223036	  -21.0639	-0.00221178	  -21.0845	-0.00228663	  -21.0647	-0.00224292	  -21.0647	  -56.0731	
  -21.1187	-0.00225037	  -21.1376	-0.00223182	  -21.1597	-0.00230672	  -21.1386	-0.00226297	  -21.1386	  -56.5742	
  -21.1906	-0.00227028	  -21.2108	-0.00225153	  -21.2336	-0.00232649	  -21.2116	-0.00228277	  -21.2116	  -57.0692	
  -21.2617	-0.00229014	  -21.2836	-0.00227099	  -21.3069	-0.00234586	  -21.2841	-0.00230233	  -21.2841	  -57.5583	
  -21.3323	-0.00230985	  -21.3556	-0.00229023	  -21.3791	-0.00236484	  -21.3557	-0.00232164	  -21.3557	   -58.041	
   -21.402	-0.00232916	   -21.427	-0.00230921	  -21.4507	-0.00238348	  -21.4266	-0.00234062	  -21.4266	  -58.5154	
  -21.4709	-0.00234789	  -21.4972	-0.00232787	  -21.5209	-0.00240186	  -21.4963	-0.00235921	  -21.4963	  -58.9802	
  -21.5393	-0.00236607	  -21.5665	-0.00234616	    -21.59	-0.00242003	  -21.5653	-0.00237742	  -21.5653	  -59.4355	
  -21.6076	-0.0023839	  -21.6349	-0.00236409	  -21.6577	-0.00243797	  -21.6334	-0.00239532	  -21.6334	  -59.8829	
  -21.6749	-0.00240158	  -21.7021	-0.00238173	  -21.7247	-0.00245561	  -21.7006	-0.00241297	  -21.7006	  -60.3243	
  -21.7421	-0.00241915	  -21.7691	-0.00239913	  -21.7908	-0.00247289	  -21.7673	-0.00243039	  -21.7673	  -60.7597	
  -21.8082	-0.00243649	  -21.8352	-0.00241626	  -21.8556	-0.00248982	   -21.833	-0.00244752	   -21.833	  -61.1881	
  -21.8735	-0.00245341	  -21.9009	-0.00243313	  -21.9198	-0.00250645	  -21.8981	-0.00246433	  -21.8981	  -61.6082	
  -21.9382	-0.00246981	  -21.9651	-0.00244968	  -21.9836	-0.00252282	  -21.9623	-0.00248077	  -21.9623	  -62.0192	
  -22.0018	-0.00248578	  -22.0287	-0.00246589	  -22.0468	-0.00253896	  -22.0258	-0.00249688	  -22.0258	  -62.4219	
  -22.0648	-0.00250149	  -22.0909	-0.00248175	  -22.1093	-0.00255486	  -22.0883	-0.0025127	  -22.0883	  -62.8175	
  -22.1266	-0.00251708	  -22.1525	-0.0024973	  -22.1713	-0.00257046	  -22.1502	-0.00252828	  -22.1502	   -63.207	
  -22.1875	-0.00253253	  -22.2134	-0.00251262	  -22.2324	-0.00258572	  -22.2111	-0.00254362	  -22.2111	  -63.5906	
  -22.2474	-0.00254772	  -22.2736	-0.00252771	  -22.2919	-0.00260073	   -22.271	-0.00255872	   -22.271	   -63.968	
   -22.306	-0.00256251	  -22.3333	-0.00254257	  -22.3505	-0.00261551	  -22.3299	-0.00257353	  -22.3299	  -64.3383	
  -22.3641	-0.00257684	   -22.392	-0.00255713	  -22.4083	-0.00263003	  -22.3882	 -0.002588	  -22.3882	     -64.7	
  -22.4211	-0.00259076	  -22.4494	-0.00257137	   -22.465	-0.00264418	  -22.4452	-0.0026021	  -22.4452	  -65.0525	
  -22.4771	-0.00260443	  -22.5064	-0.00258532	   -22.521	-0.00265795	  -22.5015	-0.0026159	  -22.5015	  -65.3975	
  -22.5327	-0.00261798	  -22.5626	-0.00259895	  -22.5759	-0.00267142	  -22.5571	-0.00262945	  -22.5571	  -65.7362	
  -22.5889	-0.00263141	  -22.6182	-0.00261232	  -22.6304	-0.0026847	  -22.6125	-0.00264281	  -22.6125	  -66.0702	
  -22.6444	-0.0026446	  -22.6724	-0.00262551	  -22.6841	-0.00269787	   -22.667	-0.00265599	   -22.667	  -66.3999	
   -22.699	-0.00265746	  -22.7261	-0.00263849	  -22.7363	-0.00271091	  -22.7204	-0.00266895	  -22.7204	  -66.7238	
  -22.7518	-0.00266992	  -22.7779	-0.00265128	  -22.7878	-0.00272365	  -22.7725	-0.00268162	  -22.7725	  -67.0404	
  -22.8034	-0.00268209	  -22.8274	-0.00266381	  -22.8379	-0.00273598	  -22.8229	-0.00269396	  -22.8229	   -67.349	
  -22.8526	-0.00269407	   -22.876	 -0.002676	  -22.8874	-0.00274791	   -22.872	-0.00270599	   -22.872	  -67.6499	
  -22.9016	-0.00270589	  -22.9226	-0.0026878	  -22.9361	-0.00275958	  -22.9201	-0.00271775	  -22.9201	  -67.9439	
  -22.9488	-0.00271752	  -22.9697	-0.00269932	   -22.984	-0.0027711	  -22.9675	-0.00272932	  -22.9675	  -68.2329	
  -22.9959	-0.0027289	  -23.0174	-0.00271067	  -23.0309	-0.00278254	  -23.0147	-0.0027407	  -23.0147	  -68.5176	
  -23.0425	-0.00273997	  -23.0647	-0.00272191	  -23.0768	-0.00279382	  -23.0613	-0.0027519	  -23.0613	  -68.7975	
  -23.0881	-0.00275072	  -23.1127	-0.00273305	  -23.1216	-0.00280484	  -23.1075	-0.00276287	  -23.1075	  -69.0718	
  -23.1335	-0.00276124	  -23.1581	-0.00274399	  -23.1655	-0.00281551	  -23.1524	-0.00277358	  -23.1524	  -69.3395	
  -23.1774	-0.00277158	  -23.2025	-0.0027546	  -23.2087	-0.00282587	  -23.1962	-0.00278402	  -23.1962	  -69.6004	
  -23.2208	-0.00278178	  -23.2452	-0.00276487	  -23.2511	-0.00283601	   -23.239	-0.00279422	   -23.239	  -69.8555	
  -23.2633	-0.00279178	  -23.2868	-0.00277489	  -23.2935	-0.00284602	  -23.2812	-0.00280423	  -23.2812	  -70.1057	
  -23.3046	-0.00280153	  -23.3283	-0.00278475	  -23.3346	-0.00285591	  -23.3225	-0.00281407	  -23.3225	  -70.3517	
  -23.3457	 -0.002811	  -23.3681	-0.00279453	  -23.3751	-0.00286564	   -23.363	-0.00282372	   -23.363	  -70.5931	
  -23.3854	-0.00282022	  -23.4075	-0.00280419	  -23.4143	-0.00287509	  -23.4024	-0.00283316	  -23.4024	  -70.8291	
  -23.4238	-0.00282924	  -23.4452	-0.00281361	  -23.4528	-0.00288423	  -23.4406	-0.00284236	  -23.4406	   -71.059	
  -23.4614	-0.00283813	  -23.4819	-0.00282273	  -23.4898	-0.00289309	  -23.4777	-0.00285132	  -23.4777	  -71.2829	
  -23.4969	-0.00284688	  -23.5183	-0.00283155	  -23.5262	-0.00290177	  -23.5138	-0.00286006	  -23.5138	  -71.5016	
  -23.5318	-0.00285545	  -23.5532	-0.00284017	  -23.5615	-0.00291035	  -23.5488	-0.00286866	  -23.5488	  -71.7164	
  -23.5649	-0.00286379	  -23.5877	-0.00284867	  -23.5962	-0.00291889	  -23.5829	-0.00287712	  -23.5829	  -71.9279	
  -23.5969	-0.00287187	  -23.6209	-0.00285709	  -23.6298	-0.00292729	  -23.6159	-0.00288542	  -23.6159	  -72.1354	
  -23.6279	-0.00287972	  -23.6537	-0.00286537	  -23.6631	-0.00293542	  -23.6482	-0.0028935	  -23.6482	  -72.3375	
  -23.6585	-0.00288743	  -23.6853	-0.0028734	  -23.6948	-0.00294323	  -23.6795	-0.00290135	  -23.6795	  -72.5338	
  -23.6882	-0.00289508	  -23.7159	-0.00288116	  -23.7258	-0.00295077	    -23.71	 -0.002909	    -23.71	   -72.725	
  -23.7169	-0.00290264	  -23.7455	-0.00288868	  -23.7556	-0.00295814	  -23.7393	-0.00291649	  -23.7393	  -72.9122	
   -23.745	-0.00291003	  -23.7743	-0.00289603	  -23.7846	-0.0029654	   -23.768	-0.00292382	   -23.768	  -73.0956	
  -23.7726	-0.00291716	  -23.8022	-0.00290332	   -23.812	-0.00297261	  -23.7956	-0.00293103	  -23.7956	  -73.2757	
  -23.7991	 -0.002924	  -23.8294	-0.0029105	  -23.8385	-0.00297969	  -23.8223	-0.00293806	  -23.8223	  -73.4516	
  -23.8251	-0.00293063	  -23.8562	-0.00291757	  -23.8636	-0.00298656	  -23.8483	-0.00294492	  -23.8483	   -73.623	
  -23.8498	-0.00293716	  -23.8822	-0.00292446	  -23.8881	-0.00299323	  -23.8734	-0.00295162	  -23.8734	  -73.7904	
  -23.8734	-0.00294365	  -23.9074	-0.00293113	  -23.9115	-0.00299972	  -23.8974	-0.00295817	  -23.8974	  -73.9541	
  -23.8964	-0.00295007	  -23.9313	-0.00293756	  -23.9336	-0.00300603	  -23.9205	-0.00296455	  -23.9205	  -74.1138	
  -23.9181	-0.00295632	  -23.9547	-0.00294377	  -23.9545	-0.00301223	  -23.9424	-0.00297077	  -23.9424	  -74.2693	
  -23.9385	-0.00296232	   -23.977	-0.00294981	  -23.9747	-0.0030183	  -23.9634	-0.00297681	  -23.9634	  -74.4203	
  -23.9581	-0.00296807	  -23.9977	-0.00295582	  -23.9937	-0.00302424	  -23.9832	-0.00298271	  -23.9832	  -74.5677	
  -23.9762	-0.00297363	  -24.0172	-0.00296178	   -24.012	-0.00303004	  -24.0018	-0.00298848	  -24.0018	  -74.7121	
  -23.9935	-0.00297911	  -24.0357	-0.00296759	  -24.0292	-0.0030357	  -24.0195	-0.00299413	  -24.0195	  -74.8534	
    -24.01	-0.00298454	  -24.0527	-0.00297318	  -24.0455	-0.00304123	  -24.0361	-0.00299965	  -24.0361	  -74.9912	
  -24.0261	-0.00298987	  -24.0688	-0.00297853	  -24.0609	-0.0030466	  -24.0519	 -0.003005	  -24.0519	   -75.125	
  -24.0406	-0.00299503	  -24.0838	-0.00298369	  -24.0755	-0.00305184	  -24.0667	-0.00301019	  -24.0667	  -75.2546	
  -24.0546	-0.00299997	  -24.0975	-0.00298879	   -24.089	-0.00305693	  -24.0804	-0.00301523	  -24.0804	  -75.3807	
  -24.0671	-0.00300471	  -24.1101	-0.00299387	  -24.1014	-0.00306191	  -24.0929	-0.00302016	  -24.0929	  -75.5041	
  -24.0791	-0.00300933	   -24.122	-0.0029989	  -24.1126	-0.0030668	  -24.1046	-0.00302501	  -24.1046	  -75.6252	
  -24.0898	-0.0030139	  -24.1322	-0.00300378	  -24.1225	-0.00307157	  -24.1148	-0.00302975	  -24.1148	  -75.7437	
     -24.1	-0.00301841	  -24.1415	-0.00300842	  -24.1313	-0.00307624	  -24.1243	-0.00303435	  -24.1243	  -75.8589	
  -24.1092	-0.00302281	  -24.1498	-0.00301285	  -24.1393	-0.00308076	  -24.1328	-0.00303881	  -24.1328	  -75.9702	
  -24.1172	-0.00302705	   -24.157	-0.00301715	  -24.1465	-0.00308513	  -24.1402	-0.00304311	  -24.1402	  -76.0777	
  -24.1241	-0.0030311	   -24.163	-0.00302139	   -24.153	-0.00308937	  -24.1467	-0.00304729	  -24.1467	  -76.1822	
  -24.1301	 -0.003035	  -24.1681	-0.00302562	   -24.159	-0.0030935	  -24.1524	-0.00305137	  -24.1524	  -76.2844	
  -24.1352	-0.00303882	  -24.1724	-0.00302978	  -24.1641	-0.00309757	  -24.1572	-0.00305539	  -24.1572	  -76.3848	
  -24.1401	-0.0030426	  -24.1757	-0.00303379	  -24.1683	-0.00310158	  -24.1614	-0.00305932	  -24.1614	  -76.4831	
  -24.1443	-0.00304632	  -24.1777	-0.00303761	  -24.1717	-0.00310548	  -24.1646	-0.00306314	  -24.1646	  -76.5784	
  -24.1476	-0.00304992	  -24.1787	-0.00304126	  -24.1743	-0.00310922	  -24.1669	-0.0030668	  -24.1669	    -76.67	
  -24.1498	-0.00305337	  -24.1785	-0.00304481	  -24.1757	-0.00311279	   -24.168	-0.00307032	   -24.168	  -76.7581	
  -24.1512	-0.00305669	  -24.1775	-0.00304832	  -24.1767	-0.00311621	  -24.1685	-0.00307374	  -24.1685	  -76.8435	
  -24.1512	-0.00305994	   -24.175	-0.00305181	  -24.1763	-0.00311958	  -24.1675	-0.00307711	  -24.1675	  -76.9277	
  -24.1502	-0.00306315	  -24.1715	-0.00305521	  -24.1755	-0.00312295	  -24.1657	-0.00308043	  -24.1657	  -77.0109	
  -24.1483	-0.00306629	  -24.1674	-0.00305846	  -24.1734	-0.00312628	   -24.163	-0.00308368	   -24.163	  -77.0919	
  -24.1448	-0.00306933	  -24.1629	-0.00306154	  -24.1705	-0.0031295	  -24.1594	-0.00308679	  -24.1594	  -77.1697	
  -24.1401	-0.0030722	  -24.1576	-0.00306449	   -24.166	-0.00313254	  -24.1546	-0.00308974	  -24.1546	  -77.2436	
  -24.1346	-0.00307491	  -24.1514	-0.00306739	  -24.1603	-0.00313538	  -24.1488	-0.00309256	  -24.1488	   -77.314	
  -24.1277	-0.00307756	   -24.144	-0.00307027	  -24.1534	-0.00313809	  -24.1417	-0.00309531	  -24.1417	  -77.3827	
  -24.1207	-0.00308019	  -24.1355	-0.00307312	  -24.1455	-0.00314075	  -24.1339	-0.00309802	  -24.1339	  -77.4505	
  -24.1121	-0.00308282	  -24.1262	-0.00307588	  -24.1371	-0.0031434	  -24.1251	-0.0031007	  -24.1251	  -77.5176	
  -24.1025	-0.00308545	  -24.1157	-0.00307851	   -24.128	-0.00314601	  -24.1154	-0.00310332	  -24.1154	  -77.5831	
  -24.0924	-0.00308797	  -24.1043	-0.00308101	   -24.118	-0.00314851	  -24.1049	-0.00310583	  -24.1049	  -77.6457	
  -24.0815	-0.0030903	  -24.0919	-0.00308341	  -24.1072	-0.00315084	  -24.0935	-0.00310819	  -24.0935	  -77.7046	
  -24.0695	-0.00309245	  -24.0779	-0.00308579	  -24.0957	-0.00315302	   -24.081	-0.00311042	   -24.081	  -77.7605	
  -24.0566	-0.00309449	  -24.0623	-0.00308815	  -24.0828	-0.00315511	  -24.0673	-0.00311258	  -24.0673	  -77.8145	
  -24.0424	-0.00309652	  -24.0459	-0.00309046	  -24.0687	-0.00315718	  -24.0523	-0.00311472	  -24.0523	   -77.868	
  -24.0273	-0.0030986	  -24.0287	-0.00309269	  -24.0537	-0.00315925	  -24.0366	-0.00311685	  -24.0366	  -77.9211	
  -24.0109	-0.00310069	  -24.0107	-0.00309479	  -24.0375	-0.00316127	  -24.0197	-0.00311891	  -24.0197	  -77.9729	
  -23.9936	-0.00310267	  -23.9918	-0.00309677	  -24.0207	-0.00316318	   -24.002	-0.00312087	   -24.002	  -78.0218	
  -23.9756	-0.00310448	  -23.9724	-0.00309869	  -24.0024	-0.00316494	  -23.9835	-0.0031227	  -23.9835	  -78.0676	
  -23.9567	-0.00310613	  -23.9518	-0.00310059	  -23.9834	-0.00316658	   -23.964	-0.00312444	   -23.964	  -78.1109	
   -23.937	-0.00310772	   -23.931	-0.00310247	  -23.9629	-0.00316818	  -23.9436	-0.00312613	  -23.9436	  -78.1532	
  -23.9167	-0.00310934	  -23.9096	-0.00310429	  -23.9413	-0.00316979	  -23.9225	-0.0031278	  -23.9225	  -78.1951	
  -23.8951	-0.00311098	   -23.887	-0.00310596	   -23.919	-0.00317139	  -23.9003	-0.00312944	  -23.9003	  -78.2361	
  -23.8726	-0.00311257	  -23.8631	-0.00310753	  -23.8956	-0.00317293	  -23.8771	-0.00313101	  -23.8771	  -78.2752	
  -23.8487	-0.00311402	  -23.8389	-0.00310908	  -23.8707	-0.00317438	  -23.8528	-0.00313249	  -23.8528	  -78.3123	
  -23.8235	-0.00311534	  -23.8134	-0.00311064	  -23.8452	-0.00317573	  -23.8274	-0.0031339	  -23.8274	  -78.3476	
  -23.7966	-0.00311662	  -23.7869	-0.00311221	  -23.8184	-0.00317694	  -23.8006	-0.00313526	  -23.8006	  -78.3814	
  -23.7689	-0.00311794	  -23.7595	-0.0031137	  -23.7908	-0.00317809	  -23.7731	-0.00313657	  -23.7731	  -78.4143	
  -23.7404	-0.00311929	  -23.7314	-0.00311503	  -23.7618	-0.00317923	  -23.7445	-0.00313785	  -23.7445	  -78.4462	
  -23.7109	-0.00312061	  -23.7021	-0.00311621	  -23.7319	-0.00318037	   -23.715	-0.00313906	   -23.715	  -78.4766	
  -23.6804	-0.00312181	  -23.6725	-0.00311732	  -23.7012	-0.00318152	  -23.6847	-0.00314022	  -23.6847	  -78.5055	
  -23.6485	-0.00312283	  -23.6418	-0.00311846	  -23.6701	-0.00318264	  -23.6535	-0.00314131	  -23.6535	  -78.5328	
  -23.6153	-0.00312373	    -23.61	-0.00311966	  -23.6384	-0.00318367	  -23.6212	-0.00314235	  -23.6212	  -78.5588	
   -23.581	-0.00312459	  -23.5771	-0.00312089	   -23.606	-0.00318458	   -23.588	-0.00314335	   -23.588	  -78.5838	
  -23.5458	-0.0031255	  -23.5434	-0.00312203	   -23.573	-0.00318538	  -23.5541	-0.0031443	  -23.5541	  -78.6075	
    -23.51	-0.00312647	  -23.5087	-0.00312304	  -23.5389	-0.00318615	  -23.5192	-0.00314522	  -23.5192	  -78.6305	
  -23.4736	-0.00312743	  -23.4729	-0.00312398	  -23.5043	-0.00318699	  -23.4836	-0.00314613	  -23.4836	  -78.6533	
  -23.4358	-0.00312826	  -23.4368	-0.00312495	  -23.4684	-0.00318786	   -23.447	-0.00314702	   -23.447	  -78.6755	
  -23.3972	-0.00312892	  -23.3996	-0.00312597	  -23.4318	-0.00318867	  -23.4095	-0.00314786	  -23.4095	  -78.6964	
  -23.3578	-0.00312948	  -23.3616	-0.00312701	  -23.3939	-0.00318936	  -23.3711	-0.00314862	  -23.3711	  -78.7155	
  -23.3183	-0.00313004	   -23.323	 -0.003128	  -23.3552	-0.0031899	  -23.3322	-0.00314931	  -23.3322	  -78.7328	
  -23.2774	-0.00313066	  -23.2831	-0.00312883	  -23.3156	-0.00319035	   -23.292	-0.00314995	   -23.292	  -78.7487	
  -23.2358	-0.00313134	  -23.2423	-0.00312951	  -23.2751	-0.00319081	  -23.2511	-0.00315055	  -23.2511	  -78.7638	
  -23.1933	-0.00313195	  -23.1999	-0.00313012	  -23.2336	-0.00319132	  -23.2089	-0.00315113	  -23.2089	  -78.7783	
  -23.1501	-0.00313242	  -23.1567	-0.00313074	   -23.191	-0.00319186	  -23.1659	-0.00315167	  -23.1659	  -78.7918	
  -23.1059	-0.00313273	  -23.1124	-0.00313145	  -23.1474	-0.00319234	  -23.1219	-0.00315217	  -23.1219	  -78.8044	
  -23.0611	-0.00313298	   -23.067	-0.00313223	  -23.1029	-0.00319272	   -23.077	-0.00315264	   -23.077	   -78.816	
  -23.0154	-0.00313326	  -23.0208	-0.00313298	  -23.0573	-0.00319297	  -23.0312	-0.00315307	  -23.0312	  -78.8267	
  -22.9691	-0.00313362	  -22.9734	-0.00313361	  -23.0108	-0.00319316	  -22.9844	-0.00315346	  -22.9844	  -78.8366	
  -22.9215	 -0.003134	   -22.925	-0.00313405	  -22.9636	-0.00319337	  -22.9367	-0.00315381	  -22.9367	  -78.8452	
  -22.8733	-0.0031343	  -22.8763	-0.00313437	  -22.9155	-0.00319362	  -22.8883	-0.00315409	  -22.8883	  -78.8524	
  -22.8232	-0.00313446	  -22.8271	-0.00313466	  -22.8658	-0.00319383	  -22.8387	-0.00315432	  -22.8387	   -78.858	
   -22.773	-0.00313452	  -22.7776	-0.00313502	  -22.8149	-0.00319395	  -22.7885	-0.0031545	  -22.7885	  -78.8624	
  -22.7214	-0.00313457	   -22.727	-0.00313545	  -22.7628	-0.00319397	  -22.7371	-0.00315466	  -22.7371	  -78.8666	
  -22.6694	-0.00313463	  -22.6752	-0.00313589	    -22.71	-0.00319398	  -22.6849	-0.00315483	  -22.6849	  -78.8708	
  -22.6163	-0.00313469	  -22.6221	-0.00313619	  -22.6557	-0.00319404	  -22.6314	-0.00315497	  -22.6314	  -78.8743	
  -22.5627	-0.0031347	  -22.5673	-0.00313635	  -22.6004	-0.00319412	  -22.5768	-0.00315506	  -22.5768	  -78.8765	
  -22.5077	-0.00313466	  -22.5112	-0.00313645	  -22.5442	-0.00319418	   -22.521	-0.0031551	   -22.521	  -78.8774	
  -22.4519	-0.00313456	  -22.4541	-0.00313653	  -22.4874	-0.00319413	  -22.4644	-0.00315507	  -22.4644	  -78.8768	
  -22.3947	-0.00313446	  -22.3965	-0.00313665	  -22.4293	-0.00319389	  -22.4069	 -0.003155	  -22.4069	   -78.875	
  -22.3365	-0.00313437	  -22.3385	-0.00313682	  -22.3706	-0.00319355	  -22.3485	-0.00315491	  -22.3485	  -78.8728	
   -22.277	-0.00313428	  -22.2801	-0.00313695	  -22.3107	-0.00319318	  -22.2893	-0.00315481	  -22.2893	  -78.8701	
  -22.2168	-0.00313414	  -22.2201	 -0.003137	  -22.2499	-0.00319289	  -22.2289	-0.00315468	  -22.2289	  -78.8669	
  -22.1557	-0.00313393	  -22.1595	-0.00313696	  -22.1884	-0.00319266	  -22.1679	-0.00315452	  -22.1679	   -78.863	
   -22.094	-0.00313365	  -22.0979	-0.00313687	  -22.1263	-0.00319245	   -22.106	-0.00315432	   -22.106	  -78.8581	
  -22.0312	-0.00313334	  -22.0345	-0.00313676	   -22.063	-0.00319211	  -22.0429	-0.00315407	  -22.0429	  -78.8518	
  -21.9676	-0.00313306	  -21.9709	-0.00313669	  -21.9992	-0.00319162	  -21.9792	-0.00315379	  -21.9792	  -78.8447	
   -21.903	-0.0031328	  -21.9064	-0.00313664	  -21.9342	-0.00319101	  -21.9145	-0.00315349	  -21.9145	  -78.8371	
  -21.8372	-0.00313253	  -21.8415	-0.00313656	   -21.869	-0.00319036	  -21.8493	-0.00315315	  -21.8493	  -78.8287	
  -21.7715	-0.0031322	   -21.776	-0.00313639	  -21.8027	-0.00318975	  -21.7834	-0.00315278	  -21.7834	  -78.8195	
  -21.7046	-0.00313179	  -21.7095	-0.00313613	  -21.7354	-0.00318923	  -21.7165	-0.00315238	  -21.7165	  -78.8096	
  -21.6374	-0.00313133	  -21.6424	-0.00313583	  -21.6672	-0.00318874	   -21.649	-0.00315196	   -21.649	  -78.7991	
  -21.5689	-0.00313085	  -21.5739	-0.00313553	  -21.5985	-0.00318819	  -21.5804	-0.00315152	  -21.5804	   -78.788	
  -21.4993	-0.0031304	  -21.5049	-0.00313524	  -21.5288	-0.00318749	   -21.511	-0.00315105	   -21.511	  -78.7761	
  -21.4286	-0.00312997	  -21.4349	-0.00313495	  -21.4583	-0.00318666	  -21.4406	-0.00315053	  -21.4406	  -78.7632	
  -21.3575	-0.0031295	  -21.3638	-0.0031346	  -21.3873	-0.00318576	  -21.3695	-0.00314995	  -21.3695	  -78.7488	
  -21.2857	-0.00312895	  -21.2919	-0.00313417	  -21.3156	-0.00318489	  -21.2977	-0.00314934	  -21.2977	  -78.7335	
  -21.2129	-0.00312837	  -21.2188	-0.00313369	   -21.243	-0.00318409	  -21.2249	-0.00314872	  -21.2249	  -78.7179	
  -21.1393	-0.00312773	  -21.1449	-0.0031332	  -21.1698	-0.00318333	  -21.1513	-0.00314808	  -21.1513	  -78.7021	
  -21.0649	-0.00312709	  -21.0701	-0.00313271	  -21.0957	-0.00318251	  -21.0769	-0.00314743	  -21.0769	  -78.6859	
  -20.9899	-0.00312649	   -20.994	-0.0031322	  -21.0212	-0.00318158	  -21.0017	-0.00314676	  -21.0017	  -78.6689	
  -20.9135	-0.00312591	  -20.9176	-0.00313163	  -20.9456	-0.00318057	  -20.9256	-0.00314604	  -20.9256	  -78.6509	
   -20.836	-0.00312526	  -20.8401	-0.00313097	  -20.8695	-0.00317951	  -20.8485	-0.00314524	  -20.8485	  -78.6311	
  -20.7575	-0.00312451	  -20.7619	-0.00313024	  -20.7921	-0.00317847	  -20.7705	-0.0031444	  -20.7705	  -78.6101	
  -20.6785	-0.00312366	  -20.6822	-0.00312948	  -20.7137	-0.00317749	  -20.6915	-0.00314354	  -20.6915	  -78.5886	
  -20.5983	-0.00312279	  -20.6018	-0.00312875	  -20.6337	-0.00317651	  -20.6113	-0.00314268	  -20.6113	   -78.567	
  -20.5174	-0.00312197	  -20.5205	-0.00312805	  -20.5528	-0.00317544	  -20.5302	-0.00314182	  -20.5302	  -78.5456	
  -20.4361	-0.00312122	  -20.4381	-0.00312734	  -20.4707	-0.00317426	  -20.4483	-0.00314094	  -20.4483	  -78.5235	
  -20.3539	-0.00312048	  -20.3549	-0.00312657	  -20.3881	-0.00317296	  -20.3656	-0.00314001	  -20.3656	  -78.5001	
  -20.2712	-0.00311967	  -20.2712	-0.00312569	  -20.3043	-0.00317165	  -20.2822	-0.00313901	  -20.2822	  -78.4751	
  -20.1878	-0.00311875	  -20.1865	-0.00312477	  -20.2196	-0.00317038	   -20.198	-0.00313797	   -20.198	  -78.4492	
  -20.1038	-0.00311774	  -20.1016	-0.00312384	  -20.1345	-0.00316914	  -20.1133	-0.00313691	  -20.1133	  -78.4227	
  -20.0188	-0.00311673	  -20.0156	-0.00312292	  -20.0486	-0.00316787	  -20.0277	-0.00313584	  -20.0277	  -78.3961	
  -19.9334	-0.00311578	  -19.9291	-0.00312201	  -19.9622	-0.00316652	  -19.9416	-0.00313477	  -19.9416	  -78.3693	
  -19.8465	-0.00311486	  -19.8416	-0.00312104	  -19.8746	-0.00316506	  -19.8542	-0.00313365	  -19.8542	  -78.3413	
  -19.7591	-0.00311389	  -19.7535	-0.00311997	  -19.7864	-0.00316353	  -19.7663	-0.00313246	  -19.7663	  -78.3116	
  -19.6704	-0.00311284	  -19.6648	-0.00311882	  -19.6974	-0.00316198	  -19.6775	-0.00313121	  -19.6775	  -78.2803	
  -19.5811	-0.00311168	  -19.5752	-0.00311764	  -19.6073	-0.00316044	  -19.5878	-0.00312992	  -19.5878	   -78.248	
  -19.4908	-0.00311044	  -19.4843	-0.00311646	  -19.5163	-0.00315891	  -19.4971	-0.00312861	  -19.4971	  -78.2151	
  -19.3995	-0.00310921	  -19.3931	-0.00311531	  -19.4248	-0.00315735	  -19.4058	-0.00312729	  -19.4058	  -78.1822	
  -19.3075	-0.00310803	  -19.3011	-0.00311414	  -19.3326	-0.0031557	  -19.3137	-0.00312595	  -19.3137	  -78.1489	
  -19.2146	-0.00310691	  -19.2085	-0.0031129	  -19.2393	-0.00315394	  -19.2208	-0.00312458	  -19.2208	  -78.1146	
  -19.1205	-0.00310582	  -19.1147	-0.00311156	  -19.1453	-0.00315213	  -19.1268	-0.00312317	  -19.1268	  -78.0792	
  -19.0263	-0.00310464	  -19.0202	-0.00311014	  -19.0505	-0.00315033	  -19.0324	-0.00312171	  -19.0324	  -78.0427	
  -18.9315	-0.00310329	  -18.9252	-0.0031087	  -18.9549	-0.00314861	  -18.9372	-0.0031202	  -18.9372	   -78.005	
  -18.8363	-0.00310178	  -18.8297	-0.00310727	  -18.8587	-0.00314689	  -18.8416	-0.00311865	  -18.8416	  -77.9662	
  -18.7398	-0.00310018	  -18.7338	-0.00310585	  -18.7618	-0.00314506	  -18.7451	-0.00311703	  -18.7451	  -77.9257	
  -18.6423	-0.00309858	  -18.6374	-0.00310439	  -18.6645	-0.00314305	   -18.648	-0.00311534	   -18.648	  -77.8835	
  -18.5436	-0.00309708	  -18.5397	-0.00310286	  -18.5666	-0.00314092	    -18.55	-0.00311362	    -18.55	  -77.8405	
  -18.4445	-0.00309568	  -18.4415	-0.00310123	  -18.4688	-0.00313879	  -18.4516	-0.0031119	  -18.4516	  -77.7975	
  -18.3445	-0.00309426	   -18.342	-0.00309954	  -18.3701	-0.00313678	  -18.3522	-0.00311019	  -18.3522	  -77.7549	
  -18.2438	-0.00309272	  -18.2415	-0.00309784	  -18.2712	-0.00313485	  -18.2522	-0.00310847	  -18.2522	  -77.7118	
   -18.142	 -0.003091	   -18.141	-0.00309615	  -18.1714	-0.00313293	  -18.1515	-0.00310669	  -18.1515	  -77.6673	
  -18.0398	-0.00308913	  -18.0393	-0.00309446	  -18.0711	-0.00313088	  -18.0501	-0.00310482	  -18.0501	  -77.6206	
  -17.9369	-0.00308723	  -17.9365	-0.00309274	  -17.9701	-0.00312866	  -17.9478	-0.00310288	  -17.9478	  -77.5719	
  -17.8334	-0.00308537	   -17.833	-0.00309094	  -17.8688	-0.00312632	  -17.8451	-0.00310088	  -17.8451	  -77.5219	
  -17.7286	-0.00308354	  -17.7286	-0.00308908	  -17.7668	-0.00312398	  -17.7413	-0.00309887	  -17.7413	  -77.4717	
  -17.6236	-0.00308169	  -17.6235	-0.00308718	  -17.6643	-0.00312171	  -17.6371	-0.00309686	  -17.6371	  -77.4215	
  -17.5181	-0.00307973	  -17.5178	-0.00308526	  -17.5611	-0.0031195	  -17.5323	-0.00309483	  -17.5323	  -77.3707	
   -17.412	-0.00307765	  -17.4115	-0.00308333	  -17.4573	-0.00311724	  -17.4269	-0.00309274	  -17.4269	  -77.3185	
  -17.3053	-0.00307547	  -17.3046	-0.00308139	  -17.3531	-0.00311487	   -17.321	-0.00309058	   -17.321	  -77.2644	
  -17.1978	-0.00307328	  -17.1977	-0.00307939	  -17.2481	-0.00311236	  -17.2145	-0.00308834	  -17.2145	  -77.2085	
  -17.0901	-0.00307111	  -17.0902	-0.00307732	  -17.1421	-0.00310978	  -17.1075	-0.00308607	  -17.1075	  -77.1518	
   -16.982	-0.00306895	  -16.9824	-0.00307518	  -17.0354	-0.00310722	  -16.9999	-0.00308378	  -16.9999	  -77.0946	
  -16.8735	-0.00306671	  -16.8735	 -0.003073	  -16.9276	-0.00310471	  -16.8915	-0.00308147	  -16.8915	  -77.0368	
  -16.7644	-0.00306435	   -16.764	-0.00307081	  -16.8193	-0.00310221	  -16.7826	-0.00307912	  -16.7826	   -76.978	
   -16.655	-0.00306188	  -16.6539	-0.0030686	  -16.7098	-0.00309962	  -16.6729	-0.0030767	  -16.6729	  -76.9175	
  -16.5451	-0.00305936	  -16.5432	-0.00306635	  -16.5993	-0.00309693	  -16.5625	-0.00307421	  -16.5625	  -76.8553	
  -16.4345	-0.00305687	  -16.4321	-0.00306404	  -16.4883	-0.00309409	  -16.4516	-0.00307167	  -16.4516	  -76.7917	
  -16.3237	-0.00305441	  -16.3205	-0.00306168	  -16.3764	-0.00309127	  -16.3402	-0.00306912	  -16.3402	  -76.7279	
  -16.2121	-0.0030519	  -16.2083	-0.00305927	  -16.2632	-0.00308857	  -16.2279	-0.00306658	  -16.2279	  -76.6645	
  -16.1004	-0.00304929	  -16.0954	-0.00305681	  -16.1488	-0.00308597	  -16.1149	-0.00306403	  -16.1149	  -76.6007	
   -15.988	-0.00304657	  -15.9823	-0.0030543	  -16.0324	-0.0030833	  -16.0009	-0.00306139	  -16.0009	  -76.5348	
  -15.8752	-0.00304375	  -15.8687	-0.00305174	  -15.9149	-0.00308044	  -15.8863	-0.00305864	  -15.8863	  -76.4661	
   -15.762	-0.00304091	  -15.7546	-0.00304913	  -15.7988	-0.00307734	  -15.7718	-0.0030558	  -15.7718	  -76.3949	
  -15.6479	-0.00303811	    -15.64	-0.00304649	  -15.6815	-0.00307415	  -15.6565	-0.00305291	  -15.6565	  -76.3229	
  -15.5331	-0.00303531	  -15.5251	-0.00304381	  -15.5672	-0.00307104	  -15.5418	-0.00305005	  -15.5418	  -76.2513	
   -15.418	-0.00303245	  -15.4092	-0.00304112	  -15.4521	-0.0030681	  -15.4264	-0.00304722	  -15.4264	  -76.1806	
  -15.3024	-0.00302949	  -15.2927	-0.0030384	  -15.3366	-0.00306521	  -15.3106	-0.00304436	  -15.3106	  -76.1091	
  -15.1866	-0.00302641	  -15.1752	-0.00303563	  -15.2201	-0.0030622	   -15.194	-0.00304141	   -15.194	  -76.0354	
  -15.0701	-0.00302328	  -15.0575	-0.0030328	  -15.1015	-0.00305894	  -15.0764	-0.00303834	  -15.0764	  -75.9585	
  -14.9527	-0.00302015	  -14.9395	-0.0030299	  -14.9827	-0.00305546	  -14.9583	-0.00303517	  -14.9583	  -75.8792	
   -14.835	-0.00301704	  -14.8208	-0.00302695	  -14.8632	-0.00305191	  -14.8397	-0.00303197	  -14.8397	  -75.7992	
  -14.7167	-0.00301393	  -14.7016	-0.00302393	  -14.7434	-0.00304848	  -14.7206	-0.00302878	  -14.7206	  -75.7195	
  -14.5982	-0.00301075	   -14.582	-0.00302087	  -14.6234	-0.00304517	  -14.6012	-0.0030256	  -14.6012	  -75.6399	
  -14.4787	-0.00300746	  -14.4616	-0.00301777	  -14.5024	-0.00304188	  -14.4809	-0.00302237	  -14.4809	  -75.5592	
  -14.3583	-0.00300407	  -14.3411	-0.00301462	  -14.3811	-0.00303841	  -14.3602	-0.00301903	  -14.3602	  -75.4759	
  -14.2375	-0.00300065	  -14.2195	-0.00301144	  -14.2591	-0.00303464	  -14.2387	-0.00301557	  -14.2387	  -75.3894	
  -14.1165	-0.00299723	  -14.0975	-0.0030082	  -14.1368	-0.00303067	  -14.1169	-0.00301203	  -14.1169	  -75.3008	
   -13.995	-0.00299383	  -13.9743	-0.00300493	  -14.0138	-0.00302669	  -13.9944	-0.00300848	  -13.9944	  -75.2121	
  -13.8732	-0.00299041	   -13.851	-0.00300165	  -13.8908	-0.00302285	  -13.8716	-0.00300497	  -13.8716	  -75.1242	
    -13.75	-0.00298691	  -13.7271	-0.00299828	  -13.7675	-0.00301916	  -13.7482	-0.00300145	  -13.7482	  -75.0363	
  -13.6267	-0.00298332	  -13.6031	-0.0029948	  -13.6436	-0.00301546	  -13.6245	-0.00299786	  -13.6245	  -74.9464	
  -13.5029	-0.00297965	   -13.479	-0.00299122	   -13.519	-0.00301156	  -13.5003	-0.00299414	  -13.5003	  -74.8535	
  -13.3786	-0.00297594	  -13.3548	-0.0029876	  -13.3937	-0.00300743	  -13.3757	-0.00299032	  -13.3757	  -74.7581	
  -13.2535	-0.00297224	    -13.23	-0.00298402	  -13.2682	-0.00300317	  -13.2506	-0.00298648	  -13.2506	  -74.6619	
  -13.1283	-0.00296853	  -13.1048	-0.00298048	  -13.1421	-0.00299891	  -13.1251	-0.00298264	  -13.1251	  -74.5661	
  -13.0021	-0.00296477	  -12.9791	-0.00297693	  -13.0157	-0.00299477	  -12.9989	-0.00297883	  -12.9989	  -74.4706	
  -12.8756	-0.00296093	  -12.8536	-0.00297323	  -12.8893	-0.00299071	  -12.8728	-0.00297496	  -12.8728	   -74.374	
  -12.7487	-0.00295699	  -12.7274	-0.00296937	  -12.7626	-0.00298659	  -12.7462	-0.00297099	  -12.7462	  -74.2746	
   -12.621	-0.00295299	  -12.6012	-0.00296538	  -12.6353	-0.0029823	  -12.6192	-0.00296689	  -12.6192	  -74.1723	
  -12.4926	-0.00294896	  -12.4743	-0.00296135	  -12.5071	-0.00297783	  -12.4913	-0.00296271	  -12.4913	  -74.0677	
  -12.3639	-0.00294491	  -12.3472	-0.00295732	  -12.3787	-0.00297327	  -12.3633	-0.0029585	  -12.3633	  -73.9625	
  -12.2344	-0.00294085	  -12.2195	-0.00295333	  -12.2499	-0.00296874	  -12.2346	-0.00295431	  -12.2346	  -73.8577	
  -12.1043	-0.00293673	  -12.0918	-0.0029493	  -12.1204	-0.0029643	  -12.1055	-0.00295011	  -12.1055	  -73.7528	
  -11.9735	-0.00293255	   -11.963	-0.00294516	  -11.9906	-0.00295987	  -11.9757	-0.00294586	  -11.9757	  -73.6464	
  -11.8425	-0.00292827	  -11.8337	-0.0029409	  -11.8607	-0.00295533	  -11.8456	-0.0029415	  -11.8456	  -73.5375	
   -11.711	-0.0029239	  -11.7037	-0.00293653	    -11.73	-0.00295061	  -11.7149	-0.00293701	  -11.7149	  -73.4254	
  -11.5793	-0.00291947	  -11.5731	-0.00293208	  -11.5986	-0.00294572	  -11.5837	-0.00293242	  -11.5837	  -73.3105	
  -11.4467	 -0.002915	  -11.4417	-0.00292758	  -11.4661	-0.00294074	  -11.4515	-0.00292778	  -11.4515	  -73.1944	
   -11.314	-0.0029105	    -11.31	-0.00292307	  -11.3334	-0.00293578	  -11.3191	-0.00292311	  -11.3191	  -73.0779	
  -11.1806	-0.00290593	  -11.1774	-0.0029185	  -11.2006	-0.00293088	  -11.1862	-0.00291844	  -11.1862	  -72.9609	
  -11.0463	-0.00290129	  -11.0445	-0.00291386	  -11.0676	-0.00292598	  -11.0528	-0.00291371	  -11.0528	  -72.8427	
  -10.9121	-0.00289657	  -10.9113	-0.00290912	  -10.9336	-0.00292095	   -10.919	-0.00290888	   -10.919	  -72.7221	
  -10.7771	-0.00289178	  -10.7779	-0.00290429	  -10.7995	-0.00291579	  -10.7848	-0.00290395	  -10.7848	  -72.5989	
  -10.6421	-0.00288693	  -10.6444	-0.00289939	  -10.6648	-0.00291052	  -10.6504	-0.00289895	  -10.6504	  -72.4737	
   -10.507	-0.00288202	  -10.5097	-0.00289443	  -10.5304	-0.00290512	  -10.5157	-0.00289386	  -10.5157	  -72.3465	
  -10.3712	-0.00287704	  -10.3745	-0.00288943	  -10.3954	-0.00289967	  -10.3804	-0.00288871	  -10.3804	  -72.2178	
  -10.2353	-0.00287199	  -10.2385	-0.00288435	    -10.26	-0.00289417	  -10.2446	-0.0028835	  -10.2446	  -72.0876	
   -10.099	-0.00286688	  -10.1023	-0.00287919	  -10.1236	-0.00288862	  -10.1083	-0.00287823	  -10.1083	  -71.9557	
  -9.96239	-0.00286168	  -9.96561	-0.00287394	  -9.98734	-0.00288305	  -9.97178	-0.00287289	  -9.97178	  -71.8223	
  -9.82525	-0.00285642	  -9.82832	-0.00286859	   -9.8506	-0.0028775	  -9.83472	-0.0028675	  -9.83472	  -71.6876	
  -9.68782	-0.00285109	  -9.69044	-0.00286317	  -9.71387	-0.0028719	  -9.69738	-0.00286205	  -9.69738	  -71.5513	
  -9.55004	-0.00284568	   -9.5525	-0.00285768	  -9.57707	-0.00286616	  -9.55987	-0.00285651	  -9.55987	  -71.4127	
  -9.41163	-0.0028402	  -9.41338	-0.00285212	  -9.43938	-0.00286027	  -9.42146	-0.00285086	  -9.42146	  -71.2715	
  -9.27257	-0.00283465	  -9.27443	-0.00284648	  -9.30157	-0.00285425	  -9.28286	-0.00284513	  -9.28286	  -71.1282	
  -9.13312	-0.00282902	  -9.13507	-0.00284076	  -9.16309	-0.00284814	  -9.14376	-0.00283931	  -9.14376	  -70.9826	
    -8.993	-0.0028233	  -8.99526	-0.00283495	  -9.02392	-0.00284202	  -9.00406	-0.00283342	  -9.00406	  -70.8356	
  -8.85247	-0.0028175	  -8.85525	-0.00282906	  -8.88432	-0.00283593	  -8.86401	-0.00282749	  -8.86401	  -70.6874	
   -8.7123	-0.00281161	  -8.71527	-0.00282308	  -8.74401	-0.00282985	  -8.72386	-0.00282151	  -8.72386	  -70.5378	
  -8.57188	-0.00280565	  -8.57526	-0.00281702	  -8.60352	-0.00282367	  -8.58355	-0.00281545	  -8.58355	  -70.3861	
  -8.43143	-0.00279961	   -8.4349	-0.00281088	  -8.46255	-0.00281733	  -8.44296	-0.00280927	  -8.44296	  -70.2318	
  -8.29066	-0.00279349	  -8.29469	-0.00280465	  -8.32135	-0.0028108	  -8.30223	-0.00280298	  -8.30223	  -70.0745	
  -8.14979	-0.00278728	  -8.15405	-0.00279832	  -8.17989	-0.00280415	  -8.16124	-0.00279658	  -8.16124	  -69.9145	
  -8.00877	-0.00278097	  -8.01347	-0.00279189	  -8.03867	-0.00279745	  -8.02031	-0.0027901	  -8.02031	  -69.7525	
  -7.86758	-0.00277454	  -7.87213	-0.00278536	  -7.89708	-0.00279077	  -7.87893	-0.00278356	  -7.87893	  -69.5889	
  -7.72591	-0.00276801	  -7.73055	-0.00277876	  -7.75564	-0.00278408	  -7.73737	-0.00277695	  -7.73737	  -69.4237	
  -7.58428	-0.00276139	  -7.58975	-0.00277208	  -7.61323	-0.00277732	  -7.59575	-0.00277026	  -7.59575	  -69.2565	
   -7.4421	-0.0027547	  -7.44857	-0.00276529	  -7.47068	-0.00277039	  -7.45378	-0.00276346	  -7.45378	  -69.0865	
  -7.29996	-0.00274795	   -7.3073	-0.00275838	  -7.32799	-0.0027633	  -7.31175	-0.00275654	  -7.31175	  -68.9135	
  -7.15722	-0.0027411	  -7.16585	-0.00275132	  -7.18561	-0.00275609	  -7.16956	-0.0027495	  -7.16956	  -68.7376	
  -7.01416	-0.00273414	  -7.02418	-0.00274416	  -7.04348	-0.00274885	  -7.02727	-0.00274238	  -7.02727	  -68.5596	
  -6.87127	-0.00272706	    -6.882	-0.00273694	  -6.90125	-0.0027416	  -6.88484	-0.0027352	  -6.88484	    -68.38	
  -6.72851	-0.00271987	  -6.73956	-0.00272964	  -6.75889	-0.0027343	  -6.74232	-0.00272794	  -6.74232	  -68.1984	
  -6.58502	-0.00271256	  -6.59658	-0.00272223	  -6.61636	-0.00272687	  -6.59932	-0.00272055	  -6.59932	  -68.0138	
  -6.44134	-0.00270515	  -6.45385	-0.00271467	  -6.47364	-0.00271927	  -6.45628	-0.00271303	  -6.45628	  -67.8257	
  -6.29693	-0.00269762	   -6.3105	-0.00270695	  -6.33068	-0.0027115	  -6.31271	-0.00270536	  -6.31271	   -67.634	
   -6.1526	  -0.00269	  -6.16708	-0.00269915	  -6.18721	-0.00270364	  -6.16897	-0.00269759	  -6.16897	  -67.4399	
  -6.00777	-0.00268228	  -6.02303	-0.00269127	  -6.04296	-0.00269573	  -6.02459	-0.00268976	  -6.02459	  -67.2441	
  -5.86271	-0.0026745	  -5.87887	-0.00268334	  -5.89874	-0.00268777	  -5.88011	-0.00268187	  -5.88011	  -67.0468	
   -5.7174	-0.00266661	  -5.73405	-0.00267531	  -5.75397	-0.00267972	  -5.73514	-0.00267388	  -5.73514	   -66.847	
  -5.57261	-0.00265858	  -5.58937	-0.00266712	  -5.60894	-0.00267151	  -5.59031	-0.00266574	  -5.59031	  -66.6434	
  -5.42722	-0.00265035	  -5.44426	-0.00265875	  -5.46415	-0.00266313	  -5.44521	-0.00265741	  -5.44521	  -66.4352	
  -5.28201	-0.00264194	  -5.29898	-0.00265024	  -5.31954	-0.00265459	  -5.30018	-0.00264892	  -5.30018	  -66.2231	
  -5.13615	-0.0026334	   -5.1535	-0.00264163	  -5.17453	-0.00264596	  -5.15473	-0.00264033	  -5.15473	  -66.0083	
  -4.99019	-0.00262482	  -5.00781	-0.00263296	  -5.02912	-0.00263725	  -5.00904	-0.00263168	  -5.00904	   -65.792	
  -4.84384	-0.00261621	  -4.86189	-0.0026242	  -4.88357	-0.00262846	   -4.8631	-0.00262296	   -4.8631	  -65.5739	
  -4.69735	-0.00260749	  -4.71598	-0.00261532	  -4.73759	-0.00261953	  -4.71697	-0.00261412	  -4.71697	  -65.3529	
  -4.55017	-0.00259861	  -4.56953	-0.00260628	  -4.59118	-0.00261042	  -4.57029	-0.0026051	  -4.57029	  -65.1276	
   -4.4034	-0.0025895	  -4.42333	-0.00259707	  -4.44539	-0.00260112	  -4.42404	-0.0025959	  -4.42404	  -64.8974	
  -4.25722	-0.0025802	  -4.27653	-0.00258771	  -4.29935	-0.00259165	   -4.2777	-0.00258652	   -4.2777	  -64.6629	
   -4.1105	-0.00257082	   -4.1289	-0.00257832	  -4.15331	-0.00258194	  -4.13091	-0.00257703	  -4.13091	  -64.4256	
  -3.96352	-0.00256148	  -3.98021	-0.00256884	   -4.0067	-0.00257213	  -3.98348	-0.00256748	  -3.98348	  -64.1871	
  -3.81679	-0.00255216	  -3.83104	-0.0025593	  -3.85981	-0.00256228	  -3.83588	-0.00255791	  -3.83588	  -63.9478	
  -3.66948	-0.00254273	  -3.68193	-0.00254966	  -3.71263	-0.00255236	  -3.68801	-0.00254825	  -3.68801	  -63.7063	
  -3.52264	-0.00253307	  -3.53339	-0.00253985	  -3.56462	-0.00254232	  -3.54022	-0.00253841	  -3.54022	  -63.4603	
