# User: ACHyster
# File name: C:/ACHYSTER/ACHyster SENS/SHAMS/CoFe2O4-1gl-water-Zero Glycerol- Sens-07-03-2023/CoFe2O4-1gl-water-100-300kHz- 2kAm -Advance-14-03-20230001#1.txt
# Saved at: ma. mar. 14 18:35:32 2023
# Hyster Loop (3 iterations). Intensity: 12.0 kA/m; Tuned frequency: 99.1 kHz
# Units x axis: H (kA/m)
# Units y axis: "Repeats y" & "Average y" M (10^(-3)Am^2); "Mass avg y" normalized mass M (Am^2/kg)
# Magnetic mass: 4e-05 g
# Parameter      	Repeat   1	Repeat   2	Repeat   3	Average   	Sigma     
# H_C (kA/m)     	      10.8	      10.6	      10.8	      10.7	       0.1
# M_R (Am^2/kg)  	      33.8	      33.2	      33.8	      33.6	       0.3
# M_max (Am^2/kg)	      36.9	      37.3	      37.0	      37.1	       0.2
# Area (mJ/kg)   	    1589.7	    1562.7	    1590.1	    1580.8	      12.8
# SAR (W/g)      	     157.6	     154.9	     157.6	     156.7	       1.3
#Repeat 1 x	Repeat 1 y	Repeat 2 x	Repeat 2 y	Repeat 3 x	Repeat 3 y	Average x 	Average y 	Mass avg x 	Mass avg y 
  -1.75409	-0.00142862	  -1.74247	-0.00140719	  -1.75489	-0.00142413	  -1.75048	-0.00141998	  -1.75048	  -35.4995	
  -1.59887	-0.00142382	  -1.58767	-0.00140091	  -1.60008	-0.00141887	  -1.59554	-0.00141453	  -1.59554	  -35.3633	
  -1.44349	-0.00141884	  -1.43275	-0.00139441	  -1.44505	-0.00141351	  -1.44043	-0.00140892	  -1.44043	   -35.223	
  -1.28815	-0.00141368	  -1.27697	-0.00138762	  -1.28907	-0.00140806	  -1.28473	-0.00140312	  -1.28473	  -35.0779	
  -1.13302	-0.00140817	  -1.12157	-0.00138051	  -1.13294	-0.00140207	  -1.12918	-0.00139692	  -1.12918	  -34.9229	
 -0.977282	-0.00140232	 -0.965723	-0.00137322	 -0.976841	-0.00139568	 -0.973282	-0.00139041	 -0.973282	  -34.7601	
 -0.821208	-0.00139625	 -0.810135	-0.00136584	 -0.821415	-0.00138933	 -0.817586	-0.0013838	 -0.817586	  -34.5951	
  -0.66441	-0.00138988	  -0.65462	-0.00135825	 -0.666333	-0.00138284	 -0.661787	-0.00137699	 -0.661787	  -34.4247	
 -0.507344	-0.00138319	 -0.498248	-0.00135036	 -0.511158	-0.00137611	 -0.505584	-0.00136989	 -0.505584	  -34.2472	
 -0.350697	-0.00137632	 -0.342262	-0.00134235	 -0.355601	-0.00136938	  -0.34952	-0.00136268	  -0.34952	   -34.067	
 -0.194584	-0.00136926	 -0.186305	-0.0013342	 -0.199884	-0.00136253	 -0.193591	-0.00135533	 -0.193591	  -33.8832	
-0.0385545	-0.00136201	-0.0308638	-0.00132574	-0.0441316	-0.00135519	  -0.03785	-0.00134765	  -0.03785	  -33.6912	
  0.118089	-0.00135451	  0.124755	-0.00131702	  0.111866	-0.00134754	  0.118237	-0.00133969	  0.118237	  -33.4922	
  0.275064	-0.00134678	   0.28036	-0.00130813	  0.267904	-0.00133981	  0.274442	-0.00133158	  0.274442	  -33.2894	
  0.431205	-0.00133879	  0.435783	-0.00129902	  0.423337	-0.00133181	  0.430108	-0.00132321	  0.430108	  -33.0803	
  0.586848	-0.00133037	  0.590804	-0.00128971	  0.578474	-0.00132352	  0.585376	-0.00131453	  0.585376	  -32.8633	
  0.741994	-0.00132173	  0.746339	-0.00128025	  0.733751	-0.0013151	  0.740695	-0.00130569	  0.740695	  -32.6424	
  0.897029	-0.00131304	  0.901682	-0.00127059	  0.888988	-0.00130646	  0.895899	-0.0012967	  0.895899	  -32.4174	
    1.0518	-0.00130415	   1.05716	-0.00126069	   1.04449	-0.00129749	   1.05115	-0.00128744	   1.05115	  -32.1861	
   1.20635	-0.00129513	   1.21227	-0.00125057	   1.20012	-0.00128822	   1.20624	-0.00127797	   1.20624	  -31.9493	
   1.36133	-0.00128602	   1.36769	-0.0012402	   1.35562	-0.00127876	   1.36155	-0.00126833	   1.36155	  -31.7081	
   1.51606	-0.00127658	    1.5232	-0.00122957	   1.51083	-0.00126911	    1.5167	-0.00125842	    1.5167	  -31.4605	
   1.67041	-0.00126672	   1.67816	-0.00121873	   1.66519	-0.00125917	   1.67125	-0.00124821	   1.67125	  -31.2052	
    1.8243	-0.00125679	   1.83249	-0.00120778	   1.81914	-0.00124896	   1.82531	-0.00123784	   1.82531	  -30.9461	
   1.97813	-0.00124675	   1.98663	-0.00119667	   1.97267	-0.0012385	   1.97914	-0.00122731	   1.97914	  -30.6827	
   2.13175	-0.00123648	   2.14043	-0.00118528	   2.12611	-0.00122771	   2.13276	-0.00121649	   2.13276	  -30.4123	
   2.28506	-0.00122604	   2.29382	-0.00117365	   2.27931	-0.00121674	   2.28606	-0.00120548	   2.28606	   -30.137	
    2.4375	-0.00121542	   2.44625	-0.00116181	   2.43219	-0.00120562	   2.43865	-0.00119428	   2.43865	  -29.8571	
   2.58986	-0.0012044	   2.59854	-0.00114977	   2.58421	-0.00119417	   2.59087	-0.00118278	   2.59087	  -29.5695	
   2.74219	-0.00119298	   2.75072	-0.00113759	   2.73631	-0.00118241	   2.74307	-0.00117099	   2.74307	  -29.2748	
   2.89437	-0.00118135	   2.90224	-0.00112519	   2.88788	-0.00117049	   2.89483	-0.00115901	   2.89483	  -28.9752	
   3.04583	-0.00116951	   3.05354	-0.0011126	   3.03937	-0.00115822	   3.04625	-0.00114678	   3.04625	  -28.6694	
    3.1972	-0.00115745	   3.20394	-0.00109981	   3.19044	-0.00114573	   3.19719	-0.00113433	   3.19719	  -28.3583	
   3.34822	-0.00114516	   3.35364	-0.00108672	   3.34082	-0.00113327	   3.34756	-0.00112172	   3.34756	  -28.0429	
   3.49885	-0.00113266	   3.50219	-0.00107349	   3.49053	-0.00112063	   3.49719	-0.00110893	   3.49719	  -27.7232	
   3.64856	-0.00111984	   3.65063	-0.00106012	   3.63957	-0.00110777	   3.64626	-0.00109591	   3.64626	  -27.3976	
   3.79744	-0.00110669	   3.79845	-0.00104649	   3.78798	-0.00109481	   3.79462	-0.00108266	   3.79462	  -27.0666	
   3.94576	-0.00109338	   3.94551	-0.00103268	   3.93524	-0.0010816	   3.94217	-0.00106922	   3.94217	  -26.7305	
    4.0933	-0.00107996	   4.09159	-0.00101876	   4.08155	-0.00106793	   4.08881	-0.00105555	   4.08881	  -26.3887	
   4.24013	-0.00106632	   4.23725	-0.00100457	   4.22749	-0.00105412	   4.23496	-0.00104167	   4.23496	  -26.0417	
   4.38631	-0.00105244	   4.38159	-0.000990142	   4.37307	-0.00104025	   4.38032	-0.00102761	   4.38032	  -25.6902	
   4.53167	-0.00103834	   4.52551	-0.00097566	    4.5177	-0.00102622	   4.52496	-0.00101341	   4.52496	  -25.3352	
   4.67561	-0.00102403	   4.66882	-0.000961117	   4.66119	-0.00101201	   4.66854	-0.000999053	   4.66854	  -24.9763	
   4.81927	-0.00100946	   4.81161	-0.000946328	   4.80418	-0.000997638	   4.81168	-0.000984475	   4.81168	  -24.6119	
   4.96175	-0.000994746	   4.95397	-0.000931247	   4.94628	-0.000982979	     4.954	-0.000969657	     4.954	  -24.2414	
   5.10309	-0.000979959	   5.09535	-0.000916078	    5.0875	-0.000968114	   5.09531	-0.000954717	   5.09531	  -23.8679	
   5.24365	-0.000964974	   5.23608	-0.000900746	   5.22767	-0.000953106	    5.2358	-0.000939609	    5.2358	  -23.4902	
   5.38358	-0.000949753	   5.37583	-0.000885139	   5.36748	-0.000937927	   5.37563	-0.000924273	   5.37563	  -23.1068	
   5.52256	-0.00093438	   5.51432	-0.000869478	   5.50655	-0.000922655	   5.51448	-0.000908837	   5.51448	  -22.7209	
   5.66064	-0.000918748	   5.65212	-0.000853675	   5.64489	-0.000907309	   5.65255	-0.000893244	   5.65255	  -22.3311	
   5.79816	-0.000902905	   5.78911	-0.000837516	   5.78236	-0.000891764	   5.78988	-0.000877395	   5.78988	  -21.9349	
   5.93529	-0.00088705	   5.92549	-0.000821259	   5.91918	-0.000876027	   5.92665	-0.000861445	   5.92665	  -21.5361	
   6.07078	-0.000871004	    6.0605	-0.000804994	   6.05505	-0.000860182	   6.06211	-0.000845393	   6.06211	  -21.1348	
   6.20498	-0.00085467	   6.19448	-0.00078848	   6.18977	-0.000844066	   6.19641	-0.000829072	   6.19641	  -20.7268	
   6.33828	-0.00083822	   6.32738	-0.000771742	   6.32369	-0.000827673	   6.32978	-0.000812545	   6.32978	  -20.3136	
   6.47088	-0.000821621	   6.45935	-0.00075497	   6.45605	-0.000811165	   6.46209	-0.000795918	   6.46209	   -19.898	
   6.60255	-0.000804783	   6.59023	-0.000738063	   6.58724	-0.000794487	   6.59334	-0.000779111	   6.59334	  -19.4778	
   6.73313	-0.000787872	   6.71988	-0.000720948	   6.71713	-0.000777607	   6.72338	-0.000762142	   6.72338	  -19.0536	
   6.86233	-0.000770875	   6.84811	-0.000703751	   6.84595	-0.000760609	   6.85213	-0.000745079	   6.85213	   -18.627	
    6.9907	-0.000753636	   6.97544	-0.0006865	   6.97373	-0.000743498	   6.97996	-0.000727878	   6.97996	  -18.1969	
   7.11763	-0.000736259	   7.10173	-0.000669087	   7.10038	-0.000726145	   7.10658	-0.000710497	   7.10658	  -17.7624	
   7.24263	-0.000718823	   7.22645	-0.000651459	   7.22536	-0.000708628	   7.23148	-0.00069297	   7.23148	  -17.3242	
    7.3671	-0.000701235	   7.35054	-0.000633616	   7.34963	-0.000691055	   7.35576	-0.000675302	   7.35576	  -16.8825	
    7.4905	-0.000683482	   7.47389	-0.000615577	   7.47308	-0.000673361	   7.47916	-0.000657473	   7.47916	  -16.4368	
   7.61233	-0.000665616	   7.59592	-0.000597271	   7.59563	-0.000655544	   7.60129	-0.000639477	   7.60129	  -15.9869	
   7.73311	-0.000647652	   7.71667	-0.000578827	   7.71628	-0.000637684	   7.72202	-0.000621388	   7.72202	  -15.5347	
   7.85237	-0.000629475	   7.83615	-0.000560383	   7.83518	-0.000619678	   7.84123	-0.000603179	   7.84123	  -15.0795	
   7.96989	-0.000611116	    7.9545	-0.000541721	   7.95299	-0.000601453	   7.95913	-0.000584763	   7.95913	  -14.6191	
   8.08519	-0.000592652	   8.07166	-0.000522855	   8.06967	-0.000583077	   8.07551	-0.000566195	   8.07551	  -14.1549	
   8.19947	-0.000574102	   8.18771	-0.000503806	   8.18528	-0.000564621	   8.19082	-0.00054751	   8.19082	  -13.6877	
   8.31231	-0.000555432	   8.30223	-0.00048448	   8.29941	-0.000546105	   8.30465	-0.000528672	   8.30465	  -13.2168	
   8.42348	-0.000536599	   8.41498	-0.000465009	   8.41222	-0.000527515	   8.41689	-0.000509707	   8.41689	  -12.7427	
   8.53312	-0.000517613	   8.52657	-0.00044548	   8.52383	-0.000508782	   8.52784	-0.000490625	   8.52784	  -12.2656	
   8.64145	-0.000498423	   8.63666	-0.000425955	   8.63392	-0.000489915	   8.63734	-0.000471431	   8.63734	  -11.7858	
   8.74867	-0.000479136	   8.74498	-0.000406354	   8.74269	-0.000470849	   8.74545	-0.000452113	   8.74545	  -11.3028	
   8.85486	-0.00045977	   8.85219	-0.000386713	   8.84987	-0.000451587	   8.85231	-0.00043269	   8.85231	  -10.8172	
   8.95936	-0.000440306	   8.95761	-0.000367077	   8.95571	-0.000432292	   8.95756	-0.000413225	   8.95756	  -10.3306	
   9.06246	-0.00042077	   9.06156	-0.000347207	   9.05998	-0.000412968	   9.06133	-0.000393648	   9.06133	  -9.84121	
   9.16398	-0.000401153	   9.16337	-0.000327205	   9.16203	-0.000393586	   9.16313	-0.000373981	   9.16313	  -9.34953	
   9.26425	-0.000381426	   9.26393	-0.000307234	   9.26275	-0.000374187	   9.26365	-0.000354282	   9.26365	  -8.85705	
   9.36263	-0.000361554	   9.36214	-0.00028716	   9.36152	-0.000354654	    9.3621	-0.000334456	    9.3621	   -8.3614	
      9.46	-0.00034158	   9.45941	-0.000267052	   9.45921	-0.000335001	   9.45954	-0.000314545	   9.45954	  -7.86361	
   9.55573	-0.000321558	    9.5551	-0.000246955	   9.55474	-0.000315381	   9.55519	-0.000294631	   9.55519	  -7.36578	
   9.64928	-0.000301435	   9.64867	-0.000226741	   9.64859	-0.000295734	   9.64885	-0.000274637	   9.64885	  -6.86592	
   9.74119	-0.000281238	   9.74064	-0.000206373	   9.74075	-0.000275956	   9.74086	-0.000254522	   9.74086	  -6.36306	
   9.83145	-0.000261077	     9.831	-0.000185998	   9.83074	-0.0002562	   9.83106	-0.000234425	   9.83106	  -5.86064	
   9.92055	-0.000240851	   9.92022	-0.000165586	   9.91961	-0.00023648	   9.92013	-0.000214305	   9.92013	  -5.35764	
    10.008	-0.000220497	   10.0073	-0.00014506	   10.0064	-0.000216535	   10.0072	-0.00019403	   10.0072	  -4.85076	
   10.0939	-0.000200149	   10.0927	-0.000124621	   10.0918	-0.000196379	   10.0928	-0.000173716	   10.0928	   -4.3429	
   10.1784	-0.000179737	   10.1767	-0.000104208	   10.1758	-0.000176198	   10.1769	-0.000153381	   10.1769	  -3.83453	
   10.2608	-0.000159223	   10.2583	-8.36307e-05	   10.2574	-0.00015587	   10.2589	-0.000132908	   10.2589	   -3.3227	
   10.3415	-0.000138776	   10.3389	-6.30435e-05	   10.3374	-0.000135458	   10.3393	-0.000112426	   10.3393	  -2.81064	
   10.4205	-0.000118385	   10.4175	-4.23916e-05	    10.416	-0.000115146	    10.418	-9.19742e-05	    10.418	  -2.29935	
   10.4972	-9.795e-05	   10.4939	-2.16901e-05	   10.4923	-9.49009e-05	   10.4945	-7.15137e-05	   10.4945	  -1.78784	
   10.5718	-7.75211e-05	   10.5684	-1.13216e-06	   10.5671	-7.45639e-05	   10.5691	-5.10724e-05	   10.5691	  -1.27681	
   10.6451	-5.71287e-05	   10.6416	1.93258e-05	   10.6406	-5.41457e-05	   10.6424	-3.06496e-05	   10.6424	 -0.766239	
   10.7163	-3.66705e-05	   10.7129	3.97741e-05	    10.712	-3.36012e-05	   10.7138	-1.01659e-05	   10.7138	 -0.254147	
   10.7854	-1.62025e-05	   10.7825	6.02222e-05	   10.7817	-1.2923e-05	   10.7832	1.03656e-05	   10.7832	  0.259139	
   10.8531	4.24538e-06	   10.8508	8.06393e-05	   10.8496	7.68421e-06	   10.8512	3.08563e-05	   10.8512	  0.771408	
   10.9192	2.46105e-05	   10.9175	0.000101018	   10.9159	2.81177e-05	   10.9175	5.12488e-05	   10.9175	   1.28122	
   10.9837	4.49658e-05	    10.982	0.000121336	   10.9805	4.84264e-05	   10.9821	7.1576e-05	   10.9821	    1.7894	
   11.0462	6.54931e-05	   11.0443	0.000141613	   11.0428	6.87249e-05	   11.0444	9.19438e-05	   11.0444	    2.2986	
   11.1074	8.61634e-05	   11.1048	0.000161894	   11.1024	8.91424e-05	   11.1049	 0.0001124	   11.1049	      2.81	
    11.167	0.000106785	   11.1635	0.000182153	   11.1608	0.000109653	   11.1638	0.000132864	   11.1638	   3.32159	
   11.2247	0.000127384	   11.2205	0.000202465	   11.2175	0.000130127	   11.2209	0.000153325	   11.2209	   3.83313	
   11.2807	0.000147917	   11.2752	0.000222781	    11.272	0.000150503	   11.2759	0.000173734	   11.2759	   4.34334	
   11.3342	0.000168292	   11.3278	0.000243008	   11.3239	0.000170768	   11.3286	0.000194023	   11.3286	   4.85056	
   11.3859	0.000188668	   11.3784	0.000263212	   11.3734	0.000190896	   11.3792	0.000214259	   11.3792	   5.35646	
   11.4364	0.000209161	   11.4275	 0.0002834	   11.4217	0.000210951	   11.4285	0.000234504	   11.4285	    5.8626	
   11.4851	0.000229636	    11.475	0.000303569	   11.4684	0.000231104	   11.4762	0.00025477	   11.4762	   6.36924	
   11.5318	0.000250066	   11.5207	0.000323712	   11.5136	0.000251334	    11.522	0.000275038	    11.522	   6.87594	
   11.5761	0.000270379	   11.5644	0.000343778	   11.5569	0.000271439	   11.5658	0.000295199	   11.5658	   7.37997	
   11.6179	0.000290518	   11.6059	0.000363717	    11.598	0.000291403	   11.6073	0.000315213	   11.6073	   7.88032	
    11.657	0.000310513	   11.6449	0.000383469	   11.6368	0.000311314	   11.6462	0.000335099	   11.6462	   8.37746	
   11.6941	0.000330417	   11.6817	0.000403077	   11.6735	0.000331064	   11.6831	0.000354853	   11.6831	   8.87132	
   11.7287	0.000350431	   11.7159	0.000422664	   11.7077	0.000350735	   11.7174	0.00037461	   11.7174	   9.36525	
   11.7608	0.000370473	   11.7478	0.000442137	   11.7391	0.000370449	   11.7493	0.000394353	   11.7493	   9.85882	
   11.7909	0.000390264	   11.7779	0.000461424	   11.7689	0.00039004	   11.7792	0.000413909	   11.7792	   10.3477	
   11.8194	0.000409885	   11.8059	0.000480697	   11.7967	0.000409549	   11.8074	0.000433377	   11.8074	   10.8344	
   11.8457	0.000429412	    11.832	0.000499911	   11.8227	0.000429057	   11.8335	0.000452793	   11.8335	   11.3198	
   11.8707	0.000448765	   11.8566	0.000518846	   11.8467	0.000448419	    11.858	0.00047201	    11.858	   11.8003	
   11.8933	0.000467961	   11.8795	0.000537581	   11.8684	 0.0004676	   11.8804	0.000491047	   11.8804	   12.2762	
   11.9135	0.000487158	   11.8998	0.000556323	   11.8878	0.00048668	   11.9004	0.000510054	   11.9004	   12.7513	
   11.9316	0.000506254	   11.9182	0.000575017	   11.9054	0.000505614	   11.9184	0.000528962	   11.9184	    13.224	
   11.9481	0.000525086	   11.9343	0.000593569	    11.921	0.000524409	   11.9345	0.000547688	   11.9345	   13.6922	
   11.9622	0.000543676	   11.9477	0.000612099	   11.9346	0.000543208	   11.9481	0.000566328	   11.9481	   14.1582	
   11.9739	0.000562078	   11.9591	0.000630585	   11.9466	0.000561874	   11.9599	0.000584845	   11.9599	   14.6211	
   11.9831	0.000580214	   11.9688	0.00064883	   11.9565	0.000580291	   11.9695	0.000603112	   11.9695	   15.0778	
   11.9902	0.000598156	   11.9764	0.000666903	   11.9644	0.00059861	    11.977	0.000621223	    11.977	   15.5306	
   11.9953	0.000616073	   11.9822	0.000684988	   11.9705	0.000616782	   11.9827	0.000639281	   11.9827	    15.982	
   11.9987	0.000633975	   11.9864	0.000703024	   11.9751	0.000634556	   11.9867	0.000657185	   11.9867	   16.4296	
   12.0006	0.000651693	   11.9889	0.000720913	   11.9779	0.000652269	   11.9891	0.000674958	   11.9891	    16.874	
   12.0008	0.000669142	   11.9901	0.000738714	   11.9792	0.000670139	     11.99	0.000692665	     11.99	   17.3166	
   11.9986	0.000686439	   11.9895	0.000756389	   11.9791	0.00068781	    11.989	0.000710213	    11.989	   17.7553	
   11.9944	0.000703724	   11.9868	0.000773822	   11.9764	0.000705404	   11.9859	0.00072765	   11.9859	   18.1912	
   11.9881	0.000720895	   11.9818	0.00079105	   11.9724	0.000723263	   11.9808	0.000745069	   11.9808	   18.6267	
   11.9797	0.000737933	   11.9747	0.000808207	   11.9661	0.000740941	   11.9735	0.000762361	   11.9735	    19.059	
   11.9697	0.000754964	   11.9658	0.000825214	   11.9579	0.000758147	   11.9645	0.000779442	   11.9645	    19.486	
   11.9579	0.000771734	   11.9551	0.000842047	   11.9474	0.000775297	   11.9535	0.000796359	   11.9535	    19.909	
   11.9442	0.000788114	   11.9423	0.000858742	   11.9353	0.000792375	   11.9406	0.000813077	   11.9406	   20.3269	
   11.9282	0.000804388	   11.9273	0.000875218	   11.9203	0.000809204	   11.9253	0.000829603	   11.9253	   20.7401	
   11.9102	0.000820615	     11.91	0.000891476	   11.9032	0.00082608	   11.9078	0.000846057	   11.9078	   21.1514	
   11.8907	0.000836673	   11.8912	0.000907549	   11.8854	0.000843036	   11.8891	0.00086242	   11.8891	   21.5605	
   11.8692	0.000852747	   11.8703	0.000923371	    11.865	0.00085959	   11.8682	0.00087857	   11.8682	   21.9642	
   11.8453	0.000868804	    11.847	0.00093903	   11.8432	0.000875795	   11.8452	0.000894543	   11.8452	   22.3636	
   11.8194	0.000884477	   11.8216	0.000954642	   11.8191	0.000891826	     11.82	0.000910315	     11.82	   22.7579	
   11.7916	0.000899869	   11.7947	0.000970022	   11.7932	0.000907492	   11.7932	0.000925794	   11.7932	   23.1449	
   11.7622	0.000915169	    11.766	0.00098511	   11.7645	0.000923065	   11.7642	0.000941115	   11.7642	   23.5279	
   11.7307	0.000930261	   11.7348	0.00100005	   11.7339	0.000938792	   11.7331	0.000956366	   11.7331	   23.9092	
   11.6976	0.000945298	   11.7018	0.00101472	    11.701	0.000954399	   11.7002	0.000971473	   11.7002	   24.2868	
   11.6631	0.000960453	   11.6665	0.00102908	    11.667	0.000969722	   11.6655	0.000986419	   11.6655	   24.6605	
   11.6259	0.000975348	   11.6291	0.00104336	   11.6303	0.00098475	   11.6284	0.00100115	   11.6284	   25.0288	
    11.587	0.000989861	     11.59	0.00105759	   11.5917	0.000999449	   11.5896	0.00101563	   11.5896	   25.3908	
   11.5458	 0.0010042	   11.5492	0.00107153	   11.5512	0.00101386	   11.5487	0.00102986	   11.5487	   25.7466	
   11.5027	0.00101833	   11.5059	0.00108527	   11.5081	0.00102818	   11.5056	0.00104393	   11.5056	   26.0982	
   11.4577	0.00103225	   11.4612	0.00109881	    11.463	0.00104254	   11.4606	0.00105787	   11.4606	   26.4467	
   11.4106	0.00104616	   11.4139	0.00111203	   11.4157	0.00105674	   11.4134	0.00107164	   11.4134	    26.791	
   11.3615	0.00105999	   11.3642	0.00112507	   11.3664	0.00107059	    11.364	0.00108522	    11.364	   27.1304	
   11.3104	0.00107356	   11.3122	0.00113804	   11.3146	0.00108414	   11.3124	0.00109858	   11.3124	   27.4646	
   11.2576	0.00108685	   11.2581	0.00115077	   11.2606	0.00109736	   11.2587	0.00111166	   11.2587	   27.7915	
   11.2033	0.00109988	   11.2024	0.00116319	   11.2044	0.00111032	   11.2034	0.00112446	   11.2034	   28.1116	
   11.1471	0.00111263	   11.1442	0.00117546	   11.1465	0.00112317	   11.1459	0.00113709	   11.1459	   28.4272	
   11.0892	0.00112517	   11.0842	0.00118747	   11.0872	0.00113602	   11.0869	0.00114955	   11.0869	   28.7389	
   11.0292	0.00113765	   11.0217	 0.0011992	   11.0261	0.00114861	   11.0256	0.00116182	   11.0256	   29.0456	
   10.9673	   0.00115	   10.9574	0.00121076	   10.9632	0.00116079	   10.9626	0.00117385	   10.9626	   29.3462	
   10.9031	0.00116217	   10.8909	0.00122208	   10.8979	0.00117286	   10.8973	0.00118571	   10.8973	   29.6426	
    10.837	0.00117403	   10.8231	0.00123312	   10.8309	0.00118466	   10.8303	0.00119727	   10.8303	   29.9317	
   10.7684	0.00118548	   10.7532	0.00124388	   10.7615	0.00119606	    10.761	0.00120847	    10.761	   30.2118	
    10.698	0.00119669	   10.6811	0.00125439	   10.6906	 0.0012075	   10.6899	0.00121953	   10.6899	   30.4882	
   10.6262	0.00120779	    10.607	0.00126473	   10.6178	0.00121884	    10.617	0.00123046	    10.617	   30.7614	
   10.5528	0.00121877	   10.5314	0.00127484	    10.543	0.00122971	   10.5424	0.00124111	   10.5424	   31.0277	
    10.477	0.00122964	   10.4546	0.00128478	   10.4662	0.00124034	    10.466	0.00125159	    10.466	   31.2897	
   10.3993	0.00124028	   10.3764	0.00129457	   10.3888	0.00125078	   10.3882	0.00126188	   10.3882	    31.547	
   10.3196	0.00125055	   10.2965	0.00130411	   10.3093	0.00126083	   10.3085	0.00127183	   10.3085	   31.7957	
   10.2378	0.00126048	    10.215	0.00131327	   10.2284	0.00127069	   10.2271	0.00128148	   10.2271	   32.0369	
   10.1545	0.00127019	   10.1322	0.00132213	   10.1459	0.00128033	   10.1442	0.00129088	   10.1442	    32.272	
   10.0696	 0.0012797	   10.0481	0.00133083	   10.0617	0.00128959	   10.0598	0.00130004	   10.0598	    32.501	
   9.98298	0.00128906	     9.962	0.00133935	    9.9759	0.00129857	   9.97363	0.00130899	   9.97363	   32.7248	
   9.89422	0.00129841	   9.87398	 0.0013477	   9.88862	0.00130736	    9.8856	0.00131782	    9.8856	   32.9456	
    9.8044	0.00130767	   9.78415	0.00135586	   9.80009	0.00131591	   9.79621	0.00132648	   9.79621	    33.162	
   9.71253	0.00131652	   9.69258	0.00136377	   9.70936	 0.0013243	   9.70482	0.00133486	   9.70482	   33.3715	
   9.61921	0.00132503	   9.59933	0.00137126	   9.61654	0.00133254	    9.6117	0.00134295	    9.6117	   33.5736	
   9.52411	0.00133343	   9.50498	0.00137841	   9.52227	0.00134055	   9.51712	 0.0013508	   9.51712	   33.7699	
   9.42681	0.00134159	    9.4086	0.00138543	   9.42615	0.00134823	   9.42052	0.00135842	   9.42052	   33.9604	
   9.32755	 0.0013494	   9.31038	0.00139237	   9.32878	0.00135562	   9.32224	 0.0013658	   9.32224	    34.145	
   9.22652	0.00135714	   9.21143	0.00139907	    9.2298	0.00136286	   9.22258	0.00137302	   9.22258	   34.3255	
   9.12386	0.00136469	   9.11036	0.00140554	   9.12841	0.00136991	   9.12088	0.00138005	   9.12088	   34.5012	
   9.01939	0.00137178	   9.00791	0.00141175	    9.0254	0.00137682	   9.01757	0.00138678	   9.01757	   34.6696	
   8.91385	0.00137856	   8.90424	0.00141758	   8.92098	0.00138362	   8.91302	0.00139326	   8.91302	   34.8314	
    8.8069	0.00138514	   8.79858	0.00142315	   8.81442	0.00139013	   8.80663	0.00139948	   8.80663	   34.9869	
   8.69878	0.00139146	   8.69168	0.00142861	   8.70696	0.00139626	   8.69914	0.00140544	   8.69914	   35.1361	
   8.58969	0.00139753	   8.58374	0.00143399	   8.59831	0.00140214	   8.59058	0.00141122	   8.59058	   35.2804	
   8.47935	 0.0014034	   8.47403	0.00143914	   8.48775	0.00140787	   8.48038	0.00141681	   8.48038	   35.4202	
   8.36753	  0.001409	   8.36285	0.00144402	   8.37609	0.00141345	   8.36882	0.00142215	   8.36882	   35.5538	
   8.25454	0.00141435	   8.25095	0.00144866	   8.26311	0.00141886	    8.2562	0.00142729	    8.2562	   35.6822	
   8.14017	0.00141951	   8.13798	0.00145306	   8.14862	0.00142405	   8.14226	0.00143221	   8.14226	   35.8052	
   8.02383	0.00142439	   8.02287	0.00145732	   8.03251	0.00142893	    8.0264	0.00143688	    8.0264	    35.922	
   7.90593	  0.001429	   7.90606	0.00146148	   7.91469	0.00143352	   7.90889	0.00144133	   7.90889	   36.0334	
   7.78595	0.00143344	   7.78843	0.00146551	   7.79604	0.00143789	   7.79014	0.00144561	   7.79014	   36.1403	
   7.66523	0.00143774	   7.66969	0.00146934	   7.67591	  0.001442	   7.67028	 0.0014497	   7.67028	   36.2424	
   7.54276	0.00144187	   7.54933	0.00147288	   7.55425	0.00144592	   7.54878	0.00145355	   7.54878	   36.3388	
   7.41903	 0.0014458	   7.42732	0.00147611	   7.43196	0.00144975	   7.42611	0.00145722	   7.42611	   36.4304	
   7.29445	0.00144951	   7.30411	0.00147926	   7.30841	0.00145337	   7.30232	0.00146071	   7.30232	   36.5178	
   7.16853	0.00145302	   7.17926	0.00148222	   7.18355	0.00145675	   7.17712	0.00146399	   7.17712	   36.5999	
   7.04167	0.00145623	    7.0532	0.00148496	   7.05689	0.00146011	   7.05058	 0.0014671	   7.05058	   36.6775	
   6.91334	0.00145917	   6.92542	0.00148754	   6.92898	0.00146318	   6.92258	0.00146996	   6.92258	   36.7491	
   6.78451	0.00146191	   6.79648	0.00148982	   6.79982	0.00146586	    6.7936	0.00147253	    6.7936	   36.8133	
   6.65509	0.00146444	   6.66685	0.00149167	   6.66992	0.00146844	   6.66395	0.00147485	   6.66395	   36.8712	
   6.52454	0.00146669	   6.53639	0.00149326	   6.53952	0.00147081	   6.53348	0.00147692	   6.53348	    36.923	
   6.39288	 0.0014687	   6.40423	0.00149464	   6.40731	0.00147284	   6.40147	0.00147873	   6.40147	   36.9681	
   6.26014	0.00147059	   6.27142	0.00149574	   6.27438	0.00147481	   6.26865	0.00148038	   6.26865	   37.0095	
   6.12682	0.00147225	   6.13795	0.00149665	   6.13977	0.00147667	   6.13485	0.00148186	   6.13485	   37.0464	
    5.9929	0.00147362	   6.00301	0.00149743	   6.00497	0.00147818	   6.00029	0.00148308	   6.00029	   37.0769	
    5.8579	0.00147493	   5.86707	0.00149788	    5.8686	0.00147946	   5.86452	0.00148409	   5.86452	   37.1022	
   5.72143	 0.0014761	   5.72972	0.00149795	   5.73221	0.00148053	   5.72779	0.00148486	   5.72779	   37.1215	
    5.5841	0.00147689	   5.59112	0.00149779	   5.59433	0.00148123	   5.58985	0.00148531	   5.58985	   37.1327	
   5.44574	 0.0014774	   5.45166	0.00149744	   5.45614	0.00148173	   5.45118	0.00148552	   5.45118	   37.1381	
   5.30671	0.00147772	   5.31119	0.00149681	   5.31616	0.00148218	   5.31135	0.00148557	   5.31135	   37.1393	
   5.16659	0.00147772	   5.17032	0.00149599	   5.17558	0.00148244	   5.17083	0.00148538	   5.17083	   37.1345	
   5.02599	0.00147753	   5.02815	  0.001495	   5.03306	0.00148244	   5.02907	0.00148499	   5.02907	   37.1247	
    4.8845	0.00147725	   4.88535	 0.0014937	   4.89032	0.00148226	   4.88672	 0.0014844	   4.88672	   37.1101	
   4.74208	0.00147669	   4.74147	0.00149196	   4.74676	0.00148171	   4.74344	0.00148345	   4.74344	   37.0864	
   4.59904	0.00147578	   4.59726	0.00148997	   4.60315	0.00148086	   4.59982	 0.0014822	   4.59982	   37.0551	
   4.45502	0.00147471	   4.45185	0.00148789	   4.45858	 0.0014798	   4.45515	 0.0014808	   4.45515	     37.02	
   4.31019	0.00147342	   4.30593	0.00148557	    4.3137	0.00147852	   4.30994	0.00147917	   4.30994	   36.9792	
   4.16432	0.00147183	   4.15925	0.00148296	    4.1685	0.00147704	   4.16402	0.00147728	   4.16402	   36.9319	
   4.01754	0.00147017	   4.01189	0.00148017	   4.02174	0.00147547	   4.01706	0.00147527	   4.01706	   36.8817	
   3.87052	0.00146851	   3.86404	0.00147709	   3.87421	0.00147366	   3.86959	0.00147309	   3.86959	   36.8272	
   3.72243	0.00146652	   3.71537	0.00147364	   3.72655	0.00147141	   3.72145	0.00147052	   3.72145	   36.7631	
   3.57372	0.00146419	   3.56592	0.00147002	   3.57776	0.00146888	   3.57247	 0.0014677	   3.57247	   36.6924	
   3.42389	0.00146172	   3.41561	0.00146627	   3.42778	0.00146621	   3.42243	0.00146473	   3.42243	   36.6183	
   3.27415	  0.001459	   3.26468	0.00146234	   3.27786	0.00146325	   3.27223	0.00146153	   3.27223	   36.5383	
   3.12363	0.00145591	   3.11332	0.00145836	   3.12759	0.00146007	   3.12151	0.00145812	   3.12151	   36.4529	
   2.97294	0.00145274	   2.96173	0.00145422	   2.97666	0.00145683	   2.97044	 0.0014546	   2.97044	   36.3649	
   2.82138	0.00144945	   2.80959	0.00144967	    2.8253	0.00145335	   2.81876	0.00145083	   2.81876	   36.2706	
   2.66873	0.00144585	   2.65664	 0.0014448	   2.67322	0.00144955	    2.6662	0.00144673	    2.6662	   36.1682	
   2.51622	0.00144197	   2.50316	0.00143977	   2.52064	0.00144556	   2.51334	0.00144244	   2.51334	   36.0609	
   2.36304	0.00143786	   2.34889	0.00143456	   2.36778	0.00144136	    2.3599	0.00143793	    2.3599	   35.9482	
   2.20957	0.00143347	   2.19436	0.00142918	    2.2149	0.00143689	   2.20628	0.00143318	   2.20628	   35.8295	
   2.05584	0.00142876	   2.03952	0.00142364	   2.06159	0.00143228	   2.05232	0.00142823	   2.05232	   35.7057	
   1.90158	0.00142385	   1.88504	0.00141785	   1.90806	0.00142751	   1.89823	0.00142307	   1.89823	   35.5768	
   1.74703	0.00141882	   1.73056	 0.0014118	   1.75402	0.00142246	   1.74387	0.00141769	   1.74387	   35.4423	
   1.59233	0.00141356	   1.57578	0.00140558	    1.6004	0.00141716	    1.5895	 0.0014121	    1.5895	   35.3025	
   1.43726	0.00140799	    1.4209	0.00139914	   1.44565	0.00141167	    1.4346	0.00140627	    1.4346	   35.1567	
   1.28203	 0.0014021	   1.26563	0.00139257	   1.29105	0.00140593	   1.27957	 0.0014002	   1.27957	    35.005	
   1.12639	0.00139596	   1.11019	0.00138593	   1.13626	0.00139988	   1.12428	0.00139392	   1.12428	   34.8481	
  0.970329	0.00138952	   0.95456	0.00137903	  0.981545	0.00139366	  0.968811	 0.0013874	  0.968811	   34.6851	
  0.813858	0.00138286	  0.799154	0.00137176	  0.826044	0.00138732	  0.813018	0.00138065	  0.813018	   34.5162	
  0.657215	0.00137616	  0.644097	0.00136428	  0.670974	0.00138073	  0.657429	0.00137372	  0.657429	    34.343	
  0.500152	0.00136932	  0.489036	0.00135668	  0.515499	 0.0013739	  0.501562	0.00136663	  0.501562	   34.1659	
  0.343305	0.00136221	  0.333665	0.00134884	  0.360158	0.00136699	  0.345709	0.00135935	  0.345709	   33.9837	
  0.185505	0.00135486	  0.177729	0.00134075	  0.203389	 0.0013598	  0.188874	 0.0013518	  0.188874	   33.7951	
 0.0275758	0.00134731	 0.0215038	0.00133256	 0.0469992	0.00135228	 0.0320262	0.00134405	 0.0320262	   33.6012	
   -0.1298	0.00133954	 -0.134794	0.00132403	 -0.109352	0.00134461	 -0.124649	0.00133606	 -0.124649	   33.4014	
 -0.286527	 0.0013316	 -0.290513	0.00131506	 -0.265501	0.00133683	 -0.280847	0.00132783	 -0.280847	   33.1957	
 -0.443303	0.00132362	 -0.445961	0.00130597	 -0.420921	0.00132881	 -0.436728	0.00131947	 -0.436728	   32.9867	
 -0.599625	0.00131548	 -0.601559	0.00129663	 -0.576412	0.00132059	 -0.592532	 0.0013109	 -0.592532	   32.7726	
 -0.755858	0.00130703	 -0.757119	0.00128697	 -0.731794	 0.0013122	 -0.748257	0.00130207	 -0.748257	   32.5517	
 -0.912308	0.00129836	 -0.912478	0.00127741	 -0.887387	0.00130349	 -0.904058	0.00129309	 -0.904058	   32.3272	
  -1.06844	0.00128953	  -1.06765	 0.0012678	  -1.04314	 0.0012945	  -1.05975	0.00128394	  -1.05975	   32.0986	
  -1.22491	 0.0012804	  -1.22236	0.00125768	  -1.19824	0.00128539	  -1.21517	0.00127449	  -1.21517	   31.8623	
  -1.38102	 0.0012711	  -1.37698	0.00124724	  -1.35403	  0.001276	  -1.37068	0.00126478	  -1.37068	   31.6196	
  -1.53665	0.00126164	  -1.53138	0.00123665	  -1.50931	0.00126643	  -1.52578	0.00125491	  -1.52578	   31.3727	
  -1.69172	0.00125188	  -1.68505	0.00122573	  -1.66405	0.00125681	  -1.68028	0.00124481	  -1.68028	   31.1202	
  -1.84662	0.00124206	  -1.83836	0.00121456	  -1.81859	0.00124687	  -1.83452	 0.0012345	  -1.83452	   30.8625	
  -2.00075	0.00123214	  -1.99122	0.00120334	   -1.9728	0.00123643	  -1.98826	0.00122397	  -1.98826	   30.5993	
  -2.15549	0.00122182	  -2.14405	0.00119196	  -2.12797	0.00122574	   -2.1425	0.00121317	   -2.1425	   30.3294	
  -2.30964	0.00121126	  -2.29624	0.00118025	   -2.2824	0.00121492	  -2.29609	0.00120214	  -2.29609	   30.0535	
  -2.46385	0.00120061	  -2.44778	0.00116829	  -2.43644	0.00120379	  -2.44936	 0.0011909	  -2.44936	   29.7724	
  -2.61727	0.00118968	  -2.59914	0.00115611	  -2.58915	0.00119239	  -2.60185	0.00117939	  -2.60185	   29.4848	
  -2.77034	0.00117859	  -2.75021	0.00114366	  -2.74202	0.00118091	  -2.75419	0.00116772	  -2.75419	    29.193	
  -2.92206	0.00116749	  -2.90047	0.00113099	  -2.89395	0.00116909	  -2.90549	0.00115586	  -2.90549	   28.8964	
  -3.07284	0.00115609	  -3.05026	 0.0011182	  -3.04528	0.00115681	  -3.05613	 0.0011437	  -3.05613	   28.5925	
  -3.22382	 0.0011443	  -3.19973	0.00110526	  -3.19709	0.00114424	  -3.20688	0.00113127	  -3.20688	   28.2816	
  -3.37391	0.00113237	  -3.34885	0.00109213	  -3.34733	0.00113144	   -3.3567	0.00111865	   -3.3567	   27.9662	
  -3.52365	0.00112009	  -3.49758	0.00107883	  -3.49754	0.00111843	  -3.50626	0.00110578	  -3.50626	   27.6446	
  -3.67267	0.00110732	  -3.64606	0.00106526	  -3.64655	0.00110533	  -3.65509	0.00109264	  -3.65509	   27.3159	
  -3.82086	0.00109445	   -3.7941	0.00105139	  -3.79508	0.00109224	  -3.80335	0.00107936	  -3.80335	    26.984	
  -3.96783	 0.0010815	  -3.94172	0.00103744	  -3.94268	0.00107897	  -3.95074	0.00106597	  -3.95074	   26.6492	
  -4.11463	0.00106816	   -4.0889	0.00102335	  -4.08942	 0.0010654	  -4.09765	 0.0010523	  -4.09765	   26.3075	
  -4.26008	0.00105457	  -4.23497	0.00100896	  -4.23517	0.00105166	  -4.24341	 0.0010384	  -4.24341	   25.9599	
  -4.40507	 0.0010409	  -4.38029	0.000994434	   -4.3812	0.00103779	  -4.38885	0.00102437	  -4.38885	   25.6093	
  -4.54917	0.00102692	  -4.52495	0.00097985	  -4.52605	 0.0010237	  -4.53339	0.00101016	  -4.53339	   25.2539	
   -4.6925	0.00101266	   -4.6695	0.000964913	  -4.66985	0.00100952	  -4.67728	0.000995697	  -4.67728	   24.8924	
  -4.83566	0.000998358	  -4.81393	0.000949606	  -4.81324	0.000995271	  -4.82094	0.000981078	  -4.82094	    24.527	
  -4.97795	0.000983965	  -4.95793	0.00093422	  -4.95565	0.00098075	  -4.96384	0.000966312	  -4.96384	   24.1578	
  -5.11931	0.000969319	  -5.10093	0.000918599	  -5.09694	0.000965945	  -5.10573	0.000951288	  -5.10573	   23.7822	
  -5.25988	0.000954497	   -5.2431	0.000902612	   -5.2373	0.000950934	  -5.24676	0.000936014	  -5.24676	   23.4004	
  -5.39937	0.000939525	   -5.3841	0.000886666	  -5.37644	0.000935678	  -5.38664	0.000920623	  -5.38664	   23.0156	
  -5.53783	0.00092426	   -5.5236	0.000870609	  -5.51454	0.000920182	  -5.52532	0.000905017	  -5.52532	   22.6254	
  -5.67565	0.000908733	  -5.66335	0.000854112	  -5.65143	0.000904564	  -5.66348	0.000889136	  -5.66348	   22.2284	
  -5.81205	0.000893154	   -5.8015	0.000837572	  -5.78785	0.000888889	  -5.80047	0.000873205	  -5.80047	   21.8301	
  -5.94734	0.000877495	  -5.93929	0.000821032	  -5.92349	0.000873059	  -5.93671	0.000857195	  -5.93671	   21.4299	
  -6.08172	0.000861602	  -6.07546	0.000803974	  -6.05811	0.000857017	  -6.07176	0.000840864	  -6.07176	   21.0216	
  -6.21554	0.000845467	  -6.21081	0.000786675	  -6.19198	0.00084076	  -6.20611	0.000824301	  -6.20611	   20.6075	
  -6.34853	0.000829205	  -6.34373	0.000769544	  -6.32533	0.000824287	   -6.3392	0.000807679	   -6.3392	    20.192	
  -6.48048	0.000812678	  -6.47611	0.000752275	  -6.45744	0.000807646	  -6.47134	0.000790866	  -6.47134	   19.7717	
  -6.61124	0.000795945	  -6.60724	0.000734804	  -6.58865	0.000790947	  -6.60238	0.000773898	  -6.60238	   19.3475	
  -6.74053	0.000779202	  -6.73725	0.000717463	  -6.71824	0.000774098	  -6.73201	0.000756921	  -6.73201	    18.923	
  -6.86893	0.00076245	  -6.86579	0.000700021	   -6.8472	0.00075703	  -6.86064	0.000739833	  -6.86064	   18.4958	
   -6.9963	0.000745481	  -6.99281	0.000682301	  -6.97486	0.000739874	  -6.98799	0.000722552	  -6.98799	   18.0638	
  -7.12206	0.000728236	  -7.11784	0.000664492	  -7.10071	0.000722619	  -7.11354	0.000705116	  -7.11354	   17.6279	
  -7.24672	0.000710873	  -7.24189	0.000646494	  -7.22573	0.000704996	  -7.23811	0.000687454	  -7.23811	   17.1864	
  -7.36974	0.000693268	  -7.36536	0.000628418	  -7.34981	0.000687204	  -7.36163	0.00066963	  -7.36163	   16.7407	
  -7.49165	 0.0006754	   -7.4872	0.000610375	  -7.47243	0.000669502	  -7.48376	0.000651759	  -7.48376	    16.294	
   -7.6129	0.000657486	  -7.60841	0.000592093	  -7.59407	0.000651664	  -7.60513	0.000633748	  -7.60513	   15.8437	
  -7.73278	0.000639469	  -7.72828	0.000573606	  -7.71415	0.000633653	  -7.72507	0.000615576	  -7.72507	   15.3894	
  -7.85152	0.000621152	  -7.84703	0.000555107	  -7.83331	0.000615675	  -7.84395	0.000597311	  -7.84395	   14.9328	
  -7.96867	0.000602653	  -7.96514	0.00053636	   -7.9506	0.000597656	  -7.96147	0.000578889	  -7.96147	   14.4722	
  -8.08436	0.000584034	  -8.08164	0.000517411	  -8.06666	0.000579426	  -8.07756	0.000560291	  -8.07756	   14.0073	
  -8.19888	0.000565079	  -8.19722	0.000498539	  -8.18135	0.000561123	  -8.19248	0.00054158	  -8.19248	   13.5395	
  -8.31169	0.000545961	  -8.31138	0.000479551	    -8.295	0.000542827	  -8.30602	0.00052278	  -8.30602	   13.0695	
  -8.42345	0.000526902	   -8.4247	0.000460257	  -8.40725	0.000524422	  -8.41847	0.00050386	  -8.41847	   12.5965	
  -8.53381	0.000507761	  -8.53631	0.000440902	  -8.51777	0.000505897	   -8.5293	0.000484853	   -8.5293	   12.1213	
  -8.64295	0.000488391	  -8.64642	0.000421562	  -8.62727	0.000487393	  -8.63888	0.000465782	  -8.63888	   11.6446	
  -8.75011	0.000468874	  -8.75509	0.00040206	  -8.73533	0.000468804	  -8.74684	0.00044658	  -8.74684	   11.1645	
  -8.85607	0.000449292	  -8.86221	0.000382397	  -8.84226	0.000450011	  -8.85351	0.000427234	  -8.85351	   10.6808	
  -8.96011	0.000429569	  -8.96758	0.000362629	  -8.94777	0.000431118	  -8.95849	0.000407772	  -8.95849	   10.1943	
  -9.06305	0.000409727	  -9.07148	0.000342747	  -9.05211	0.000412178	  -9.06221	0.000388217	  -9.06221	   9.70543	
  -9.16456	0.000389985	  -9.17327	0.000322764	  -9.15458	0.000393048	  -9.16413	0.000368599	  -9.16413	   9.21498	
  -9.26502	0.000370345	  -9.27429	0.000302725	  -9.25599	0.000373787	   -9.2651	0.000348952	   -9.2651	    8.7238	
  -9.36378	0.000350615	  -9.37335	0.000282663	  -9.35567	0.000354534	  -9.36427	0.000329271	  -9.36427	   8.23176	
   -9.4612	0.000330815	   -9.4704	 0.0002626	  -9.45353	0.000335148	  -9.46171	0.000309521	  -9.46171	   7.73802	
  -9.55718	0.000311146	   -9.5659	0.000242477	  -9.54959	0.000315641	  -9.55755	0.000289755	  -9.55755	   7.24387	
  -9.65114	0.000291436	  -9.65932	0.000222162	   -9.6442	0.000296148	  -9.65156	0.000269915	  -9.65156	   6.74789	
  -9.74406	0.000271683	  -9.75163	0.000201713	   -9.7373	0.000276504	  -9.74433	0.000249967	  -9.74433	   6.24917	
  -9.83535	0.000252007	   -9.8418	0.000181415	  -9.82837	0.000256601	  -9.83518	0.000230008	  -9.83518	    5.7502	
  -9.92439	0.000232395	  -9.93096	0.000161042	  -9.91812	0.00023667	  -9.92449	0.000210036	  -9.92449	   5.25089	
  -10.0119	0.000212736	  -10.0185	0.000140551	  -10.0064	0.000216633	  -10.0123	0.000189973	  -10.0123	   4.74933	
  -10.0976	0.000193012	  -10.1039	0.00012013	  -10.0922	0.000196476	  -10.0979	0.000169873	  -10.0979	   4.24682	
  -10.1818	0.000173281	  -10.1875	9.96426e-05	  -10.1767	0.000176353	   -10.182	0.000149759	   -10.182	   3.74397	
  -10.2644	0.000153392	  -10.2693	7.89345e-05	  -10.2595	0.000156148	  -10.2644	0.000129492	  -10.2644	    3.2373	
  -10.3447	0.000133293	   -10.349	5.82657e-05	  -10.3402	0.000135823	  -10.3447	0.000109127	  -10.3447	   2.72818	
  -10.4237	0.000113252	  -10.4273	3.7669e-05	  -10.4196	0.000115484	  -10.4235	8.88017e-05	  -10.4235	   2.22004	
  -10.5009	9.32384e-05	  -10.5039	1.70126e-05	  -10.4972	9.5107e-05	  -10.5007	6.84527e-05	  -10.5007	   1.71132	
  -10.5757	7.30952e-05	   -10.578	-3.58989e-06	  -10.5728	7.46149e-05	  -10.5755	4.80401e-05	  -10.5755	     1.201	
   -10.649	5.29366e-05	  -10.6507	-2.40646e-05	   -10.646	5.41444e-05	  -10.6486	2.76722e-05	  -10.6486	  0.691804	
  -10.7204	3.28048e-05	  -10.7221	-4.45271e-05	  -10.7179	3.3766e-05	  -10.7201	7.34791e-06	  -10.7201	  0.183698	
  -10.7898	1.25505e-05	  -10.7913	-6.5153e-05	  -10.7878	1.34031e-05	  -10.7896	-1.30665e-05	  -10.7896	 -0.326662	
  -10.8574	-7.80517e-06	  -10.8578	-8.57801e-05	  -10.8554	-7.00607e-06	  -10.8569	-3.35304e-05	  -10.8569	 -0.838261	
  -10.9234	-2.80921e-05	  -10.9221	-0.00010632	  -10.9214	-2.75559e-05	  -10.9223	-5.39894e-05	  -10.9223	  -1.34973	
  -10.9879	-4.82964e-05	  -10.9846	-0.000126825	  -10.9859	-4.81762e-05	  -10.9861	-7.44326e-05	  -10.9861	  -1.86082	
  -11.0503	-6.85345e-05	  -11.0453	-0.000147291	  -11.0484	-6.87467e-05	   -11.048	-9.48574e-05	   -11.048	  -2.37143	
  -11.1106	-8.8755e-05	  -11.1038	-0.000167643	  -11.1083	-8.91808e-05	  -11.1076	-0.000115193	  -11.1076	  -2.87982	
  -11.1688	-0.000108882	   -11.161	-0.000187971	  -11.1667	-0.000109607	  -11.1655	-0.000135487	  -11.1655	  -3.38717	
  -11.2254	-0.000129022	  -11.2173	-0.000208369	  -11.2232	-0.000130021	   -11.222	-0.000155804	   -11.222	   -3.8951	
  -11.2805	-0.000149244	  -11.2721	-0.000228753	  -11.2782	-0.00015033	  -11.2769	-0.000176109	  -11.2769	  -4.40272	
  -11.3335	-0.000169426	  -11.3249	-0.00024906	  -11.3312	-0.000170692	  -11.3299	-0.000196393	  -11.3299	  -4.90982	
  -11.3841	-0.000189462	  -11.3755	-0.00026925	  -11.3818	-0.000191037	  -11.3804	-0.000216583	  -11.3804	  -5.41457	
  -11.4331	-0.000209432	  -11.4237	-0.000289372	  -11.4301	-0.000211091	   -11.429	-0.000236632	   -11.429	  -5.91579	
  -11.4805	-0.000229397	   -11.471	-0.00030952	  -11.4759	-0.000230972	  -11.4758	-0.00025663	  -11.4758	  -6.41574	
  -11.5262	-0.000249224	  -11.5168	-0.000329619	  -11.5205	-0.000250958	  -11.5212	-0.0002766	  -11.5212	  -6.91501	
  -11.5705	-0.000268821	  -11.5607	-0.000349615	  -11.5625	-0.000270939	  -11.5646	-0.000296458	  -11.5646	  -7.41145	
  -11.6131	-0.000288316	   -11.603	-0.000369586	  -11.6033	-0.000290757	  -11.6064	-0.00031622	  -11.6064	   -7.9055	
  -11.6535	-0.0003078	  -11.6434	-0.000389561	  -11.6423	-0.000310635	  -11.6464	-0.000335999	  -11.6464	  -8.39997	
  -11.6917	-0.000327127	  -11.6816	-0.000409389	  -11.6796	-0.0003305	  -11.6843	-0.000355672	  -11.6843	  -8.89181	
  -11.7276	-0.000346377	  -11.7175	-0.00042909	  -11.7147	-0.000350049	  -11.7199	-0.000375172	  -11.7199	   -9.3793	
  -11.7609	-0.000365694	  -11.7511	-0.000448799	  -11.7477	-0.000369497	  -11.7532	-0.000394664	  -11.7532	  -9.86659	
  -11.7918	-0.000384956	  -11.7821	-0.000468345	  -11.7784	-0.000389104	  -11.7841	-0.000414135	  -11.7841	  -10.3534	
  -11.8201	-0.000404142	  -11.8108	-0.000487767	  -11.8069	-0.000408635	  -11.8126	-0.000433515	  -11.8126	  -10.8379	
   -11.846	-0.00042335	   -11.837	-0.000507259	   -11.833	-0.000428046	  -11.8386	-0.000452885	  -11.8386	  -11.3221	
  -11.8694	-0.000442533	  -11.8608	-0.000526602	  -11.8568	-0.000447478	  -11.8624	-0.000472205	  -11.8624	  -11.8051	
  -11.8906	-0.000461574	  -11.8823	-0.000545666	  -11.8785	-0.000466773	  -11.8838	-0.000491338	  -11.8838	  -12.2834	
  -11.9095	-0.000480497	  -11.9015	-0.000564572	   -11.898	-0.000485765	   -11.903	-0.000510278	   -11.903	   -12.757	
  -11.9263	-0.000499357	  -11.9187	-0.000583357	  -11.9154	-0.000504615	  -11.9201	-0.00052911	  -11.9201	  -13.2277	
   -11.941	-0.000518175	  -11.9339	-0.000601987	   -11.931	-0.000523443	  -11.9353	-0.000547868	  -11.9353	  -13.6967	
   -11.954	-0.000536787	  -11.9472	-0.000620452	  -11.9446	-0.000542191	  -11.9486	-0.000566477	  -11.9486	  -14.1619	
  -11.9652	-0.000555221	  -11.9587	-0.000638798	  -11.9566	-0.000560843	  -11.9601	-0.000584954	  -11.9601	  -14.6239	
  -11.9747	-0.000573675	  -11.9686	-0.000657043	  -11.9669	-0.000579372	  -11.9701	-0.000603363	  -11.9701	  -15.0841	
  -11.9829	-0.000592062	  -11.9771	-0.000675066	  -11.9758	-0.00059776	  -11.9786	-0.000621629	  -11.9786	  -15.5407	
  -11.9896	-0.000610237	  -11.9842	-0.00069294	  -11.9829	-0.000616012	  -11.9856	-0.00063973	  -11.9856	  -15.9932	
  -11.9947	-0.000628208	  -11.9901	-0.000710681	   -11.988	-0.000634122	  -11.9909	-0.00065767	  -11.9909	  -16.4418	
  -11.9979	-0.000646028	  -11.9939	-0.000728223	  -11.9912	-0.000652126	  -11.9943	-0.000675459	  -11.9943	  -16.8865	
  -11.9989	-0.000663619	  -11.9955	-0.0007456	  -11.9928	-0.000670066	  -11.9957	-0.000693095	  -11.9957	  -17.3274	
  -11.9977	-0.000680975	  -11.9947	-0.00076276	  -11.9922	-0.000687864	  -11.9949	-0.000710533	  -11.9949	  -17.7633	
  -11.9944	-0.000698247	  -11.9915	-0.000779709	  -11.9892	-0.000705474	  -11.9917	-0.00072781	  -11.9917	  -18.1952	
  -11.9888	-0.000715474	  -11.9863	-0.000796565	  -11.9842	-0.000722919	  -11.9864	-0.000744986	  -11.9864	  -18.6246	
  -11.9806	-0.000732514	  -11.9795	-0.000813287	  -11.9777	-0.000740238	  -11.9793	-0.000762013	  -11.9793	  -19.0503	
   -11.971	-0.000749366	   -11.971	-0.000829805	  -11.9695	-0.00075732	  -11.9705	-0.00077883	  -11.9705	  -19.4708	
  -11.9592	-0.000766137	  -11.9604	-0.000846251	  -11.9593	-0.000774286	  -11.9596	-0.000795558	  -11.9596	   -19.889	
  -11.9449	-0.000782698	  -11.9472	-0.000862669	  -11.9473	-0.000791261	  -11.9465	-0.00081221	  -11.9465	  -20.3052	
  -11.9287	-0.000799113	  -11.9318	-0.0008788	   -11.933	-0.000808049	  -11.9312	-0.000828654	  -11.9312	  -20.7163	
  -11.9107	-0.000815505	  -11.9143	-0.000894711	   -11.917	-0.000824629	   -11.914	-0.000844948	   -11.914	  -21.1237	
  -11.8911	-0.000831686	  -11.8951	-0.00091071	  -11.8998	-0.000841186	  -11.8953	-0.000861194	  -11.8953	  -21.5299	
  -11.8693	-0.000847752	   -11.873	-0.000926618	  -11.8795	-0.000857538	  -11.8739	-0.000877303	  -11.8739	  -21.9326	
  -11.8454	-0.000863794	  -11.8489	-0.000942262	  -11.8567	-0.000873541	  -11.8504	-0.000893199	  -11.8504	    -22.33	
  -11.8198	-0.00087947	  -11.8234	-0.000957803	  -11.8319	-0.000889374	   -11.825	-0.000908883	   -11.825	  -22.7221	
  -11.7918	-0.000894779	  -11.7959	-0.000973225	  -11.8048	-0.000905121	  -11.7975	-0.000924375	  -11.7975	  -23.1094	
  -11.7615	-0.000910062	  -11.7658	-0.00098839	  -11.7755	-0.000920573	  -11.7676	-0.000939675	  -11.7676	  -23.4919	
  -11.7296	-0.000925276	  -11.7341	-0.0010033	  -11.7444	-0.000935857	   -11.736	-0.00095481	   -11.736	  -23.8703	
  -11.6963	-0.000940318	  -11.7003	-0.00101811	  -11.7116	-0.000951026	  -11.7027	-0.000969819	  -11.7027	  -24.2455	
  -11.6609	-0.000955199	   -11.664	-0.00103269	  -11.6759	-0.000965864	   -11.667	-0.000984585	   -11.667	  -24.6146	
  -11.6242	-0.000969931	  -11.6261	-0.0010469	  -11.6384	-0.00098041	  -11.6295	-0.00099908	  -11.6295	   -24.977	
  -11.5845	-0.000984328	  -11.5862	-0.00106093	  -11.5993	-0.000994747	    -11.59	-0.00101333	    -11.59	  -25.3333	
  -11.5429	-0.000998337	  -11.5439	-0.00107484	  -11.5575	-0.00100884	  -11.5481	-0.00102734	  -11.5481	  -25.6835	
  -11.4997	-0.00101221	  -11.5002	-0.00108846	   -11.514	-0.00102285	  -11.5046	-0.00104118	  -11.5046	  -26.0294	
  -11.4539	-0.00102581	  -11.4541	-0.00110189	  -11.4681	-0.00103677	  -11.4587	-0.00105482	  -11.4587	  -26.3706	
  -11.4065	-0.00103909	  -11.4061	-0.00111521	    -11.42	-0.00105044	  -11.4108	-0.00106825	  -11.4108	  -26.7061	
  -11.3569	-0.0010524	   -11.356	-0.00112828	  -11.3702	-0.00106388	   -11.361	-0.00108152	   -11.361	   -27.038	
  -11.3054	-0.00106566	  -11.3034	-0.0011411	  -11.3183	-0.00107716	   -11.309	-0.00109464	   -11.309	   -27.366	
  -11.2516	-0.00107847	  -11.2488	-0.00115378	  -11.2644	-0.00109025	  -11.2549	-0.0011075	  -11.2549	  -27.6874	
  -11.1964	-0.00109101	   -11.192	-0.00116625	  -11.2075	-0.0011032	  -11.1986	-0.00112016	  -11.1986	  -28.0039	
  -11.1389	-0.00110341	  -11.1331	-0.00117852	   -11.149	-0.00111607	  -11.1403	-0.00113267	  -11.1403	  -28.3167	
  -11.0807	-0.00111549	  -11.0729	-0.00119058	  -11.0889	-0.0011288	  -11.0808	-0.00114496	  -11.0808	   -28.624	
  -11.0195	-0.00112728	  -11.0109	-0.00120241	  -11.0269	-0.00114137	  -11.0191	-0.00115702	  -11.0191	  -28.9255	
  -10.9566	-0.00113894	  -10.9468	-0.00121401	  -10.9626	-0.00115375	  -10.9554	-0.0011689	  -10.9554	  -29.2224	
  -10.8915	-0.00115047	  -10.8814	-0.00122537	  -10.8964	-0.0011659	  -10.8898	-0.00118058	  -10.8898	  -29.5145	
  -10.8256	-0.00116165	  -10.8143	-0.00123651	  -10.8285	-0.00117783	  -10.8228	 -0.001192	  -10.8228	  -29.7999	
  -10.7569	-0.00117253	  -10.7452	-0.00124742	  -10.7591	-0.0011896	  -10.7538	-0.00120318	  -10.7538	  -30.0796	
  -10.6874	-0.00118324	   -10.675	-0.00125812	  -10.6878	-0.00120124	  -10.6834	-0.0012142	  -10.6834	   -30.355	
  -10.6156	-0.00119373	  -10.6029	-0.00126849	  -10.6145	-0.00121268	   -10.611	-0.00122497	   -10.611	  -30.6242	
   -10.542	-0.00120402	  -10.5296	-0.00127874	  -10.5397	-0.00122391	  -10.5371	-0.00123556	  -10.5371	   -30.889	
  -10.4665	-0.00121423	   -10.454	-0.00128889	  -10.4632	-0.00123494	  -10.4612	-0.00124602	  -10.4612	  -31.1505	
  -10.3888	-0.00122427	  -10.3758	-0.00129857	  -10.3847	-0.00124565	  -10.3831	-0.00125617	  -10.3831	  -31.4042	
  -10.3094	-0.00123405	  -10.2958	-0.00130789	  -10.3043	-0.00125608	  -10.3032	 -0.001266	  -10.3032	  -31.6501	
  -10.2274	-0.00124359	  -10.2139	-0.00131713	  -10.2219	-0.00126636	  -10.2211	-0.0012757	  -10.2211	  -31.8924	
  -10.1442	-0.00125295	  -10.1309	-0.00132606	  -10.1386	-0.00127644	  -10.1379	-0.00128515	  -10.1379	  -32.1288	
  -10.0588	-0.00126214	  -10.0458	-0.00133457	  -10.0531	-0.00128618	  -10.0526	-0.0012943	  -10.0526	  -32.3574	
  -9.97225	-0.0012711	  -9.95862	-0.00134294	  -9.96609	-0.00129567	  -9.96565	-0.00130324	  -9.96565	  -32.5809	
  -9.88391	-0.00127989	  -9.86996	-0.0013511	  -9.87748	-0.00130495	  -9.87712	-0.00131198	  -9.87712	  -32.7994	
   -9.7934	-0.00128854	  -9.77839	-0.0013588	   -9.7873	-0.00131391	  -9.78636	-0.00132042	  -9.78636	  -33.0105	
  -9.70131	-0.00129698	  -9.68603	-0.00136638	  -9.69512	-0.00132258	  -9.69416	-0.00132864	  -9.69416	  -33.2161	
  -9.60724	-0.00130524	  -9.59228	-0.00137383	  -9.60146	-0.00133102	  -9.60033	-0.00133669	  -9.60033	  -33.4174	
  -9.51227	-0.00131339	  -9.49726	-0.00138088	   -9.5069	-0.00133928	  -9.50548	-0.00134452	  -9.50548	   -33.613	
  -9.41545	-0.00132132	  -9.40104	-0.00138766	    -9.411	-0.00134732	  -9.40916	-0.0013521	  -9.40916	  -33.8025	
  -9.31695	-0.00132904	  -9.30319	-0.00139431	  -9.31334	-0.00135507	  -9.31116	-0.00135947	  -9.31116	  -33.9868	
  -9.21669	-0.00133665	  -9.20322	-0.00140068	  -9.21424	-0.00136264	  -9.21139	-0.00136666	  -9.21139	  -34.1664	
  -9.11464	-0.00134415	  -9.10203	-0.00140669	  -9.11367	-0.00137002	  -9.11011	-0.00137362	  -9.11011	  -34.3405	
  -9.01149	-0.00135149	  -8.99925	-0.0014125	  -9.01179	-0.00137707	  -9.00751	-0.00138035	  -9.00751	  -34.5088	
  -8.90642	-0.00135876	  -8.89556	-0.00141816	  -8.90875	-0.00138391	  -8.90358	-0.00138695	  -8.90358	  -34.6736	
   -8.8002	-0.00136586	  -8.78982	-0.00142363	  -8.80381	-0.00139056	  -8.79794	-0.00139335	  -8.79794	  -34.8337	
  -8.69207	-0.00137266	  -8.68264	-0.00142878	  -8.69672	-0.00139691	  -8.69048	-0.00139945	  -8.69048	  -34.9863	
  -8.58327	-0.00137923	  -8.57426	-0.00143364	  -8.58829	-0.00140305	  -8.58194	-0.00140531	  -8.58194	  -35.1327	
  -8.47255	-0.00138557	  -8.46443	-0.00143819	  -8.47829	-0.00140903	  -8.47176	-0.00141093	  -8.47176	  -35.2733	
  -8.36026	-0.00139169	  -8.35334	-0.00144253	  -8.36693	-0.00141466	  -8.36018	-0.00141629	  -8.36018	  -35.4073	
  -8.24672	-0.00139762	  -8.24039	-0.00144684	  -8.25409	-0.00141993	  -8.24707	-0.00142147	  -8.24707	  -35.5366	
  -8.13267	-0.00140337	  -8.12596	-0.00145102	  -8.13963	-0.0014251	  -8.13275	-0.0014265	  -8.13275	  -35.6624	
  -8.01691	-0.00140887	  -8.01039	-0.00145499	   -8.0239	-0.00143008	  -8.01707	-0.00143131	  -8.01707	  -35.7828	
  -7.89936	-0.00141407	  -7.89304	-0.00145879	  -7.90723	-0.00143476	  -7.89988	-0.00143587	  -7.89988	  -35.8968	
  -7.78027	-0.00141895	  -7.77418	-0.0014622	   -7.7888	-0.00143925	  -7.78108	-0.00144013	  -7.78108	  -36.0033	
  -7.65975	-0.00142368	  -7.65388	-0.00146521	  -7.66919	-0.00144351	  -7.66094	-0.00144413	  -7.66094	  -36.1033	
  -7.53822	-0.00142824	  -7.53257	-0.00146808	  -7.54831	-0.00144742	   -7.5397	-0.00144791	   -7.5397	  -36.1978	
  -7.41508	-0.00143251	  -7.41011	-0.00147079	  -7.42653	-0.00145103	  -7.41724	-0.00145145	  -7.41724	  -36.2861	
  -7.29104	-0.00143655	  -7.28628	-0.00147332	  -7.30388	-0.00145449	  -7.29373	-0.00145479	  -7.29373	  -36.3696	
  -7.16529	-0.00144038	   -7.1612	-0.00147579	  -7.17962	-0.00145782	   -7.1687	 -0.001458	   -7.1687	  -36.4499	
  -7.03884	-0.00144382	  -7.03531	-0.00147799	  -7.05424	-0.00146093	   -7.0428	-0.00146091	   -7.0428	  -36.5229	
  -6.91158	-0.00144703	  -6.90807	-0.0014797	  -6.92722	-0.00146379	  -6.91562	-0.00146351	  -6.91562	  -36.5877	
  -6.78249	-0.00145019	  -6.77939	-0.00148119	  -6.79932	-0.0014665	  -6.78707	-0.00146596	  -6.78707	   -36.649	
  -6.65218	-0.00145312	  -6.64942	-0.00148255	  -6.66933	-0.00146892	  -6.65698	-0.0014682	  -6.65698	  -36.7049	
  -6.52113	-0.00145577	  -6.51865	-0.00148368	  -6.53834	-0.00147087	  -6.52604	-0.00147011	  -6.52604	  -36.7527	
  -6.38885	-0.00145826	  -6.38707	-0.00148474	  -6.40637	-0.00147262	   -6.3941	-0.00147187	   -6.3941	  -36.7968	
  -6.25585	-0.00146045	  -6.25419	-0.00148579	  -6.27343	-0.00147432	  -6.26116	-0.00147352	  -6.26116	   -36.838	
  -6.12159	-0.00146233	  -6.12039	-0.00148658	  -6.13939	-0.00147587	  -6.12712	-0.00147493	  -6.12712	  -36.8732	
  -5.98623	-0.0014641	   -5.9854	-0.00148697	    -6.004	-0.00147727	  -5.99188	-0.00147611	  -5.99188	  -36.9028	
  -5.84987	-0.00146573	  -5.84932	-0.00148706	  -5.86739	-0.0014785	  -5.85553	-0.0014771	  -5.85553	  -36.9274	
  -5.71257	-0.00146712	  -5.71269	-0.00148692	  -5.73014	-0.00147952	  -5.71847	-0.00147785	  -5.71847	  -36.9463	
  -5.57442	-0.00146845	  -5.57506	-0.00148663	  -5.59182	-0.00148033	  -5.58043	-0.00147847	  -5.58043	  -36.9617	
  -5.43503	-0.00146974	  -5.43653	-0.00148626	  -5.45207	-0.00148085	  -5.44121	-0.00147895	  -5.44121	  -36.9737	
   -5.2941	-0.00147069	  -5.29672	-0.00148582	  -5.31156	-0.0014811	  -5.30079	-0.0014792	  -5.30079	    -36.98	
  -5.15277	-0.00147131	  -5.15578	-0.00148512	   -5.1699	-0.00148135	  -5.15948	-0.00147926	  -5.15948	  -36.9815	
  -5.01078	-0.00147181	  -5.01404	-0.00148416	  -5.02704	-0.00148143	  -5.01729	-0.00147913	  -5.01729	  -36.9783	
  -4.86807	-0.0014721	    -4.871	-0.00148294	   -4.8834	-0.00148116	  -4.87416	-0.00147873	  -4.87416	  -36.9683	
  -4.72476	-0.00147217	  -4.72734	-0.00148136	  -4.73913	-0.00148079	  -4.73041	-0.0014781	  -4.73041	  -36.9526	
  -4.58095	-0.00147213	  -4.58316	-0.00147968	  -4.59435	-0.00148025	  -4.58615	-0.00147735	  -4.58615	  -36.9338	
  -4.43619	-0.00147199	  -4.43802	-0.00147802	    -4.449	-0.00147922	  -4.44107	-0.00147641	  -4.44107	  -36.9102	
  -4.29074	-0.00147155	  -4.29219	-0.00147608	  -4.30198	-0.00147796	  -4.29497	-0.0014752	  -4.29497	    -36.88	
  -4.14475	-0.00147076	  -4.14582	-0.00147379	  -4.15453	-0.00147662	  -4.14837	-0.00147372	  -4.14837	  -36.8431	
  -3.99834	-0.00146972	  -3.99904	-0.00147134	  -4.00679	-0.00147499	  -4.00139	-0.00147202	  -4.00139	  -36.8004	
  -3.85116	-0.00146852	  -3.85198	-0.00146857	  -3.85934	-0.00147316	  -3.85416	-0.00147008	  -3.85416	   -36.752	
  -3.70302	-0.00146717	  -3.70427	-0.00146541	  -3.71087	-0.0014712	  -3.70605	-0.00146793	  -3.70605	  -36.6982	
  -3.55406	-0.00146569	  -3.55561	-0.00146215	  -3.56155	-0.00146894	  -3.55707	-0.00146559	  -3.55707	  -36.6398	
  -3.40449	-0.00146406	  -3.40625	-0.00145883	  -3.41159	-0.00146637	  -3.40744	-0.00146308	  -3.40744	  -36.5771	
  -3.25404	-0.00146217	  -3.25636	-0.00145525	   -3.2612	-0.00146354	   -3.2572	-0.00146032	   -3.2572	   -36.508	
  -3.10356	-0.00145982	   -3.1059	-0.00145147	   -3.1107	-0.00146054	  -3.10672	-0.00145728	  -3.10672	  -36.4319	
  -2.95254	-0.00145721	  -2.95436	-0.00144758	  -2.96051	-0.00145734	   -2.9558	-0.00145404	   -2.9558	   -36.351	
  -2.80072	-0.00145445	  -2.80251	-0.0014434	  -2.81023	-0.00145392	  -2.80448	-0.00145059	  -2.80448	  -36.2648	
   -2.6488	-0.00145143	  -2.65003	-0.00143892	  -2.65949	-0.00145039	  -2.65277	-0.00144691	  -2.65277	  -36.1728	
  -2.49646	-0.00144828	  -2.49716	-0.00143425	   -2.5084	-0.00144677	  -2.50067	-0.0014431	  -2.50067	  -36.0775	
  -2.34343	-0.00144512	  -2.34364	-0.00142942	  -2.35628	-0.00144278	  -2.34778	-0.00143911	  -2.34778	  -35.9777	
  -2.18995	-0.00144157	  -2.18924	-0.00142434	   -2.2034	-0.00143841	   -2.1942	-0.00143478	   -2.1942	  -35.8694	
  -2.03576	-0.00143749	  -2.03425	-0.00141882	  -2.05003	-0.00143377	  -2.04001	-0.00143003	  -2.04001	  -35.7507	
  -1.88136	-0.00143314	  -1.87878	-0.00141315	  -1.89575	-0.00142903	   -1.8853	-0.00142511	   -1.8853	  -35.6277	
