# User: ACHyster
# File name: C:/ACHYSTER/ACHyster SENS/SHAMS/CoFe2O4-1gl-water-Zero Glycerol- Sens-07-03-2023/CoFe2O4-1gl-water-zero Glycerol- 10_100F- 24kAm -Sens-07-03-20230000#1.txt
# Saved at: ma. mar. 7 14:35:28 2023
# Hyster Loop (3 iterations). Intensity: 24.0 kA/m; Tuned frequency: 9.4 kHz
# Units x axis: (kA/m)
# Units y axis: "Repeats y" & "Average y" (10^(-3)Am^2); "Mass avg y" (Am^2/kg)
# Magnetic mass: 4e-05 g
# Parameter      	Repeat   1	Repeat   2	Repeat   3	Average   	Sigma     
# H_C (kA/m)     	       5.1	       5.2	       5.2	       5.2	       0.0
# M_R (Am^2/kg)  	      36.9	      37.5	      38.0	      37.5	       0.4
# M_max (Am^2/kg)	      80.0	      80.8	      81.0	      80.6	       0.4
# Area (mJ/kg)   	    1630.1	    1669.9	    1716.1	    1672.1	      35.1
# SAR (W/g)      	      15.3	      15.7	      16.1	      15.7	       0.3
#Repeat 1 x	Repeat 1 y	Repeat 2 x	Repeat 2 y	Repeat 3 x	Repeat 3 y	Average x 	Average y 	Mass avg x 	Mass avg y 
  -3.24022	-0.00209369	  -3.23887	-0.00213123	  -3.26577	-0.00215666	  -3.24829	-0.00212719	  -3.24829	  -53.1798	
  -3.09291	-0.00207073	  -3.08987	-0.00210954	  -3.11684	-0.00213419	  -3.09987	-0.00210482	  -3.09987	  -52.6205	
  -2.94563	-0.00204739	  -2.94077	-0.00208725	  -2.96793	-0.00211129	  -2.95144	-0.00208197	  -2.95144	  -52.0494	
  -2.79843	-0.00202345	  -2.79164	-0.00206462	  -2.81912	-0.00208781	  -2.80306	-0.00205862	  -2.80306	  -51.4656	
  -2.65103	-0.00199923	  -2.64234	-0.00204068	  -2.66942	-0.00206361	  -2.65426	-0.0020345	  -2.65426	  -50.8626	
  -2.50368	-0.00197455	  -2.49276	-0.00201612	   -2.5206	-0.00203891	  -2.50568	-0.00200986	  -2.50568	  -50.2466	
  -2.35622	-0.00194929	  -2.34322	-0.00199124	  -2.37124	-0.00201362	  -2.35689	-0.00198471	  -2.35689	  -49.6178	
   -2.2086	-0.00192357	  -2.19356	-0.00196592	  -2.22194	-0.00198787	  -2.20803	-0.00195912	  -2.20803	   -48.978	
  -2.06105	-0.00189737	   -2.0438	-0.00193993	  -2.07259	-0.00196167	  -2.05915	-0.00193299	  -2.05915	  -48.3248	
  -1.91335	-0.00187053	  -1.89387	-0.00191353	  -1.92331	-0.00193471	  -1.91018	-0.00190626	  -1.91018	  -47.6565	
  -1.76551	-0.00184323	  -1.74389	-0.0018867	  -1.77398	-0.00190737	  -1.76113	-0.0018791	  -1.76113	  -46.9774	
  -1.61777	-0.0018154	  -1.59404	-0.00185916	  -1.62457	-0.00187952	  -1.61213	-0.00185136	  -1.61213	   -46.284	
  -1.47015	-0.00178695	  -1.44406	-0.0018312	  -1.47514	-0.00185094	  -1.46312	-0.00182303	  -1.46312	  -45.5757	
   -1.3224	-0.00175801	  -1.29413	-0.00180279	   -1.3257	-0.00182193	  -1.31408	-0.00179424	  -1.31408	  -44.8561	
  -1.17468	-0.00172854	  -1.14417	-0.00177373	  -1.17645	-0.00179238	   -1.1651	-0.00176488	   -1.1651	  -44.1221	
  -1.02708	-0.00169846	 -0.994182	-0.00174415	  -1.02731	-0.00176213	  -1.01619	-0.00173491	  -1.01619	  -43.3728	
 -0.879546	-0.00166787	 -0.844153	-0.00171407	 -0.877974	-0.00173145	 -0.867225	-0.00170446	 -0.867225	  -42.6116	
 -0.732389	-0.00163672	 -0.694138	-0.00168341	 -0.728603	-0.00170023	 -0.718377	-0.00167345	 -0.718377	  -41.8364	
 -0.585252	-0.00160497	 -0.543945	-0.00165219	 -0.579251	-0.0016683	 -0.569483	-0.00164182	 -0.569483	  -41.0454	
 -0.438205	-0.0015727	 -0.394082	-0.00162041	  -0.42993	-0.00163592	 -0.420739	-0.00160968	 -0.420739	  -40.2419	
 -0.290944	-0.00153993	 -0.243947	-0.00158806	 -0.281086	-0.00160307	 -0.271992	-0.00157702	 -0.271992	  -39.4255	
  -0.14353	-0.00150648	-0.0940982	-0.00155513	 -0.132179	-0.00156945	 -0.123269	-0.00154368	 -0.123269	  -38.5921	
0.00402098	-0.0014725	 0.0556721	-0.00152174	 0.0167189	-0.00153531	 0.0254706	-0.00150985	 0.0254706	  -37.7462	
  0.151616	-0.00143803	  0.205454	-0.00148764	  0.165765	-0.00150068	  0.174278	-0.00147545	  0.174278	  -36.8863	
  0.299273	-0.00140282	  0.355132	-0.00145292	  0.314593	-0.00146532	  0.322999	-0.00144035	  0.322999	  -36.0088	
  0.446974	-0.00136709	  0.504652	-0.00141774	  0.463518	-0.00142942	  0.471715	-0.00140475	  0.471715	  -35.1187	
  0.594642	-0.00133091	  0.654118	-0.0013819	  0.612446	-0.00139308	  0.620402	-0.00136863	  0.620402	  -34.2157	
  0.742783	-0.00129395	  0.803299	-0.00134544	  0.761271	-0.00135596	  0.769118	-0.00133178	  0.769118	  -33.2946	
  0.890981	-0.00125647	  0.952338	-0.00130841	  0.910115	-0.0013183	  0.917811	-0.00129439	  0.917811	  -32.3598	
   1.03897	-0.00121855	   1.10122	-0.00127072	   1.05895	-0.00128014	   1.06638	-0.00125647	   1.06638	  -31.4118	
   1.18709	-0.00117988	   1.24978	-0.00123247	   1.20724	-0.00124128	    1.2147	-0.00121788	    1.2147	  -30.4469	
   1.33514	-0.00114063	   1.39849	-0.00119363	   1.35601	-0.00120184	   1.36321	-0.0011787	   1.36321	  -29.4675	
   1.48334	-0.00110101	   1.54705	-0.00115418	   1.50495	-0.00116192	   1.51178	-0.00113904	   1.51178	  -28.4759	
   1.63146	-0.00106069	   1.69579	-0.00111411	   1.65345	-0.00112133	   1.66024	-0.00109871	   1.66024	  -27.4677	
   1.77962	-0.00101977	    1.8444	-0.00107349	   1.80208	-0.00108024	    1.8087	-0.00105783	    1.8087	  -26.4458	
   1.92792	-0.000978432	   1.99303	-0.00103225	   1.95063	-0.00103865	   1.95719	-0.00101644	   1.95719	  -25.4111	
    2.0763	-0.000936435	   2.14165	-0.000990424	   2.09912	-0.000996384	   2.10569	-0.000974415	   2.10569	  -24.3604	
   2.22455	-0.00089386	   2.29024	-0.00094801	   2.24798	-0.000953725	   2.25426	-0.000931865	   2.25426	  -23.2966	
   2.37298	-0.000850851	   2.43865	-0.000905062	   2.39678	-0.000910612	    2.4028	-0.000888842	    2.4028	   -22.221	
   2.52063	-0.000807241	   2.58693	-0.000861655	   2.54535	-0.000866723	   2.55097	-0.000845206	   2.55097	  -21.1302	
   2.66857	-0.00076314	   2.73513	-0.000817626	    2.6937	-0.000822462	   2.69913	-0.000801076	   2.69913	  -20.0269	
   2.81622	-0.00071859	   2.88282	-0.000773048	   2.84178	-0.000777762	   2.84694	-0.000756467	   2.84694	  -18.9117	
     2.964	-0.000673419	   3.03031	-0.000728029	   2.98969	-0.000732404	   2.99467	-0.000711284	   2.99467	  -17.7821	
   3.11175	-0.000627763	   3.17759	-0.000682423	   3.13722	-0.000686671	   3.14219	-0.000665619	   3.14219	  -16.6405	
    3.2594	-0.00058179	   3.32431	-0.000636306	   3.28461	-0.000640552	   3.28944	-0.000619549	   3.28944	  -15.4887	
   3.40704	-0.000535244	   3.47133	-0.00058978	   3.43169	-0.000593815	   3.43669	-0.000572947	   3.43669	  -14.3237	
   3.55459	-0.000488276	   3.61811	-0.00054274	   3.57841	-0.00054675	    3.5837	-0.000525922	    3.5837	  -13.1481	
   3.70188	-0.000441046	   3.76444	-0.000495238	    3.7251	-0.000499317	   3.73047	-0.000478534	   3.73047	  -11.9633	
   3.84912	-0.000393302	   3.91057	-0.000447344	   3.87186	-0.000451362	   3.87718	-0.000430669	   3.87718	  -10.7667	
   3.99643	-0.000345219	   4.05654	-0.000399011	   4.01866	-0.000403082	   4.02388	-0.000382437	   4.02388	  -9.56093	
   4.14355	-0.000296805	   4.20214	-0.00035025	   4.16526	-0.000354531	   4.17032	-0.000333862	   4.17032	  -8.34655	
    4.2909	-0.00024801	   4.34754	-0.000301149	   4.31175	-0.000305546	   4.31673	-0.000284902	   4.31673	  -7.12254	
   4.43803	-0.000198964	   4.49268	-0.000251704	   4.45818	-0.000256236	   4.46296	-0.000235635	   4.46296	  -5.89087	
   4.58548	-0.000149568	   4.63778	-0.000201903	   4.60426	-0.000206699	   4.60917	-0.000186057	   4.60917	  -4.65142	
   4.73227	-9.99188e-05	   4.78292	-0.000151778	   4.75011	-0.000156806	    4.7551	-0.000136168	    4.7551	  -3.40419	
   4.87902	-5.00427e-05	   4.92779	-0.000101442	   4.89577	-0.000106633	   4.90086	-8.60392e-05	   4.90086	  -2.15098	
   5.02521	8.38316e-08	   5.07253	-5.08021e-05	   5.04116	-5.63407e-05	    5.0463	-3.56863e-05	    5.0463	 -0.892158	
   5.17128	5.04568e-05	   5.21726	1.2255e-07	   5.18621	-5.7609e-06	   5.19158	1.49395e-05	   5.19158	  0.373487	
   5.31719	0.000101075	   5.36227	5.11493e-05	   5.33141	4.50766e-05	   5.33696	6.57668e-05	   5.33696	   1.64417	
   5.46281	0.000151731	   5.50717	0.000102382	   5.47665	9.59713e-05	   5.48221	0.000116695	   5.48221	   2.91737	
   5.60824	0.000202579	     5.652	0.000153797	    5.6217	0.000147055	   5.62731	0.000167811	   5.62731	   4.19526	
   5.75365	0.00025354	   5.79662	0.000205278	    5.7666	0.000198366	   5.77229	0.000219062	   5.77229	   5.47654	
   5.89864	0.000304443	   5.94107	0.000256891	   5.91165	0.000249616	   5.91712	0.000270317	   5.91712	   6.75792	
   6.04358	0.000355356	   6.08534	0.000308577	   6.05667	0.000300965	   6.06186	0.000321633	   6.06186	   8.04081	
   6.18805	0.000406471	   6.22928	0.00036027	   6.20138	0.000352454	   6.20624	0.000373065	   6.20624	   9.32662	
   6.33179	0.000457353	   6.37302	0.000411934	   6.34603	0.000403844	   6.35028	0.000424377	   6.35028	   10.6094	
   6.47579	0.000508164	   6.51655	0.000463631	   6.49053	0.000455232	   6.49429	0.000475676	   6.49429	   11.8919	
   6.61943	0.000559037	   6.65972	0.000515221	   6.63479	0.000506632	   6.63798	0.000526963	   6.63798	   13.1741	
   6.76263	0.000609623	   6.80262	0.000566644	   6.77881	0.00055787	   6.78135	0.000578046	   6.78135	   14.4511	
   6.90545	0.000660103	   6.94535	0.000618106	   6.92265	0.000608985	   6.92448	0.000629064	   6.92448	   15.7266	
   7.04793	0.000710449	   7.08784	0.000669368	   7.06639	0.000660086	   7.06739	0.000679967	   7.06739	   16.9992	
   7.19029	0.000760527	   7.23021	0.000720438	   7.20998	0.000710905	   7.21016	0.000730623	   7.21016	   18.2656	
   7.33257	0.000810365	   7.37229	0.000771405	   7.35334	0.000761507	   7.35273	0.000781092	   7.35273	   19.5273	
    7.4746	0.000859993	   7.51396	0.000822105	   7.49637	0.000812017	   7.49498	0.000831372	   7.49498	   20.7843	
   7.61623	0.000909306	   7.65535	0.000872525	   7.63904	0.000862175	   7.63688	0.000881335	   7.63688	   22.0334	
   7.75755	0.000958241	    7.7964	0.000922706	    7.7816	0.000912032	   7.77851	0.000930993	   7.77851	   23.2748	
   7.89875	0.00100697	   7.93707	0.000972565	   7.92394	0.000961756	   7.91992	0.000980431	   7.91992	   24.5108	
   8.03962	0.00105526	   8.07754	0.00102205	   8.06585	0.00101118	     8.061	 0.0010295	     8.061	   25.7374	
   8.17988	0.00110314	   8.21787	0.00107122	   8.20746	0.00106005	   8.20174	0.00107813	   8.20174	   26.9534	
   8.32062	0.00115071	   8.35802	0.00111997	   8.34855	 0.0011086	    8.3424	0.00112643	    8.3424	   28.1606	
   8.46067	 0.0011978	   8.49791	 0.0011683	   8.48949	0.00115681	   8.48269	 0.0011743	   8.48269	   29.3576	
   8.60072	0.00124442	   8.63772	0.00121622	   8.62986	0.00120445	   8.62277	 0.0012217	   8.62277	   30.5424	
   8.74059	0.00129069	   8.77697	0.00126365	   8.76981	0.00125167	   8.76246	0.00126867	   8.76246	   31.7168	
   8.88003	0.00133636	   8.91617	0.00131061	   8.90941	0.00129847	   8.90187	0.00131515	   8.90187	   32.8787	
   9.01883	0.00138154	   9.05526	0.00135689	   9.04833	0.00134468	    9.0408	0.00136103	    9.0408	   34.0259	
   9.15705	0.00142623	   9.19373	0.00140279	   9.18703	0.00139034	   9.17927	0.00140646	   9.17927	   35.1614	
   9.29484	0.00147029	   9.33189	0.00144811	    9.3254	0.00143552	   9.31738	0.00145131	   9.31738	   36.2827	
   9.43234	0.00151378	    9.4695	0.00149279	    9.4634	0.00148005	   9.45508	0.00149554	   9.45508	   37.3885	
   9.56955	0.00155667	   9.60692	0.00153689	   9.60122	0.00152399	   9.59257	0.00153918	   9.59257	   38.4796	
   9.70626	0.00159898	   9.74379	0.00158035	   9.73865	0.00156738	   9.72957	0.00158224	   9.72957	    39.556	
   9.84251	0.00164063	   9.88003	0.00162315	   9.87565	0.00161012	   9.86606	0.00162463	   9.86606	   40.6158	
   9.97825	0.00168166	   10.0161	0.00166524	   10.0125	0.00165222	   10.0023	0.00166637	   10.0023	   41.6593	
   10.1137	0.00172203	   10.1518	0.00170661	   10.1488	0.00169371	   10.1381	0.00170745	   10.1381	   42.6863	
   10.2487	 0.0017617	   10.2874	0.00174738	    10.285	0.00173451	   10.2737	0.00174786	   10.2737	   43.6965	
   10.3833	 0.0018007	   10.4225	0.00178736	   10.4209	0.00177462	   10.4089	0.00178756	   10.4089	    44.689	
   10.5174	  0.001839	   10.5573	0.00182658	   10.5566	0.00181405	   10.5438	0.00182654	   10.5438	   45.6636	
   10.6513	0.00187657	   10.6919	0.00186516	   10.6919	0.00185282	   10.6784	0.00186485	   10.6784	   46.6213	
   10.7847	0.00191344	   10.8255	 0.0019029	   10.8265	0.00189082	   10.8122	0.00190239	   10.8122	   47.5597	
   10.9176	0.00194959	   10.9587	0.00193986	   10.9604	0.00192815	   10.9456	 0.0019392	   10.9456	     48.48	
     11.05	0.00198501	   11.0916	0.00197613	   11.0938	0.00196477	   11.0785	 0.0019753	   11.0785	   49.3825	
   11.1818	0.00201971	   11.2242	0.00201154	   11.2267	0.00200064	   11.2109	0.00201063	   11.2109	   50.2658	
   11.3134	0.00205366	   11.3566	0.00204611	   11.3592	0.00203579	   11.3431	0.00204519	   11.3431	   51.1297	
   11.4444	0.00208684	   11.4887	0.00207988	   11.4914	0.00207021	   11.4748	0.00207898	   11.4748	   51.9744	
   11.5752	0.00211933	   11.6202	0.00211296	   11.6234	0.00210382	   11.6062	0.00211204	   11.6062	   52.8009	
   11.7053	0.00215108	   11.7512	0.00214512	   11.7549	0.00213672	   11.7371	0.00214431	   11.7371	   53.6077	
    11.835	0.00218208	   11.8817	0.00217655	    11.886	0.00216889	   11.8676	0.00217584	   11.8676	    54.396	
   11.9644	 0.0022124	   12.0119	0.00220724	    12.017	0.00220028	   11.9978	0.00220664	   11.9978	   55.1659	
   12.0933	0.00224197	   12.1415	0.00223705	   12.1474	0.00223097	   12.1274	0.00223666	   12.1274	   55.9166	
   12.2219	0.00227081	   12.2706	0.00226615	   12.2773	0.00226092	   12.2566	0.00226596	   12.2566	   56.6489	
   12.3503	0.00229909	   12.3993	0.00229453	   12.4069	0.00229009	   12.3855	0.00229457	   12.3855	   57.3642	
   12.4782	0.00232653	   12.5276	0.00232214	   12.5359	0.00231857	   12.5139	0.00232241	   12.5139	   58.0604	
   12.6056	0.00235317	   12.6556	0.00234896	   12.6644	0.00234624	   12.6419	0.00234946	   12.6419	   58.7364	
   12.7324	0.00237926	   12.7833	0.00237518	   12.7924	0.00237331	   12.7694	0.00237592	   12.7694	   59.3979	
   12.8589	0.00240456	   12.9106	0.00240066	     12.92	0.00239957	   12.8965	0.00240159	   12.8965	   60.0399	
    12.985	0.00242909	   13.0372	 0.0024253	   13.0471	0.00242496	   13.0231	0.00242645	   13.0231	   60.6613	
   13.1106	0.00245305	   13.1633	0.00244929	   13.1738	0.00244979	   13.1492	0.00245071	   13.1492	   61.2677	
   13.2358	0.00247627	   13.2886	0.00247257	      13.3	0.00247385	   13.2748	0.00247423	   13.2748	   61.8558	
   13.3605	0.00249875	   13.4132	0.00249511	   13.4257	0.00249712	   13.3998	0.00249699	   13.3998	   62.4248	
   13.4846	0.00252064	   13.5374	0.00251695	   13.5509	0.00251978	   13.5243	0.00251912	   13.5243	   62.9781	
   13.6079	0.00254183	   13.6609	0.00253822	   13.6754	0.00254173	   13.6481	 0.0025406	   13.6481	   63.5149	
   13.7309	0.00256229	   13.7837	0.00255878	   13.7995	0.00256291	   13.7714	0.00256133	   13.7714	   64.0331	
   13.8536	 0.0025822	   13.9059	0.00257865	   13.9228	 0.0025835	   13.8941	0.00258145	   13.8941	   64.5362	
   13.9757	0.00260138	   14.0273	0.00259796	   14.0456	 0.0026034	   14.0162	0.00260092	   14.0162	   65.0229	
   14.0974	0.00261997	   14.1484	 0.0026166	   14.1679	0.00262266	   14.1379	0.00261974	   14.1379	   65.4935	
   14.2187	0.00263801	    14.269	0.00263461	   14.2894	 0.0026412	   14.2591	0.00263794	   14.2591	   65.9485	
   14.3396	0.00265536	   14.3892	0.00265208	   14.4106	0.00265925	   14.3798	0.00265556	   14.3798	   66.3891	
     14.46	0.00267213	   14.5088	0.00266894	   14.5311	0.00267663	      14.5	0.00267257	      14.5	   66.8142	
   14.5797	0.00268839	   14.6278	0.00268515	   14.6513	0.00269335	   14.6196	0.00268896	   14.6196	   67.2241	
   14.6987	0.00270402	   14.7461	0.00270094	   14.7708	0.00270958	   14.7385	0.00270485	   14.7385	   67.6211	
   14.8174	 0.0027191	   14.8638	 0.0027161	   14.8895	 0.0027252	   14.8569	0.00272013	   14.8569	   68.0034	
   14.9356	 0.0027337	   14.9809	0.00273073	   15.0076	0.00274027	   14.9747	 0.0027349	   14.9747	   68.3725	
   15.0531	0.00274774	   15.0975	0.00274495	   15.1249	0.00275483	   15.0919	0.00274917	   15.0919	   68.7293	
   15.1703	0.00276128	   15.2134	0.00275858	   15.2417	 0.0027689	   15.2085	0.00276292	   15.2085	   69.0731	
   15.2869	 0.0027743	   15.3287	0.00277174	   15.3581	 0.0027824	   15.3246	0.00277615	   15.3246	   69.4036	
   15.4031	 0.0027869	   15.4436	 0.0027845	   15.4739	0.00279542	   15.4402	0.00278894	   15.4402	   69.7235	
   15.5188	0.00279896	   15.5579	0.00279675	   15.5892	  0.002808	   15.5553	0.00280124	   15.5553	   70.0309	
   15.6338	0.00281062	   15.6718	0.00280853	   15.7039	0.00282008	   15.6699	0.00281308	   15.6699	   70.3269	
   15.7485	0.00282184	   15.7852	0.00282002	    15.818	0.00283178	   15.7839	0.00282455	   15.7839	   70.6137	
   15.8626	0.00283265	   15.8981	0.00283093	   15.9313	0.00284297	   15.8974	0.00283552	   15.8974	   70.8879	
   15.9761	0.00284314	   16.0105	0.00284146	   16.0439	0.00285379	   16.0102	0.00284613	   16.0102	   71.1532	
    16.089	0.00285323	   16.1225	0.00285177	   16.1559	0.00286424	   16.1225	0.00285642	   16.1225	   71.4104	
   16.2014	0.00286296	   16.2338	0.00286153	   16.2672	0.00287419	   16.2341	0.00286623	   16.2341	   71.6557	
   16.3132	0.00287238	   16.3443	  0.002871	   16.3779	0.00288379	   16.3451	0.00287572	   16.3451	   71.8931	
   16.4242	0.00288149	   16.4543	0.00288025	   16.4881	0.00289304	   16.4555	0.00288493	   16.4555	   72.1232	
   16.5344	0.00289028	   16.5637	0.00288909	   16.5974	 0.0029019	   16.5651	0.00289376	   16.5651	    72.344	
    16.644	0.00289882	   16.6723	0.00289765	   16.7062	0.00291042	   16.6742	 0.0029023	   16.6742	   72.5574	
    16.753	0.00290709	   16.7803	0.00290604	   16.8146	0.00291859	   16.7826	0.00291057	   16.7826	   72.7643	
   16.8615	0.00291504	   16.8878	0.00291409	   16.9224	0.00292646	   16.8906	0.00291853	   16.8906	   72.9633	
   16.9694	 0.0029228	   16.9945	0.00292182	   17.0298	0.00293407	   16.9979	0.00292623	   16.9979	   73.1557	
   17.0766	0.00293033	   17.1006	0.00292945	   17.1366	0.00294129	   17.1046	0.00293369	   17.1046	   73.3423	
    17.183	0.00293758	   17.2062	0.00293671	   17.2425	0.00294834	   17.2106	0.00294088	   17.2106	   73.5219	
   17.2884	0.00294466	   17.3113	0.00294372	    17.348	0.00295516	   17.3159	0.00294784	   17.3159	   73.6961	
   17.3932	0.00295154	   17.4156	0.00295065	   17.4526	0.00296162	   17.4205	0.00295461	   17.4205	   73.8651	
   17.4976	0.00295818	   17.5189	0.00295727	   17.5566	0.00296778	   17.5244	0.00296108	   17.5244	   74.0269	
   17.6015	0.00296467	   17.6214	0.00296364	   17.6598	 0.0029739	   17.6276	 0.0029674	   17.6276	   74.1851	
   17.7048	0.00297099	   17.7233	0.00296988	   17.7623	0.00297972	   17.7301	0.00297353	   17.7301	   74.3382	
   17.8076	 0.0029771	   17.8244	0.00297588	   17.8639	0.00298528	    17.832	0.00297942	    17.832	   74.4855	
   17.9096	0.00298307	   17.9249	0.00298166	   17.9649	0.00299077	   17.9331	0.00298517	   17.9331	   74.6292	
    18.011	0.00298891	   18.0247	0.00298738	   18.0652	0.00299603	   18.0336	0.00299077	   18.0336	   74.7693	
   18.1118	0.00299456	   18.1239	 0.0029929	   18.1648	  0.003001	   18.1335	0.00299615	   18.1335	   74.9039	
    18.212	0.00300008	   18.2226	0.00299824	   18.2637	0.00300592	   18.2327	0.00300141	   18.2327	   75.0353	
   18.3115	0.00300547	   18.3209	0.00300353	   18.3618	0.00301068	   18.3314	0.00300656	   18.3314	    75.164	
   18.4101	0.00301077	   18.4184	0.00300859	   18.4589	0.00301521	   18.4291	0.00301152	   18.4291	   75.2881	
   18.5079	 0.0030158	   18.5159	0.00301352	   18.5553	0.00301968	   18.5264	0.00301633	   18.5264	   75.4083	
   18.6051	0.00302076	   18.6113	0.00301841	   18.6509	0.00302402	   18.6224	0.00302107	   18.6224	   75.5266	
   18.7015	0.00302566	    18.706	0.00302312	   18.7455	0.00302822	   18.7177	0.00302567	   18.7177	   75.6417	
   18.7974	0.00303032	      18.8	0.00302772	   18.8394	0.00303234	   18.8123	0.00303012	   18.8123	   75.7531	
   18.8922	0.00303493	   18.8935	0.00303225	   18.9327	0.00303627	   18.9061	0.00303449	   18.9061	   75.8621	
   18.9866	0.00303939	   18.9861	0.00303685	   19.0254	0.00304016	   18.9994	 0.0030388	   18.9994	   75.9699	
   19.0801	0.00304374	   19.0779	 0.0030412	   19.1175	0.00304397	   19.0918	0.00304297	   19.0918	   76.0742	
   19.1729	0.00304804	   19.1688	 0.0030454	   19.2088	0.00304764	   19.1835	0.00304703	   19.1835	   76.1757	
   19.2645	0.00305211	   19.2587	0.00304969	   19.2994	0.00305127	   19.2742	0.00305102	   19.2742	   76.2755	
   19.3551	 0.0030562	   19.3479	0.00305377	    19.389	0.00305487	    19.364	0.00305495	    19.364	   76.3738	
   19.4449	0.00306022	   19.4365	0.00305775	   19.4781	0.00305835	   19.4532	0.00305877	   19.4532	   76.4693	
    19.534	0.00306407	   19.5242	0.00306188	   19.5665	 0.0030618	   19.5415	0.00306258	   19.5415	   76.5646	
   19.6222	0.00306795	   19.6114	0.00306585	   19.6536	0.00306513	    19.629	0.00306631	    19.629	   76.6577	
   19.7098	0.00307176	   19.6978	0.00306967	   19.7406	0.00306851	   19.7161	0.00306998	   19.7161	   76.7495	
   19.7966	0.00307535	   19.7835	0.00307363	   19.8268	0.00307189	   19.8023	0.00307362	   19.8023	   76.8406	
   19.8829	0.00307897	   19.8682	0.00307747	   19.9122	0.00307516	   19.8878	 0.0030772	   19.8878	     76.93	
   19.9682	0.00308252	   19.9523	0.00308118	   19.9967	0.00307853	   19.9724	0.00308074	   19.9724	   77.0186	
   20.0527	0.00308588	   20.0356	0.00308499	   20.0805	0.00308182	   20.0563	0.00308423	   20.0563	   77.1058	
   20.1364	0.00308926	   20.1179	0.00308876	   20.1636	0.00308512	   20.1393	0.00308771	   20.1393	   77.1929	
   20.2191	0.00309259	   20.1996	0.00309235	   20.2461	0.00308845	   20.2216	0.00309113	   20.2216	   77.2783	
   20.3012	0.00309575	   20.2806	0.00309602	    20.328	0.00309167	   20.3033	0.00309448	   20.3033	    77.362	
   20.3829	0.00309891	   20.3609	0.00309971	   20.4093	0.00309496	   20.3843	0.00309786	   20.3843	   77.4464	
   20.4628	0.00310202	   20.4405	0.00310324	   20.4898	0.00309817	   20.4644	0.00310115	   20.4644	   77.5287	
   20.5424	0.00310506	   20.5194	0.00310685	   20.5695	0.00310134	   20.5438	0.00310442	   20.5438	   77.6104	
   20.6207	  0.003108	   20.5977	0.00311039	   20.6482	0.00310455	   20.6222	0.00310765	   20.6222	   77.6912	
   20.6983	0.00311089	   20.6752	0.00311389	   20.7261	0.00310772	   20.6999	0.00311083	   20.6999	   77.7708	
    20.775	0.00311386	   20.7513	0.00311739	   20.8029	0.00311085	   20.7764	0.00311403	   20.7764	   77.8509	
   20.8508	 0.0031165	    20.827	0.00312085	   20.8789	0.00311392	   20.8522	0.00311709	   20.8522	   77.9272	
   20.9254	0.00311916	   20.9019	0.00312424	    20.954	0.00311704	   20.9271	0.00312015	   20.9271	   78.0036	
   20.9993	0.00312185	    20.976	0.00312763	   21.0281	0.00312012	   21.0011	 0.0031232	   21.0011	     78.08	
   21.0721	0.00312428	   21.0491	  0.003131	   21.1013	0.00312314	   21.0742	0.00312614	   21.0742	   78.1535	
    21.144	0.00312662	   21.1215	0.00313429	   21.1736	0.00312617	   21.1464	0.00312903	   21.1464	   78.2257	
   21.2151	0.00312905	   21.1929	0.00313755	   21.2449	0.00312915	   21.2176	0.00313192	   21.2176	    78.298	
   21.2854	0.00313133	   21.2632	0.00314078	    21.315	0.00313214	   21.2879	0.00313475	   21.2879	   78.3688	
   21.3548	0.00313344	   21.3327	0.00314398	   21.3844	 0.0031351	   21.3573	 0.0031375	   21.3573	   78.4376	
   21.4232	0.00313561	   21.4013	0.00314718	   21.4528	0.00313802	   21.4258	0.00314027	   21.4258	   78.5067	
   21.4907	 0.0031376	   21.4693	 0.0031503	   21.5206	0.00314092	   21.4936	0.00314294	   21.4936	   78.5735	
   21.5574	0.00313949	   21.5365	0.00315339	   21.5875	0.00314383	   21.5605	0.00314557	   21.5605	   78.6393	
   21.6233	0.00314142	   21.6029	0.00315649	   21.6537	0.00314669	   21.6266	 0.0031482	   21.6266	    78.705	
   21.6882	0.00314321	   21.6687	0.00315949	    21.719	0.00314949	    21.692	0.00315073	    21.692	   78.7683	
    21.752	0.00314492	   21.7338	0.00316246	   21.7835	 0.0031523	   21.7564	0.00315323	   21.7564	   78.8307	
    21.815	 0.0031466	    21.798	0.00316543	   21.8471	0.00315505	     21.82	0.00315569	     21.82	   78.8923	
   21.8768	0.00314811	   21.8614	 0.0031683	     21.91	0.00315776	   21.8828	0.00315805	   21.8828	   78.9513	
   21.9378	0.00314971	   21.9238	0.00317114	    21.972	0.00316048	   21.9445	0.00316044	   21.9445	   79.0111	
   21.9978	0.00315123	   21.9854	0.00317395	   22.0332	0.00316316	   22.0055	0.00316278	   22.0055	   79.0694	
   22.0568	0.00315261	   22.0462	0.00317666	   22.0934	0.00316576	   22.0655	0.00316501	   22.0655	   79.1252	
    22.115	0.00315402	   22.1059	0.00317936	   22.1528	0.00316839	   22.1246	0.00316726	   22.1246	   79.1814	
    22.172	0.00315539	   22.1648	0.00318199	   22.2113	0.00317095	   22.1827	0.00316944	   22.1827	    79.236	
   22.2282	0.00315664	   22.2227	0.00318455	   22.2689	0.00317341	   22.2399	0.00317154	   22.2399	   79.2884	
   22.2835	0.00315791	   22.2798	0.00318708	   22.3256	0.00317595	   22.2963	0.00317365	   22.2963	   79.3412	
   22.3379	0.00315917	   22.3361	0.00318955	   22.3813	0.00317841	   22.3518	0.00317571	   22.3518	   79.3928	
   22.3907	0.00316029	   22.3916	0.00319193	   22.4363	0.00318067	   22.4062	0.00317763	   22.4062	   79.4408	
   22.4426	0.00316154	   22.4463	0.00319437	    22.491	0.00318296	     22.46	0.00317962	     22.46	   79.4905	
   22.4938	0.00316278	   22.5001	0.00319667	    22.545	0.00318532	    22.513	0.00318159	    22.513	   79.5397	
   22.5441	0.00316383	   22.5529	0.00319891	   22.5982	0.00318746	    22.565	 0.0031834	    22.565	    79.585	
   22.5938	  0.003165	   22.6046	0.00320116	   22.6504	0.00318962	   22.6163	0.00318526	   22.6163	   79.6316	
   22.6429	 0.0031662	   22.6553	 0.0032033	   22.7018	0.00319185	   22.6666	0.00318712	   22.6666	    79.678	
   22.6908	0.00316725	   22.7049	0.00320541	   22.7524	0.00319396	    22.716	0.00318887	    22.716	   79.7218	
   22.7377	0.00316839	   22.7538	0.00320748	    22.802	0.00319601	   22.7645	0.00319063	   22.7645	   79.7657	
    22.784	0.00316957	   22.8015	 0.0032095	   22.8506	0.00319811	   22.8121	0.00319239	   22.8121	   79.8098	
   22.8293	0.00317059	   22.8483	0.00321147	   22.8983	0.00320012	   22.8586	0.00319406	   22.8586	   79.8515	
   22.8738	0.00317166	   22.8941	0.00321335	   22.9451	0.00320208	   22.9044	 0.0031957	   22.9044	   79.8924	
   22.9174	0.00317278	   22.9389	0.00321518	   22.9909	0.00320408	   22.9491	0.00319735	   22.9491	   79.9337	
     22.96	0.00317379	   22.9828	  0.003217	   23.0356	0.00320602	   22.9928	0.00319894	   22.9928	   79.9735	
   23.0018	0.00317482	   23.0256	0.00321876	   23.0793	0.00320791	   23.0355	 0.0032005	   23.0355	   80.0124	
   23.0432	 0.0031759	   23.0674	0.00322038	   23.1221	0.00320985	   23.0776	0.00320204	   23.0776	   80.0511	
   23.0838	0.00317689	   23.1083	0.00322215	   23.1641	0.00321174	   23.1187	0.00320359	   23.1187	   80.0899	
   23.1236	0.00317785	   23.1487	0.00322375	   23.2053	0.00321359	   23.1592	0.00320506	   23.1592	   80.1266	
   23.1625	0.00317893	    23.188	0.00322525	   23.2454	0.00321547	   23.1986	0.00320655	   23.1986	   80.1637	
   23.2006	0.00317983	   23.2266	 0.0032268	   23.2847	0.00321731	   23.2373	0.00320798	   23.2373	   80.1995	
   23.2374	 0.0031808	   23.2642	0.00322821	   23.3232	0.00321911	   23.2749	0.00320938	   23.2749	   80.2344	
   23.2736	0.00318183	   23.3008	0.00322952	   23.3608	0.00322093	   23.3118	0.00321076	   23.3118	   80.2689	
    23.309	0.00318271	   23.3368	0.00323083	   23.3974	0.00322271	   23.3478	0.00321209	   23.3478	   80.3021	
   23.3434	0.00318368	   23.3717	0.00323204	   23.4331	 0.0032244	   23.3827	0.00321337	   23.3827	   80.3344	
   23.3768	0.00318465	   23.4058	0.00323315	   23.4677	0.00322612	   23.4168	0.00321464	   23.4168	    80.366	
   23.4093	0.00318553	   23.4389	0.00323426	    23.501	0.00322779	   23.4498	0.00321586	   23.4498	   80.3965	
    23.441	 0.0031864	   23.4714	0.00323529	   23.5332	0.00322936	   23.4819	0.00321702	   23.4819	   80.4254	
   23.4721	0.00318732	   23.5034	0.00323621	   23.5645	0.00323101	   23.5133	0.00321818	   23.5133	   80.4545	
   23.5027	0.00318814	   23.5339	0.00323713	   23.5947	0.00323256	   23.5438	0.00321928	   23.5438	   80.4819	
   23.5325	0.00318893	   23.5638	0.00323801	   23.6241	0.00323405	   23.5735	0.00322033	   23.5735	   80.5082	
   23.5617	0.00318988	   23.5928	0.00323875	   23.6522	0.00323558	   23.6022	0.00322141	   23.6022	   80.5351	
     23.59	0.00319064	    23.621	 0.0032395	   23.6797	0.00323702	   23.6302	0.00322239	   23.6302	   80.5597	
   23.6174	0.00319131	    23.648	0.00324034	   23.7061	 0.0032384	   23.6572	0.00322335	   23.6572	   80.5837	
   23.6437	0.00319213	   23.6741	0.00324085	   23.7316	0.00323983	   23.6831	0.00322427	   23.6831	   80.6068	
   23.6694	0.00319283	   23.6991	0.00324147	   23.7562	0.00324116	   23.7083	0.00322515	   23.7083	   80.6288	
   23.6942	0.00319344	   23.7231	0.00324206	   23.7799	0.00324229	   23.7324	0.00322593	   23.7324	   80.6482	
    23.718	0.00319414	   23.7464	0.00324241	   23.8026	0.00324362	   23.7557	0.00322672	   23.7557	    80.668	
   23.7409	0.00319475	   23.7686	 0.0032428	   23.8243	0.00324479	   23.7779	0.00322745	   23.7779	   80.6862	
   23.7628	0.00319528	   23.7898	0.00324317	   23.8452	0.00324588	   23.7993	0.00322811	   23.7993	   80.7027	
    23.784	0.00319588	   23.8103	0.00324337	   23.8654	0.00324712	   23.8199	0.00322879	   23.8199	   80.7197	
   23.8043	 0.0031964	   23.8299	0.00324356	    23.885	0.00324821	   23.8397	0.00322939	   23.8397	   80.7347	
   23.8236	0.00319684	   23.8485	0.00324381	   23.9039	0.00324921	   23.8586	0.00322995	   23.8586	   80.7488	
   23.8421	0.00319734	   23.8661	0.00324382	   23.9216	 0.0032503	   23.8766	0.00323049	   23.8766	   80.7622	
   23.8595	0.00319774	   23.8827	 0.0032439	   23.9383	0.00325124	   23.8935	0.00323096	   23.8935	    80.774	
   23.8759	0.00319808	   23.8984	0.00324398	   23.9544	0.00325206	   23.9096	0.00323137	   23.9096	   80.7842	
   23.8913	0.00319844	   23.9128	0.00324381	   23.9695	0.00325306	   23.9245	0.00323177	   23.9245	   80.7943	
   23.9057	0.00319873	   23.9262	0.00324378	   23.9839	0.00325387	   23.9386	0.00323213	   23.9386	   80.8031	
   23.9195	0.00319898	   23.9386	 0.0032438	   23.9974	0.00325461	   23.9518	0.00323246	   23.9518	   80.8116	
   23.9323	0.00319923	   23.9502	0.00324356	   24.0099	0.00325546	   23.9642	0.00323275	   23.9642	   80.8188	
   23.9441	0.00319939	    23.961	0.00324344	   24.0216	0.00325613	   23.9756	0.00323299	   23.9756	   80.8247	
   23.9547	 0.0031995	    23.971	0.00324338	   24.0323	0.00325673	    23.986	0.00323321	    23.986	   80.8301	
   23.9644	0.00319969	   23.9798	0.00324313	   24.0416	 0.0032574	   23.9953	0.00323341	   23.9953	   80.8352	
   23.9729	0.00319977	   23.9875	0.00324296	     24.05	0.00325793	   24.0035	0.00323356	   24.0035	   80.8389	
   23.9802	0.00319983	   23.9941	0.00324285	   24.0576	0.00325839	   24.0106	0.00323369	   24.0106	   80.8422	
   23.9866	0.00319989	   24.0001	0.00324257	   24.0642	 0.0032589	    24.017	0.00323379	    24.017	   80.8447	
   23.9921	0.00319993	   24.0052	0.00324234	   24.0698	0.00325927	   24.0224	0.00323385	   24.0224	   80.8462	
   23.9966	0.00319987	   24.0093	0.00324216	   24.0746	0.00325957	   24.0268	0.00323387	   24.0268	   80.8466	
   24.0002	0.00319986	   24.0125	0.00324187	   24.0779	0.00325989	   24.0302	0.00323387	   24.0302	   80.8468	
   24.0029	0.00319981	   24.0148	0.00324154	   24.0804	0.00326022	   24.0327	0.00323386	   24.0327	   80.8465	
   24.0045	0.00319966	    24.016	0.00324131	   24.0819	 0.0032604	   24.0341	0.00323379	   24.0341	   80.8449	
   24.0053	0.00319954	   24.0165	0.00324098	   24.0826	0.00326056	   24.0348	0.00323369	   24.0348	   80.8424	
   24.0053	0.00319942	   24.0159	0.00324067	   24.0822	0.00326075	   24.0345	0.00323361	   24.0345	   80.8403	
   24.0045	0.00319927	   24.0142	0.00324041	   24.0808	 0.0032608	   24.0332	0.00323349	   24.0332	   80.8373	
   24.0026	  0.003199	   24.0116	0.00324001	   24.0784	0.00326074	   24.0308	0.00323325	   24.0308	   80.8313	
   23.9999	0.00319873	   24.0081	0.00323982	   24.0749	0.00326077	   24.0276	0.00323311	   24.0276	   80.8277	
   23.9961	 0.0031985	   24.0039	0.00323959	   24.0702	0.00326068	   24.0234	0.00323292	   24.0234	   80.8231	
   23.9914	0.00319822	   23.9989	0.00323928	   24.0647	0.00326047	   24.0183	0.00323266	   24.0183	   80.8164	
   23.9858	0.00319786	   23.9929	0.00323912	   24.0582	0.00326033	   24.0123	0.00323244	   24.0123	   80.8109	
   23.9792	0.00319751	   23.9859	0.00323891	   24.0508	0.00326017	   24.0053	0.00323219	   24.0053	   80.8048	
   23.9715	0.00319712	   23.9782	0.00323864	   24.0425	0.00325985	   23.9974	0.00323187	   23.9974	   80.7967	
   23.9629	0.00319672	   23.9694	0.00323844	   24.0333	0.00325959	   23.9886	0.00323158	   23.9886	   80.7896	
   23.9533	0.00319624	   23.9597	0.00323823	    24.023	0.00325931	   23.9787	0.00323126	   23.9787	   80.7815	
   23.9429	0.00319574	    23.949	0.00323797	   24.0115	0.00325891	   23.9678	0.00323087	   23.9678	   80.7718	
   23.9316	0.00319522	   23.9368	 0.0032378	   23.9992	0.00325855	   23.9559	0.00323053	   23.9559	   80.7631	
   23.9196	0.00319467	   23.9238	0.00323763	   23.9861	0.00325817	   23.9432	0.00323016	   23.9432	   80.7539	
   23.9068	0.00319407	   23.9097	0.00323743	   23.9719	0.00325764	   23.9295	0.00322971	   23.9295	   80.7428	
    23.893	0.00319347	   23.8944	0.00323732	   23.9567	0.00325715	   23.9147	0.00322931	   23.9147	   80.7329	
   23.8784	0.00319284	   23.8783	0.00323718	   23.9407	0.00325671	   23.8992	0.00322891	   23.8992	   80.7228	
    23.863	0.00319214	   23.8614	0.00323702	   23.9235	0.00325617	   23.8826	0.00322844	   23.8826	   80.7111	
   23.8464	0.00319146	   23.8435	0.00323692	   23.9052	0.00325555	    23.865	0.00322798	    23.865	   80.6994	
   23.8288	0.00319075	   23.8248	 0.0032368	   23.8858	0.00325502	   23.8465	0.00322752	   23.8465	   80.6881	
   23.8103	0.00318999	   23.8049	0.00323665	   23.8659	0.00325446	    23.827	0.00322703	    23.827	   80.6758	
   23.7908	0.00318925	   23.7843	0.00323659	   23.8447	0.00325381	   23.8066	0.00322655	   23.8066	   80.6638	
     23.77	0.00318849	   23.7627	0.00323653	   23.8226	0.00325314	   23.7851	0.00322605	   23.7851	   80.6513	
   23.7484	0.00318769	     23.74	0.00323638	   23.7994	0.00325251	   23.7626	0.00322553	   23.7626	   80.6381	
   23.7261	 0.0031869	   23.7166	0.00323624	   23.7753	0.00325167	   23.7393	0.00322493	   23.7393	   80.6234	
   23.7029	0.00318612	   23.6924	 0.0032361	   23.7503	  0.003251	   23.7152	0.00322441	   23.7152	   80.6102	
   23.6789	0.00318528	   23.6671	0.00323597	   23.7243	0.00325035	   23.6901	0.00322387	   23.6901	   80.5967	
    23.654	0.00318445	   23.6411	0.00323586	   23.6972	0.00324954	   23.6641	0.00322328	   23.6641	    80.582	
    23.628	0.00318365	   23.6144	0.00323567	    23.669	0.00324887	   23.6371	0.00322273	   23.6371	   80.5682	
   23.6009	0.00318277	   23.5864	0.00323553	   23.6401	0.00324819	   23.6091	0.00322216	   23.6091	   80.5541	
   23.5728	 0.0031819	   23.5576	0.00323537	   23.6101	0.00324741	   23.5802	0.00322156	   23.5802	   80.5391	
   23.5437	0.00318111	   23.5281	0.00323518	    23.579	0.00324671	   23.5503	  0.003221	   23.5503	    80.525	
   23.5137	0.00318021	   23.4975	0.00323503	   23.5472	0.00324614	   23.5195	0.00322046	   23.5195	   80.5115	
   23.4828	 0.0031793	    23.466	0.00323487	   23.5145	 0.0032454	   23.4878	0.00321986	   23.4878	   80.4964	
   23.4511	 0.0031784	   23.4334	0.00323465	   23.4808	0.00324474	   23.4551	0.00321926	   23.4551	   80.4816	
   23.4186	 0.0031775	   23.3999	0.00323448	   23.4471	0.00324417	   23.4218	0.00321872	   23.4218	   80.4679	
   23.3852	 0.0031766	   23.3654	0.00323432	   23.4113	0.00324347	   23.3873	0.00321813	   23.3873	   80.4532	
   23.3507	0.00317561	   23.3303	0.00323414	   23.3752	0.00324283	    23.352	0.00321753	    23.352	   80.4382	
   23.3155	0.00317472	   23.2943	0.00323394	   23.3379	0.00324227	   23.3159	0.00321698	   23.3159	   80.4245	
   23.2792	0.00317376	   23.2576	0.00323359	   23.2998	0.00324166	   23.2789	0.00321634	   23.2789	   80.4084	
    23.242	0.00317279	   23.2201	0.00323341	   23.2607	0.00324118	   23.2409	0.00321579	   23.2409	   80.3948	
   23.2038	0.00317193	   23.1816	0.00323322	   23.2204	0.00324059	   23.2019	0.00321525	   23.2019	   80.3812	
   23.1645	0.00317098	    23.142	 0.0032329	   23.1791	0.00324004	   23.1619	0.00321464	   23.1619	   80.3661	
   23.1243	0.00317004	   23.1014	0.00323271	   23.1372	0.00323951	    23.121	0.00321408	    23.121	   80.3521	
   23.0831	0.00316917	   23.0599	0.00323251	   23.0942	0.00323895	   23.0791	0.00321354	   23.0791	   80.3386	
   23.0409	 0.0031682	   23.0172	0.00323225	   23.0502	0.00323846	   23.0361	0.00321297	   23.0361	   80.3242	
   22.9976	0.00316726	   22.9736	0.00323203	   23.0048	0.00323791	    22.992	 0.0032124	    22.992	   80.3101	
   22.9534	0.00316642	    22.929	0.00323183	   22.9591	0.00323739	   22.9472	0.00321188	   22.9472	    80.297	
   22.9081	0.00316545	   22.8837	0.00323159	   22.9124	 0.0032369	   22.9014	0.00321132	   22.9014	   80.2829	
   22.8619	0.00316451	   22.8375	 0.0032313	   22.8649	0.00323637	   22.8548	0.00321072	   22.8548	   80.2681	
   22.8148	0.00316362	   22.7905	0.00323105	   22.8166	0.00323593	   22.8073	 0.0032102	   22.8073	    80.255	
   22.7665	0.00316263	   22.7425	0.00323079	   22.7676	0.00323543	   22.7588	0.00320961	   22.7588	   80.2404	
    22.718	0.00316164	   22.6938	0.00323043	   22.7179	0.00323498	   22.7099	0.00320902	   22.7099	   80.2254	
    22.668	0.00316068	   22.6446	0.00323012	   22.6672	0.00323454	   22.6599	0.00320845	   22.6599	   80.2112	
   22.6172	0.00315969	   22.5943	0.00322982	   22.6159	 0.0032341	   22.6091	0.00320787	   22.6091	   80.1967	
   22.5658	0.00315862	   22.5432	0.00322943	   22.5639	0.00323366	   22.5576	0.00320723	   22.5576	   80.1809	
   22.5137	 0.0031575	   22.4913	0.00322905	   22.5109	0.00323318	   22.5053	0.00320658	   22.5053	   80.1644	
   22.4604	0.00315647	   22.4386	0.00322868	   22.4569	0.00323273	    22.452	0.00320596	    22.452	    80.149	
   22.4063	0.00315532	   22.3849	0.00322823	   22.4019	0.00323224	   22.3977	0.00320526	   22.3977	   80.1316	
    22.351	 0.0031541	   22.3301	 0.0032278	   22.3465	0.00323179	   22.3425	0.00320456	   22.3425	    80.114	
   22.2948	0.00315289	   22.2745	0.00322728	   22.2899	0.00323135	   22.2864	0.00320384	   22.2864	   80.0959	
   22.2376	 0.0031518	   22.2174	 0.0032268	   22.2329	0.00323087	   22.2293	0.00320316	   22.2293	   80.0789	
   22.1798	0.00315049	   22.1596	0.00322631	   22.1749	0.00323037	   22.1714	0.00320239	   22.1714	   80.0597	
    22.121	0.00314923	    22.101	 0.0032257	    22.116	0.00322987	   22.1127	 0.0032016	   22.1127	     80.04	
   22.0614	0.00314807	   22.0416	0.00322517	   22.0562	0.00322932	    22.053	0.00320085	    22.053	   80.0213	
   22.0007	0.00314675	   21.9813	0.00322461	   21.9956	0.00322869	   21.9925	0.00320002	   21.9925	   80.0004	
   21.9395	0.00314544	   21.9203	0.00322387	    21.934	 0.0032281	   21.9313	0.00319914	   21.9313	   79.9784	
   21.8774	 0.0031442	   21.8584	0.00322325	   21.8718	0.00322744	   21.8692	 0.0031983	   21.8692	   79.9574	
   21.8146	0.00314285	   21.7958	0.00322254	   21.8087	0.00322672	   21.8063	0.00319737	   21.8063	   79.9342	
   21.7508	0.00314149	   21.7324	0.00322172	   21.7445	0.00322605	   21.7426	0.00319642	   21.7426	   79.9104	
   21.6861	0.00314017	   21.6682	0.00322099	   21.6796	 0.0032253	    21.678	0.00319549	    21.678	   79.8871	
   21.6206	0.00313879	   21.6031	0.00322016	   21.6137	0.00322448	   21.6124	0.00319448	   21.6124	   79.8619	
   21.5542	0.00313734	   21.5368	0.00321927	   21.5471	0.00322368	   21.5461	0.00319343	   21.5461	   79.8357	
   21.4872	0.00313602	   21.4699	 0.0032184	   21.4798	0.00322282	    21.479	0.00319241	    21.479	   79.8103	
   21.4191	0.00313473	   21.4022	0.00321746	   21.4118	0.00322187	    21.411	0.00319135	    21.411	   79.7838	
   21.3502	0.00313321	   21.3334	0.00321647	   21.3427	  0.003221	   21.3421	0.00319023	   21.3421	   79.7557	
   21.2802	0.00313181	   21.2639	0.00321548	   21.2728	0.00322005	   21.2723	0.00318912	   21.2723	   79.7279	
    21.209	0.00313044	   21.1935	0.00321447	   21.2019	0.00321899	   21.2015	0.00318796	   21.2015	   79.6991	
   21.1372	0.00312888	   21.1223	0.00321339	   21.1301	  0.003218	   21.1299	0.00318675	   21.1299	   79.6689	
   21.0645	0.00312741	   21.0502	 0.0032123	   21.0577	0.00321691	   21.0574	0.00318554	   21.0574	   79.6384	
    20.991	0.00312595	   20.9771	0.00321118	   20.9847	0.00321564	   20.9843	0.00318426	   20.9843	   79.6064	
   20.9166	0.00312441	   20.9032	0.00320995	    20.911	0.00321449	   20.9103	0.00318295	   20.9103	   79.5737	
   20.8412	0.00312283	   20.8284	0.00320879	   20.8367	0.00321321	   20.8354	0.00318161	   20.8354	   79.5402	
   20.7653	0.00312137	   20.7527	0.00320759	   20.7617	0.00321182	   20.7599	0.00318026	   20.7599	   79.5065	
   20.6886	0.00311984	   20.6763	0.00320616	   20.6862	0.00321046	   20.6837	0.00317882	   20.6837	   79.4705	
   20.6113	0.00311823	   20.5991	0.00320489	   20.6095	0.00320901	   20.6066	0.00317738	   20.6066	   79.4344	
    20.533	0.00311669	   20.5209	0.00320345	    20.532	0.00320744	   20.5286	0.00317586	   20.5286	   79.3965	
   20.4539	0.00311504	   20.4418	0.00320192	   20.4537	0.00320584	   20.4498	0.00317427	   20.4498	   79.3567	
   20.3739	0.00311337	   20.3618	0.00320047	   20.3745	0.00320417	   20.3701	0.00317267	   20.3701	   79.3167	
   20.2934	 0.0031117	   20.2809	0.00319888	   20.2946	0.00320229	   20.2897	0.00317096	   20.2897	   79.2739	
   20.2122	0.00310999	   20.1992	0.00319721	   20.2141	0.00320047	   20.2085	0.00316922	   20.2085	   79.2306	
   20.1301	0.00310827	    20.117	0.00319557	   20.1328	0.00319857	   20.1267	0.00316747	   20.1267	   79.1867	
   20.0473	0.00310649	   20.0337	0.00319383	   20.0509	0.00319653	    20.044	0.00316562	    20.044	   79.1404	
   19.9636	 0.0031047	   19.9495	  0.003192	   19.9684	0.00319452	   19.9605	0.00316374	   19.9605	   79.0935	
   19.8792	0.00310294	   19.8646	0.00319018	   19.8852	0.00319245	   19.8763	0.00316186	   19.8763	   79.0464	
    19.794	0.00310109	   19.7789	0.00318827	   19.8015	0.00319025	   19.7915	0.00315987	   19.7915	   78.9968	
   19.7079	0.00309925	   19.6926	0.00318628	    19.717	0.00318807	   19.7058	0.00315786	   19.7058	   78.9466	
   19.6209	0.00309744	   19.6054	0.00318432	   19.6316	0.00318584	   19.6193	0.00315587	   19.6193	   78.8966	
   19.5328	0.00309556	   19.5177	0.00318211	   19.5452	 0.0031835	   19.5319	0.00315372	   19.5319	   78.8431	
    19.444	0.00309369	   19.4289	0.00317993	    19.458	0.00318118	   19.4436	 0.0031516	   19.4436	     78.79	
   19.3547	0.00309182	   19.3395	0.00317776	   19.3698	0.00317881	   19.3547	0.00314946	   19.3547	   78.7366	
   19.2645	0.00308992	   19.2497	 0.0031754	   19.2811	0.00317634	   19.2651	0.00314722	   19.2651	   78.6805	
   19.1736	0.00308792	   19.1591	0.00317302	   19.1914	0.00317392	   19.1747	0.00314495	   19.1747	   78.6238	
   19.0818	0.00308605	   19.0675	0.00317064	    19.101	0.00317146	   19.0834	0.00314272	   19.0834	    78.568	
   18.9893	0.00308396	    18.975	0.00316807	   19.0098	0.00316886	   18.9914	 0.0031403	   18.9914	   78.5075	
    18.896	0.00308178	    18.882	0.00316548	   18.9179	0.00316635	   18.8986	0.00313787	   18.8986	   78.4468	
    18.802	0.00307974	   18.7885	0.00316289	   18.8251	0.00316374	   18.8052	0.00313546	   18.8052	   78.3864	
   18.7075	0.00307749	    18.694	0.00316014	   18.7314	0.00316099	    18.711	0.00313287	    18.711	   78.3218	
   18.6123	0.00307514	   18.5987	0.00315737	    18.637	 0.0031583	    18.616	0.00313027	    18.616	   78.2568	
   18.5163	 0.0030729	   18.5026	0.00315456	   18.5419	0.00315545	   18.5203	0.00312764	   18.5203	   78.1909	
   18.4196	0.00307049	   18.4063	0.00315163	   18.4459	0.00315264	   18.4239	0.00312492	   18.4239	    78.123	
   18.3222	0.00306796	   18.3084	0.00314866	    18.349	0.00314976	   18.3266	0.00312213	   18.3266	   78.0532	
   18.2244	 0.0030655	     18.21	0.00314565	   18.2512	0.00314677	   18.2285	0.00311931	   18.2285	   77.9826	
   18.1258	0.00306288	   18.1109	0.00314258	   18.1527	0.00314375	   18.1298	 0.0031164	   18.1298	   77.9101	
   18.0266	0.00306014	   18.0111	0.00313948	   18.0535	0.00314071	   18.0304	0.00311344	   18.0304	   77.8361	
   17.9267	0.00305742	   17.9106	0.00313633	   17.9534	0.00313756	   17.9303	0.00311044	   17.9303	    77.761	
   17.8262	 0.0030546	   17.8093	  0.003133	   17.8525	0.00313433	   17.8293	0.00310731	   17.8293	   77.6827	
   17.7249	0.00305162	   17.7076	0.00312972	   17.7508	0.00313109	   17.7277	0.00310414	   17.7277	   77.6036	
   17.6228	0.00304869	   17.6048	0.00312637	   17.6484	0.00312775	   17.6253	0.00310094	   17.6253	   77.5234	
     17.52	0.00304564	   17.5013	0.00312285	   17.5453	0.00312429	   17.5222	0.00309759	   17.5222	   77.4398	
   17.4168	0.00304246	   17.3972	0.00311936	   17.4413	0.00312086	   17.4184	0.00309423	   17.4184	   77.3557	
   17.3127	0.00303933	   17.2921	0.00311581	   17.3364	0.00311737	   17.3137	0.00309084	   17.3137	   77.2709	
   17.2079	0.00303607	   17.1861	0.00311214	   17.2307	0.00311374	   17.2083	0.00308732	   17.2083	   77.1829	
   17.1024	0.00303271	   17.0794	0.00310836	   17.1243	0.00311011	    17.102	0.00308373	    17.102	   77.0932	
    16.996	0.00302936	   16.9717	0.00310461	   17.0169	0.00310642	   16.9949	0.00308013	   16.9949	   77.0033	
   16.8888	 0.0030259	   16.8634	0.00310079	   16.9089	0.00310261	   16.8871	0.00307643	   16.8871	   76.9108	
   16.7812	0.00302237	   16.7544	0.00309685	   16.8002	0.00309878	   16.7786	0.00307267	   16.7786	   76.8167	
   16.6728	0.00301882	   16.6447	0.00309296	   16.6907	0.00309489	   16.6694	0.00306889	   16.6694	   76.7223	
   16.5638	0.00301525	   16.5344	0.00308899	   16.5805	0.00309088	   16.5596	0.00306504	   16.5596	    76.626	
    16.454	0.00301149	   16.4234	0.00308493	   16.4694	0.00308683	   16.4489	0.00306108	   16.4489	   76.5271	
   16.3436	 0.0030078	   16.3117	0.00308089	   16.3579	0.00308273	   16.3377	0.00305714	   16.3377	   76.4285	
   16.2326	0.00300403	   16.1994	0.00307679	   16.2458	 0.0030785	   16.2259	 0.0030531	   16.2259	   76.3276	
   16.1208	 0.0030001	   16.0863	0.00307258	   16.1331	0.00307424	   16.1134	0.00304897	   16.1134	   76.2244	
   16.0081	0.00299621	   15.9726	0.00306846	     16.02	0.00306988	   16.0003	0.00304485	   16.0003	   76.1212	
   15.8946	0.00299225	   15.8583	0.00306424	    15.906	 0.0030654	   15.8863	0.00304063	   15.8863	   76.0157	
   15.7807	0.00298816	   15.7433	 0.0030599	   15.7916	0.00306092	   15.7718	0.00303633	   15.7718	   75.9082	
    15.666	0.00298408	   15.6271	 0.0030556	   15.6764	0.00305632	   15.6565	  0.003032	   15.6565	      75.8	
   15.5509	0.00297996	   15.5107	0.00305122	   15.5607	0.00305168	   15.5408	0.00302762	   15.5408	   75.6906	
   15.4351	0.00297566	   15.3938	0.00304677	   15.4445	0.00304699	   15.4245	0.00302314	   15.4245	   75.5785	
   15.3189	0.00297133	   15.2766	0.00304231	   15.3277	0.00304229	   15.3078	0.00301864	   15.3078	   75.4661	
   15.2022	0.00296701	   15.1589	0.00303784	   15.2104	0.00303741	   15.1905	0.00301409	   15.1905	   75.3522	
   15.0847	 0.0029626	   15.0405	0.00303317	   15.0924	0.00303251	   15.0725	0.00300943	   15.0725	   75.2358	
   14.9667	0.00295811	   14.9215	0.00302857	   14.9737	0.00302756	    14.954	0.00300475	    14.954	   75.1187	
   14.8479	0.00295361	   14.8017	0.00302386	   14.8545	0.00302247	   14.8347	0.00299998	   14.8347	   74.9995	
   14.7285	0.00294901	   14.6815	0.00301905	   14.7345	0.00301731	   14.7149	0.00299512	   14.7149	   74.8781	
   14.6085	0.00294431	    14.561	0.00301426	    14.614	0.00301207	   14.5945	0.00299022	   14.5945	   74.7554	
   14.4879	0.00293964	   14.4398	0.00300936	   14.4927	0.00300673	   14.4735	0.00298524	   14.4735	   74.6311	
   14.3668	0.00293481	   14.3182	0.00300433	   14.3709	0.00300131	    14.352	0.00298015	    14.352	   74.5038	
    14.245	0.00292993	   14.1962	0.00299935	   14.2485	0.00299584	   14.2299	0.00297504	   14.2299	    74.376	
   14.1225	0.00292503	   14.0737	0.00299426	   14.1255	0.00299023	   14.1072	0.00296984	   14.1072	    74.246	
   13.9994	0.00291999	   13.9506	  0.002989	   14.0017	0.00298451	   13.9839	 0.0029645	   13.9839	   74.1125	
   13.8758	0.00291486	   13.8271	0.00298379	   13.8771	0.00297876	     13.86	0.00295914	     13.86	   73.9785	
   13.7515	0.00290974	    13.703	0.00297847	   13.7517	0.00297286	   13.7354	0.00295369	   13.7354	   73.8423	
   13.6265	0.00290445	   13.5787	  0.002973	   13.6259	0.00296684	   13.6104	 0.0029481	   13.6104	   73.7024	
   13.5008	0.00289906	   13.4538	0.00296753	   13.4999	0.00296077	   13.4848	0.00294245	   13.4848	   73.5613	
   13.3743	0.00289365	   13.3288	0.00296196	   13.3732	0.00295455	   13.3588	0.00293672	   13.3588	    73.418	
   13.2472	0.00288809	   13.2033	0.00295624	    13.246	0.00294816	   13.2322	0.00293083	   13.2322	   73.2708	
   13.1196	0.00288242	   13.0772	0.00295049	   13.1181	0.00294171	    13.105	0.00292487	    13.105	   73.1218	
   12.9913	0.00287669	   12.9507	0.00294462	   12.9898	0.00293518	   12.9773	0.00291883	   12.9773	   72.9707	
   12.8624	0.00287083	   12.8239	0.00293862	   12.8611	0.00292845	   12.8491	0.00291263	   12.8491	   72.8159	
   12.7331	0.00286484	   12.6966	0.00293257	   12.7318	0.00292164	   12.7205	0.00290635	   12.7205	   72.6588	
   12.6033	 0.0028588	   12.5689	0.00292634	   12.6018	0.00291474	   12.5913	0.00289996	   12.5913	    72.499	
   12.4734	 0.0028526	   12.4405	0.00292001	   12.4715	0.00290768	   12.4618	0.00289343	   12.4618	   72.3358	
   12.3431	0.00284629	   12.3117	0.00291359	   12.3405	0.00290053	   12.3318	 0.0028868	   12.3318	   72.1701	
   12.2123	0.00283992	   12.1823	0.00290699	    12.209	0.00289328	   12.2012	0.00288006	   12.2012	   72.0016	
   12.0812	0.00283344	   12.0525	0.00290021	    12.078	0.00288592	   12.0706	0.00287319	   12.0706	   71.8297	
   11.9497	 0.0028268	   11.9222	0.00289337	   11.9455	0.00287843	   11.9392	 0.0028662	   11.9392	    71.655	
   11.8176	0.00282009	   11.7916	0.00288643	    11.813	0.00287088	   11.8074	0.00285913	   11.8074	   71.4783	
   11.6852	0.00281326	   11.6606	 0.0028792	   11.6797	0.00286321	   11.6752	0.00285189	   11.6752	   71.2972	
   11.5524	0.00280619	    11.529	0.00287192	    11.546	0.00285545	   11.5425	0.00284452	   11.5425	    71.113	
   11.4192	0.00279911	   11.3968	0.00286465	    11.412	0.00284764	   11.4093	0.00283713	   11.4093	   70.9284	
   11.2856	0.00279193	   11.2642	0.00285708	   11.2776	0.00283955	   11.2758	0.00282952	   11.2758	    70.738	
   11.1516	0.00278453	    11.131	 0.0028494	   11.1428	0.00283151	   11.1418	0.00282181	   11.1418	   70.5454	
   11.0169	0.00277713	   10.9972	0.00284169	   11.0077	0.00282329	   11.0073	0.00281404	   11.0073	   70.3509	
   10.8818	0.00276967	   10.8631	0.00283372	   10.8733	0.00281494	   10.8727	0.00280611	   10.8727	   70.1527	
   10.7463	0.00276194	   10.7286	0.00282558	   10.7373	0.00280656	   10.7374	0.00279802	   10.7374	   69.9506	
   10.6101	0.00275413	   10.5938	 0.0028174	   10.6014	0.00279804	   10.6018	0.00278986	   10.6018	   69.7464	
   10.4737	0.00274627	   10.4584	  0.002809	   10.4649	0.00278933	   10.4657	0.00278153	   10.4657	   69.5383	
   10.3368	 0.0027382	   10.3228	0.00280045	   10.3279	0.00278057	   10.3292	0.00277307	   10.3292	   69.3268	
   10.1996	0.00273004	   10.1868	 0.0027918	   10.1905	0.00277183	   10.1923	0.00276456	   10.1923	   69.1139	
   10.0618	0.00272176	   10.0503	0.00278294	   10.0527	0.00276269	   10.0549	 0.0027558	   10.0549	    68.895	
   9.92365	 0.0027133	   9.91354	0.00277391	   9.91439	0.00275356	   9.91719	0.00274692	   9.91719	   68.6731	
   9.78517	0.00270464	   9.77615	0.00276478	   9.77586	0.00274446	   9.77906	0.00273796	   9.77906	    68.449	
   9.64641	0.00269592	   9.63833	 0.0027554	   9.63699	0.00273499	   9.64058	0.00272877	   9.64058	   68.2192	
   9.50702	0.00268697	   9.49999	0.00274581	   9.49791	 0.0027255	   9.50164	0.00271943	   9.50164	   67.9856	
   9.36725	0.00267788	   9.36124	0.00273602	   9.35848	0.00271601	   9.36232	0.00270997	   9.36232	   67.7493	
   9.22716	0.00266865	   9.22208	0.00272609	   9.21862	0.00270618	   9.22262	0.00270031	   9.22262	   67.5076	
   9.08659	0.00265918	   9.08267	0.00271593	   9.07869	0.00269631	   9.08265	0.00269047	   9.08265	   67.2618	
    8.9458	0.00264954	   8.94279	0.00270556	   8.93857	0.00268639	   8.94238	 0.0026805	   8.94238	   67.0124	
   8.80444	0.00263972	   8.80233	  0.002695	   8.79833	0.00267617	    8.8017	 0.0026703	    8.8017	   66.7575	
   8.66296	0.00262968	   8.66135	0.00268419	   8.65754	0.00266585	   8.66062	0.00265991	   8.66062	   66.4977	
   8.52102	0.00261945	   8.51996	0.00267315	   8.51632	0.00265545	    8.5191	0.00264935	    8.5191	   66.2337	
   8.37862	0.00260893	   8.37819	0.00266191	   8.37513	0.00264477	   8.37731	0.00263854	   8.37731	   65.9634	
   8.23601	 0.0025983	   8.23599	0.00265038	   8.23371	0.00263399	   8.23524	0.00262756	   8.23524	   65.6889	
   8.09333	0.00258745	   8.09362	0.00263863	    8.0921	 0.0026231	   8.09302	0.00261639	   8.09302	   65.4098	
   7.95029	0.00257636	    7.9507	0.00262667	   7.95011	0.00261183	   7.95037	0.00260495	   7.95037	   65.1239	
   7.80679	0.00256505	   7.80759	0.00261438	   7.80766	0.00260048	   7.80735	 0.0025933	   7.80735	   64.8325	
    7.6629	 0.0025535	   7.66415	0.00260176	   7.66475	0.00258901	   7.66393	0.00258142	   7.66393	   64.5356	
   7.51845	0.00254171	   7.52053	0.00258899	   7.52152	0.00257707	   7.52017	0.00256926	   7.52017	   64.2314	
   7.37375	0.00252967	   7.37686	0.00257591	   7.37746	0.00256506	   7.37602	0.00255688	   7.37602	    63.922	
   7.22885	0.00251737	   7.23293	 0.0025625	   7.23358	0.00255289	   7.23179	0.00254425	   7.23179	   63.6062	
   7.08415	0.00250482	   7.08895	0.00254891	   7.08943	0.00254028	   7.08751	0.00253134	   7.08751	   63.2835	
   6.93871	0.00249198	   6.94461	0.00253499	   6.94504	0.00252751	   6.94278	0.00251816	   6.94278	   62.9539	
   6.79341	0.00247887	   6.79997	0.00252079	   6.80034	0.00251453	    6.7979	0.00250473	    6.7979	   62.6182	
   6.64757	0.00246552	   6.65487	0.00250635	   6.65547	 0.0025011	   6.65264	0.00249099	   6.65264	   62.2748	
   6.50173	 0.0024519	   6.50954	0.00249158	   6.51022	0.00248749	   6.50717	0.00247699	   6.50717	   61.9248	
   6.35582	0.00243804	   6.36373	 0.0024765	   6.36471	 0.0024736	   6.36142	0.00246272	   6.36142	   61.5679	
   6.21015	0.00242375	    6.2171	0.00246117	   6.21908	0.00245937	   6.21545	 0.0024481	   6.21545	   61.2025	
   6.06458	0.00240927	   6.07091	0.00244554	   6.07312	0.00244492	   6.06953	0.00243324	   6.06953	   60.8311	
   5.91865	0.00239448	   5.92429	0.00242956	   5.92681	0.00243016	   5.92325	0.00241806	   5.92325	   60.4516	
    5.7722	0.00237927	   5.77743	0.00241331	   5.78007	0.00241504	   5.77657	0.00240254	   5.77657	   60.0635	
   5.62554	0.00236383	   5.63047	0.00239671	   5.63288	0.00239966	   5.62963	0.00238673	   5.62963	   59.6683	
   5.47831	0.00234807	   5.48345	0.00237975	   5.48522	 0.0023839	   5.48233	0.00237058	   5.48233	   59.2644	
   5.33092	0.00233189	   5.33629	0.00236252	    5.3373	0.00236772	   5.33483	0.00235404	   5.33483	   58.8511	
   5.18345	0.00231547	   5.18905	0.00234494	   5.18922	0.00235125	   5.18724	0.00233722	   5.18724	   58.4305	
   5.03548	0.00229871	   5.04141	0.00232698	   5.04087	0.00233444	   5.03925	0.00232005	   5.03925	   58.0012	
   4.88722	0.00228141	   4.89374	0.00230869	   4.89233	0.00231723	    4.8911	0.00230244	    4.8911	   57.5611	
   4.73916	0.00226402	   4.74561	0.00229003	    4.7434	0.00229955	   4.74272	0.00228453	   4.74272	   57.1133	
   4.59089	0.00224624	   4.59706	0.00227097	   4.59391	0.00228159	   4.59395	0.00226626	   4.59395	   56.6566	
   4.44238	0.00222786	   4.44812	0.00225152	   4.44424	0.00226322	   4.44491	0.00224753	   4.44491	   56.1883	
   4.29349	0.00220935	   4.29891	0.00223174	   4.29447	0.00224434	   4.29562	0.00222848	   4.29562	   55.7119	
   4.14435	0.00219043	   4.14968	0.00221147	   4.14467	0.00222509	   4.14623	0.00220899	   4.14623	   55.2249	
   3.99526	0.00217097	   4.00027	0.00219084	   3.99493	0.00220545	   3.99682	0.00218908	   3.99682	   54.7271	
   3.84634	 0.0021512	   3.85072	0.00216983	   3.84513	0.00218529	    3.8474	0.00216877	    3.8474	   54.2193	
   3.69726	0.00213109	   3.70114	0.00214833	   3.69539	0.00216469	   3.69793	0.00214804	   3.69793	   53.7009	
   3.54799	0.00211046	   3.55125	0.00212644	    3.5456	0.00214371	   3.54828	0.00212687	   3.54828	   53.1718	
    3.3985	0.00208945	   3.40092	0.00210412	   3.39585	 0.0021222	   3.39842	0.00210526	   3.39842	   52.6315	
   3.24869	  0.002068	   3.25036	0.00208131	   3.24594	0.00210023	   3.24833	0.00208318	   3.24833	   52.0794	
   3.09916	0.00204606	   3.09974	0.00205806	   3.09605	0.00207784	   3.09831	0.00206065	   3.09831	   51.5163	
    2.9494	0.00202373	   2.94951	0.00203435	   2.94617	 0.0020549	   2.94836	0.00203766	   2.94836	   50.9415	
   2.79949	0.00200091	   2.79919	0.00201014	   2.79593	0.00203147	   2.79821	0.00201417	   2.79821	   50.3543	
   2.64984	0.00197758	   2.64883	0.00198542	    2.6457	0.00200753	   2.64812	0.00199018	   2.64812	   49.7544	
   2.50012	0.00195377	   2.49826	0.00196032	   2.49555	0.00198313	   2.49798	0.00196574	   2.49798	   49.1436	
   2.35045	 0.0019295	   2.34737	0.00193462	   2.34528	0.00195817	    2.3477	0.00194076	    2.3477	    48.519	
   2.20074	0.00190464	   2.19621	0.00190845	   2.19498	0.00193267	   2.19731	0.00191525	   2.19731	   47.8813	
   2.05111	0.00187933	     2.045	0.00188183	   2.04438	0.00190668	   2.04683	0.00188928	   2.04683	   47.2319	
    1.9015	0.00185362	   1.89351	0.00185457	   1.89349	 0.0018801	   1.89617	0.00186276	   1.89617	   46.5691	
   1.75198	0.00182718	   1.74191	0.00182685	   1.74248	0.00185295	   1.74546	0.00183566	   1.74546	   45.8915	
    1.6022	 0.0018003	   1.59017	0.00179862	   1.59144	0.00182528	    1.5946	0.00180807	    1.5946	   45.2017	
    1.4524	0.00177309	   1.43824	0.00176977	   1.44049	0.00179701	   1.44371	0.00177996	   1.44371	    44.499	
   1.30257	0.00174512	   1.28616	0.00174033	   1.28965	0.00176821	   1.29279	0.00175122	   1.29279	   43.7805	
   1.15252	0.00171666	   1.13422	0.00171042	     1.139	0.00173879	   1.14191	0.00172196	   1.14191	   43.0489	
   1.00246	0.00168787	  0.982021	   0.00168	  0.988197	 0.0017088	  0.990892	0.00169222	  0.990892	   42.3055	
  0.852153	0.00165824	  0.830073	0.00164888	  0.837357	0.00167819	  0.839861	0.00166177	  0.839861	   41.5443	
  0.701532	0.00162809	  0.677995	 0.0016173	  0.686496	0.00164684	  0.688674	0.00163074	  0.688674	   40.7686	
  0.550909	 0.0015976	  0.525792	0.00158518	  0.535544	0.00161503	  0.537415	0.00159927	  0.537415	   39.9817	
  0.400071	0.00156631	  0.373516	0.00155238	  0.384664	0.00158267	  0.386084	0.00156712	  0.386084	    39.178	
  0.249358	0.00153448	  0.221436	0.00151908	  0.234046	0.00154953	  0.234947	0.00153437	  0.234947	   38.3591	
 0.0985711	0.00150226	 0.0695311	0.00148526	 0.0834798	0.00151588	 0.0838607	0.00150113	 0.0838607	   37.5284	
-0.0520631	0.00146926	 -0.082544	0.00145078	-0.0671902	0.00148166	-0.0672658	0.00146723	-0.0672658	   36.6808	
 -0.202912	 0.0014357	 -0.234754	0.00141578	 -0.217939	0.00144671	 -0.218535	0.00143273	 -0.218535	   35.8182	
 -0.353844	0.00140168	 -0.387093	0.00138023	 -0.368891	 0.0014112	 -0.369943	 0.0013977	 -0.369943	   34.9426	
 -0.505073	0.00136688	 -0.539507	0.00134406	 -0.519999	0.00137518	 -0.521527	0.00136204	 -0.521527	    34.051	
 -0.656429	0.00133154	 -0.691671	0.00130735	 -0.671355	0.00133841	 -0.673151	0.00132577	 -0.673151	   33.1442	
 -0.807843	0.00129566	 -0.843666	0.00127011	 -0.822638	0.00130105	 -0.824716	0.00128894	 -0.824716	   32.2235	
 -0.959217	0.00125909	 -0.995335	0.00123229	  -0.97369	0.00126317	 -0.976081	0.00125151	 -0.976081	   31.2879	
  -1.11041	0.00122193	  -1.14749	0.00119386	  -1.12489	0.00122449	   -1.1276	0.00121343	   -1.1276	   30.3357	
  -1.26146	0.00118423	  -1.29972	 0.0011549	  -1.27629	0.00118532	  -1.27916	0.00117482	  -1.27916	   29.3704	
  -1.41257	0.00114586	  -1.45156	0.00111538	  -1.42797	 0.0011456	   -1.4307	0.00113562	   -1.4307	   28.3904	
  -1.56354	0.00110691	  -1.60338	0.00107517	  -1.57952	0.00110513	  -1.58215	0.00109574	  -1.58215	   27.3934	
  -1.71464	0.00106739	  -1.75503	0.00103447	   -1.7312	0.00106414	  -1.73362	0.00105533	  -1.73362	   26.3834	
  -1.86582	0.00102723	  -1.90646	0.00099332	   -1.8827	 0.0010226	  -1.88499	0.00101438	  -1.88499	   25.3595	
  -2.01707	0.000986436	  -2.05787	0.000951479	  -2.03423	0.000980353	  -2.03639	0.000972756	  -2.03639	   24.3189	
    -2.168	0.000945131	  -2.20933	0.000909124	  -2.18607	0.000937597	   -2.1878	0.000930617	   -2.1878	   23.2654	
  -2.31905	0.000903222	  -2.36061	0.000866351	  -2.33781	0.000894318	  -2.33916	0.000887964	  -2.33916	   22.1991	
  -2.47013	0.000860745	  -2.51153	0.000822873	  -2.48919	0.000850399	  -2.49028	0.000844672	  -2.49028	   21.1168	
  -2.62075	0.000817839	   -2.6625	0.00077894	  -2.64037	0.000805973	  -2.64121	0.000800917	  -2.64121	   20.0229	
  -2.77142	0.000774271	  -2.81348	0.000734571	  -2.79132	0.000761091	  -2.79207	0.000756644	  -2.79207	   18.9161	
  -2.92186	0.000730141	  -2.96439	0.000689528	  -2.94237	0.000715619	  -2.94288	0.000711762	  -2.94288	   17.7941	
  -3.07224	0.00068563	  -3.11519	0.000644107	  -3.09345	0.000669639	  -3.09362	0.000666459	  -3.09362	   16.6615	
   -3.2225	0.000640495	  -3.26577	0.000598251	  -3.24413	0.000623243	  -3.24414	0.000620663	  -3.24414	   15.5166	
  -3.37267	0.000594847	   -3.4161	0.000551829	  -3.39465	0.00057629	  -3.39447	0.000574322	  -3.39447	    14.358	
  -3.52264	0.000548822	  -3.56657	0.000505048	  -3.54496	0.000528872	  -3.54472	0.00052758	  -3.54472	   13.1895	
  -3.67249	0.000502265	   -3.7172	0.000457885	  -3.69509	 0.0004811	  -3.69493	0.000480417	  -3.69493	   12.0104	
  -3.82238	0.000455201	  -3.86759	0.000410228	  -3.84495	0.00043287	  -3.84497	0.000432766	  -3.84497	   10.8192	
  -3.97236	0.000407843	  -4.01766	0.000362233	  -3.99481	0.000384231	  -3.99494	0.000384769	  -3.99494	   9.61922	
   -4.1222	0.000360073	  -4.16757	0.000313932	  -4.14469	0.000335301	  -4.14482	0.000336435	  -4.14482	   8.41088	
  -4.27174	0.000311708	  -4.31721	0.000265131	  -4.29471	0.000285979	  -4.29455	0.000287606	  -4.29455	   7.19015	
   -4.4212	0.000263173	  -4.46681	0.000216089	  -4.44457	0.000236345	  -4.44419	0.000238536	  -4.44419	    5.9634	
  -4.57072	0.000214284	  -4.61638	0.000166882	  -4.59404	0.00018646	  -4.59371	0.000189208	  -4.59371	   4.73021	
  -4.71981	0.000164934	  -4.76623	0.00011725	  -4.74353	0.000136159	  -4.74319	0.000139448	  -4.74319	   3.48619	
  -4.86841	0.000115413	  -4.91557	6.72305e-05	  -4.89264	8.56834e-05	  -4.89221	8.94423e-05	  -4.89221	   2.23606	
  -5.01669	6.56221e-05	  -5.06494	1.71579e-05	  -5.04171	3.50135e-05	  -5.04111	3.92645e-05	  -5.04111	  0.981612	
    -5.165	1.54671e-05	  -5.21386	-3.32565e-05	  -5.19075	-1.59625e-05	  -5.18987	-1.12506e-05	  -5.18987	 -0.281265	
  -5.31298	-3.48146e-05	   -5.3622	-8.40022e-05	   -5.3396	-6.70658e-05	  -5.33826	-6.19609e-05	  -5.33826	  -1.54902	
    -5.461	-8.52864e-05	  -5.51012	-0.000134713	  -5.48811	-0.000118284	  -5.48641	-0.000112761	  -5.48641	  -2.81903	
  -5.60894	-0.000136021	  -5.65795	-0.000185575	  -5.63637	-0.0001697	  -5.63442	-0.000163765	  -5.63442	  -4.09413	
  -5.75687	-0.000186735	  -5.80558	-0.000236784	  -5.78426	-0.000221181	  -5.78224	-0.0002149	  -5.78224	   -5.3725	
  -5.90452	-0.000237635	  -5.95304	-0.0002879	  -5.93187	-0.000272698	  -5.92981	-0.000266078	  -5.92981	  -6.65194	
  -6.05211	-0.000288675	      -6.1	-0.000339138	  -6.07931	-0.00032433	  -6.07714	-0.000317381	  -6.07714	  -7.93452	
  -6.19942	-0.00033966	  -6.24679	-0.00039059	  -6.22667	-0.000375861	  -6.22429	-0.000368704	  -6.22429	  -9.21759	
  -6.34642	-0.000390706	  -6.39328	-0.000441936	  -6.37386	-0.000427384	  -6.37119	-0.000420008	  -6.37119	  -10.5002	
  -6.49318	-0.000441747	  -6.53962	-0.000493276	  -6.52067	-0.000479001	  -6.51782	-0.000471341	  -6.51782	  -11.7835	
  -6.63967	-0.0004927	  -6.68558	-0.000544696	  -6.66733	-0.000530441	   -6.6642	-0.000522612	   -6.6642	  -13.0653	
  -6.78592	-0.000543611	  -6.83115	-0.000595973	   -6.8137	-0.000581812	  -6.81026	-0.000573799	  -6.81026	   -14.345	
  -6.93182	-0.000594464	  -6.97659	-0.000647136	     -6.96	-0.00063307	  -6.95614	-0.00062489	  -6.95614	  -15.6222	
   -7.0776	-0.000645097	  -7.12169	-0.000698271	  -7.10615	-0.000684122	  -7.10181	-0.00067583	  -7.10181	  -16.8958	
  -7.22333	-0.000695626	  -7.26668	-0.000749205	  -7.25205	-0.000734998	  -7.24735	-0.00072661	  -7.24735	  -18.1652	
  -7.36876	-0.000745997	  -7.41123	-0.00079992	  -7.39752	-0.000785687	   -7.3925	-0.000777201	   -7.3925	    -19.43	
  -7.51418	-0.000796086	  -7.55562	-0.000850498	  -7.54249	-0.000836097	  -7.53743	-0.00082756	  -7.53743	   -20.689	
   -7.6593	-0.000845939	  -7.69977	-0.000900814	  -7.68714	-0.000886233	  -7.68207	-0.000877662	  -7.68207	  -21.9415	
  -7.80376	-0.000895655	  -7.84342	-0.000950779	  -7.83111	-0.000936078	  -7.82609	-0.000927504	  -7.82609	  -23.1876	
  -7.94784	-0.000944919	  -7.98657	-0.00100052	  -7.97469	-0.000985556	   -7.9697	-0.000976999	   -7.9697	   -24.425	
  -8.09161	-0.000993848	  -8.12952	-0.0010499	  -8.11784	-0.00103472	  -8.11299	-0.00102615	  -8.11299	  -25.6538	
  -8.23489	-0.00104255	  -8.27216	-0.0010989	   -8.2606	-0.00108349	  -8.25588	-0.00107498	  -8.25588	  -26.8745	
  -8.37767	-0.00109071	  -8.41425	-0.00114753	  -8.40324	-0.00113182	  -8.39839	-0.00112335	  -8.39839	  -28.0838	
  -8.52018	-0.00113844	  -8.55615	-0.00119575	   -8.5455	-0.00117972	  -8.54061	-0.0011713	  -8.54061	  -29.2826	
  -8.66234	-0.00118583	   -8.6977	-0.00124352	   -8.6872	-0.00122715	  -8.68241	-0.00121883	  -8.68241	  -30.4707	
  -8.80439	-0.00123265	  -8.83898	-0.00129083	  -8.82854	-0.00127405	  -8.82397	-0.00126584	  -8.82397	  -31.6461	
  -8.94597	-0.00127895	  -8.97987	-0.00133764	  -8.96924	-0.00132046	  -8.96503	-0.00131235	  -8.96503	  -32.8087	
  -9.08727	-0.0013248	  -9.12046	-0.00138387	  -9.10933	-0.00136629	  -9.10568	-0.00135832	  -9.10568	   -33.958	
  -9.22811	-0.00137006	  -9.26055	-0.00142966	  -9.24824	-0.00141152	  -9.24563	-0.00140375	  -9.24563	  -35.0937	
  -9.36851	-0.00141477	  -9.40036	-0.00147481	  -9.38816	-0.0014563	  -9.38568	-0.00144863	  -9.38568	  -36.2157	
  -9.50869	-0.00145893	  -9.53984	-0.00151938	  -9.52684	-0.00150038	  -9.52512	-0.0014929	  -9.52512	  -37.3224	
  -9.64845	-0.00150243	  -9.67889	-0.00156339	  -9.66539	-0.00154375	  -9.66424	-0.00153652	  -9.66424	  -38.4131	
    -9.788	-0.00154534	  -9.81763	-0.00160677	  -9.80299	-0.00158662	  -9.80287	-0.00157958	  -9.80287	  -39.4894	
  -9.92753	-0.00158764	  -9.95615	-0.00164948	  -9.94055	-0.00162858	  -9.94141	-0.0016219	  -9.94141	  -40.5475	
  -10.0667	-0.00162922	  -10.0944	-0.0016915	  -10.0774	-0.00166997	  -10.0795	-0.00166356	  -10.0795	   -41.589	
  -10.2055	-0.00167021	   -10.232	-0.00173293	   -10.214	-0.00171075	  -10.2172	-0.00170463	  -10.2172	  -42.6157	
  -10.3439	-0.00171057	  -10.3691	-0.00177357	    -10.35	-0.00175076	  -10.3543	-0.00174497	  -10.3543	  -43.6242	
  -10.4818	-0.00175016	   -10.506	-0.00181361	  -10.4858	-0.00178999	  -10.4912	-0.00178459	  -10.4912	  -44.6147	
  -10.6194	-0.00178906	  -10.6424	-0.00185293	  -10.6213	-0.00182858	  -10.6277	-0.00182353	  -10.6277	  -45.5881	
  -10.7564	-0.00182735	  -10.7783	-0.00189147	  -10.7565	-0.00186639	  -10.7637	-0.00186173	  -10.7637	  -46.5434	
  -10.8928	-0.00186482	  -10.9136	-0.00192937	  -10.8914	-0.0019034	  -10.8993	-0.00189919	  -10.8993	  -47.4799	
  -11.0284	-0.00190156	  -11.0485	-0.0019665	  -11.0257	-0.00193973	  -11.0342	-0.00193593	  -11.0342	  -48.3982	
  -11.1636	-0.00193765	  -11.1828	-0.00200285	  -11.1596	-0.00197527	  -11.1687	-0.00197192	  -11.1687	  -49.2981	
  -11.2984	-0.00197295	  -11.3168	-0.00203849	  -11.2933	-0.00200997	  -11.3028	-0.00200714	  -11.3028	  -50.1784	
  -11.4328	-0.00200748	  -11.4495	-0.00207337	  -11.4265	-0.00204396	  -11.4363	-0.0020416	  -11.4363	  -51.0401	
  -11.5667	-0.00204141	  -11.5825	-0.00210745	  -11.5593	-0.00207722	  -11.5695	-0.00207536	  -11.5695	   -51.884	
  -11.7003	-0.00207459	  -11.7147	-0.00214081	  -11.6917	-0.00210963	  -11.7022	-0.00210834	  -11.7022	  -52.7085	
  -11.8334	-0.00210691	  -11.8468	-0.00217339	  -11.8237	-0.00214133	  -11.8346	-0.00214054	  -11.8346	  -53.5136	
  -11.9661	-0.00213859	  -11.9784	-0.00220517	  -11.9552	-0.00217231	  -11.9666	-0.00217203	  -11.9666	  -54.3006	
   -12.098	-0.00216951	  -12.1095	-0.00223612	  -12.0865	-0.00220251	   -12.098	-0.00220271	   -12.098	  -55.0679	
  -12.2296	-0.00219961	  -12.2402	-0.00226644	  -12.2172	-0.00223192	   -12.229	-0.00223266	   -12.229	  -55.8164	
  -12.3607	-0.00222913	  -12.3703	-0.0022959	  -12.3474	-0.00226062	  -12.3595	-0.00226188	  -12.3595	   -56.547	
  -12.4913	-0.00225789	  -12.4998	-0.0023245	  -12.4774	-0.00228852	  -12.4895	-0.0022903	  -12.4895	  -57.2576	
  -12.6212	-0.00228585	  -12.6285	-0.00235253	   -12.607	-0.0023156	  -12.6189	-0.00231799	  -12.6189	  -57.9498	
  -12.7505	-0.00231319	  -12.7569	-0.00237967	  -12.7362	-0.00234209	  -12.7479	-0.00234498	  -12.7479	  -58.6245	
  -12.8796	-0.00233982	  -12.8847	-0.00240599	  -12.8652	-0.00236779	  -12.8765	-0.0023712	  -12.8765	    -59.28	
   -13.008	-0.00236569	  -13.0118	-0.00243171	  -12.9934	-0.00239269	  -13.0044	-0.0023967	  -13.0044	  -59.9174	
   -13.136	-0.0023909	  -13.1383	-0.00245666	   -13.121	-0.00241703	  -13.1318	-0.00242153	  -13.1318	  -60.5383	
  -13.2633	-0.00241545	  -13.2643	-0.00248082	  -13.2482	-0.00244066	  -13.2586	-0.00244564	  -13.2586	  -61.1411	
  -13.3903	-0.00243921	  -13.3897	-0.00250439	  -13.3746	-0.00246352	  -13.3848	-0.00246904	  -13.3848	   -61.726	
  -13.5166	-0.00246231	  -13.5147	-0.0025272	  -13.5003	-0.00248577	  -13.5106	-0.00249176	  -13.5106	   -62.294	
  -13.6424	-0.00248475	  -13.6392	-0.00254928	  -13.6257	-0.00250735	  -13.6358	-0.00251379	  -13.6358	  -62.8448	
  -13.7674	-0.00250653	  -13.7631	-0.00257079	  -13.7507	-0.00252822	  -13.7604	-0.00253518	  -13.7604	  -63.3795	
  -13.8916	-0.00252764	  -13.8865	-0.00259156	   -13.875	-0.00254849	  -13.8844	-0.0025559	  -13.8844	  -63.8974	
  -14.0155	-0.00254815	  -14.0095	-0.00261166	   -13.999	-0.00256815	   -14.008	-0.00257599	   -14.008	  -64.3997	
  -14.1391	-0.00256801	  -14.1319	-0.00263118	  -14.1222	-0.00258717	  -14.1311	-0.00259545	  -14.1311	  -64.8864	
  -14.2618	-0.00258722	  -14.2533	-0.00265006	  -14.2447	-0.0026056	  -14.2533	-0.00261429	  -14.2533	  -65.3573	
  -14.3839	-0.00260581	  -14.3742	-0.00266828	  -14.3666	-0.00262349	  -14.3749	-0.00263253	  -14.3749	  -65.8132	
  -14.5055	-0.00262375	  -14.4948	-0.00268595	  -14.4879	-0.0026408	   -14.496	-0.00265017	   -14.496	  -66.2542	
  -14.6264	-0.00264122	  -14.6146	-0.00270302	  -14.6085	-0.00265742	  -14.6165	-0.00266722	  -14.6165	  -66.6805	
  -14.7467	-0.00265806	  -14.7344	-0.00271946	  -14.7287	-0.00267345	  -14.7366	-0.00268366	  -14.7366	  -67.0914	
  -14.8662	-0.00267427	  -14.8537	-0.0027355	  -14.8485	-0.00268912	  -14.8561	-0.00269963	  -14.8561	  -67.4907	
  -14.9849	-0.00269012	  -14.9722	-0.00275096	  -14.9677	-0.00270413	  -14.9749	-0.00271507	  -14.9749	  -67.8767	
  -15.1027	-0.00270536	  -15.0904	-0.00276577	  -15.0862	-0.0027186	  -15.0931	-0.00272991	  -15.0931	  -68.2477	
  -15.2199	-0.00272008	  -15.2081	-0.00278023	   -15.204	-0.0027327	  -15.2106	-0.00274434	  -15.2106	  -68.6084	
  -15.3364	-0.0027343	  -15.3248	-0.00279415	  -15.3214	-0.00274618	  -15.3275	-0.00275821	  -15.3275	  -68.9553	
  -15.4523	-0.0027482	  -15.4409	-0.00280749	  -15.4381	-0.00275915	  -15.4438	-0.00277161	  -15.4438	  -69.2903	
  -15.5675	-0.00276153	  -15.5564	-0.00282054	  -15.5544	-0.00277187	  -15.5595	-0.00278465	  -15.5595	  -69.6162	
  -15.6823	-0.00277437	  -15.6711	-0.00283304	    -15.67	-0.00278403	  -15.6745	-0.00279714	  -15.6745	  -69.9286	
  -15.7968	-0.00278689	  -15.7852	-0.00284503	  -15.7849	-0.00279569	   -15.789	-0.0028092	   -15.789	  -70.2301	
   -15.911	-0.00279895	  -15.8986	-0.00285672	  -15.8991	-0.0028071	  -15.9029	-0.00282093	  -15.9029	  -70.5231	
  -16.0244	-0.00281053	  -16.0114	-0.00286792	  -16.0124	 -0.002818	  -16.0161	-0.00283215	  -16.0161	  -70.8037	
  -16.1374	-0.00282176	  -16.1235	-0.00287867	  -16.1252	-0.00282846	  -16.1287	-0.00284296	  -16.1287	  -71.0741	
  -16.2497	-0.00283263	   -16.235	-0.00288913	  -16.2375	-0.00283866	  -16.2407	-0.00285347	  -16.2407	  -71.3368	
  -16.3614	-0.00284306	  -16.3461	-0.00289916	   -16.349	-0.00284844	  -16.3521	-0.00286355	  -16.3521	  -71.5888	
  -16.4722	-0.00285318	  -16.4565	-0.00290883	  -16.4599	-0.00285783	  -16.4629	-0.00287328	  -16.4629	   -71.832	
  -16.5825	-0.00286297	  -16.5666	-0.00291821	  -16.5703	-0.00286698	  -16.5731	-0.00288272	  -16.5731	   -72.068	
  -16.6922	-0.00287238	  -16.6759	-0.00292722	  -16.6801	-0.00287576	  -16.6827	-0.00289179	  -16.6827	  -72.2946	
  -16.8012	-0.00288149	  -16.7845	-0.00293589	  -16.7891	-0.0028842	  -16.7916	-0.00290052	  -16.7916	  -72.5131	
    -16.91	-0.00289024	  -16.8923	-0.00294429	  -16.8971	-0.0028924	  -16.8998	-0.00290898	  -16.8998	  -72.7244	
  -17.0178	-0.00289888	  -16.9995	-0.00295236	  -17.0046	-0.00290035	  -17.0073	-0.00291719	  -17.0073	  -72.9298	
  -17.1249	-0.0029071	  -17.1062	-0.00296012	  -17.1116	-0.00290792	  -17.1142	-0.00292505	  -17.1142	  -73.1261	
  -17.2312	-0.00291498	  -17.2124	-0.00296767	  -17.2178	-0.0029153	  -17.2205	-0.00293265	  -17.2205	  -73.3162	
  -17.3371	-0.00292273	  -17.3181	-0.00297492	   -17.323	-0.00292247	  -17.3261	-0.00294004	  -17.3261	   -73.501	
  -17.4423	-0.00293012	  -17.4233	-0.00298182	  -17.4273	-0.00292931	   -17.431	-0.00294708	   -17.431	  -73.6771	
  -17.5466	-0.00293718	  -17.5279	-0.00298857	   -17.531	-0.00293598	  -17.5352	-0.00295391	  -17.5352	  -73.8477	
  -17.6501	-0.00294417	  -17.6319	-0.00299506	  -17.6343	-0.00294266	  -17.6388	-0.00296063	  -17.6388	  -74.0157	
   -17.753	-0.00295082	  -17.7354	-0.00300128	  -17.7367	-0.00294881	  -17.7417	-0.00296697	  -17.7417	  -74.1742	
  -17.8553	-0.0029572	   -17.838	-0.00300732	  -17.8384	-0.00295483	  -17.8439	-0.00297311	  -17.8439	  -74.3278	
  -17.9567	-0.00296357	  -17.9397	-0.00301314	  -17.9395	-0.00296081	  -17.9453	-0.00297918	  -17.9453	  -74.4794	
  -18.0572	-0.00296963	  -18.0407	-0.00301875	    -18.04	-0.00296644	   -18.046	-0.00298494	   -18.046	  -74.6235	
  -18.1572	-0.00297544	   -18.141	-0.00302407	  -18.1398	-0.00297192	   -18.146	-0.00299048	   -18.146	   -74.762	
  -18.2564	-0.00298121	  -18.2406	-0.00302925	  -18.2386	-0.00297739	  -18.2452	-0.00299595	  -18.2452	  -74.8988	
  -18.3545	-0.0029867	  -18.3397	-0.00303436	   -18.337	-0.00298255	  -18.3438	-0.00300121	  -18.3438	  -75.0301	
  -18.4519	-0.00299205	  -18.4379	-0.00303919	  -18.4347	-0.00298757	  -18.4415	-0.00300627	  -18.4415	  -75.1568	
  -18.5484	-0.00299728	  -18.5354	-0.00304392	  -18.5315	-0.00299258	  -18.5384	-0.00301126	  -18.5384	  -75.2816	
   -18.644	-0.00300228	  -18.6321	-0.00304856	  -18.6277	-0.00299736	  -18.6346	-0.00301607	  -18.6346	  -75.4017	
  -18.7388	-0.00300718	  -18.7281	-0.00305297	  -18.7232	-0.00300192	    -18.73	-0.00302069	    -18.73	  -75.5173	
  -18.8329	-0.00301194	  -18.8231	-0.00305728	   -18.818	-0.00300647	  -18.8247	-0.00302523	  -18.8247	  -75.6308	
  -18.9264	-0.00301651	  -18.9173	-0.00306151	  -18.9121	-0.00301097	  -18.9186	-0.00302966	  -18.9186	  -75.7416	
  -19.0192	-0.00302098	  -19.0106	-0.00306557	  -19.0053	-0.00301521	  -19.0117	-0.00303392	  -19.0117	   -75.848	
  -19.1109	-0.00302533	   -19.103	-0.00306953	  -19.0977	-0.00301945	  -19.1039	-0.0030381	  -19.1039	  -75.9526	
  -19.2018	-0.00302954	  -19.1947	-0.00307342	  -19.1893	-0.00302363	  -19.1953	-0.0030422	  -19.1953	   -76.055	
   -19.292	-0.00303361	  -19.2856	-0.00307717	  -19.2801	-0.0030276	  -19.2859	-0.00304613	  -19.2859	  -76.1532	
  -19.3815	-0.00303764	   -19.376	-0.00308087	  -19.3697	-0.00303153	  -19.3757	-0.00305001	  -19.3757	  -76.2503	
    -19.47	-0.00304155	  -19.4656	-0.00308443	  -19.4589	-0.00303543	  -19.4648	-0.0030538	  -19.4648	  -76.3451	
  -19.5579	-0.0030453	  -19.5541	-0.00308789	  -19.5473	-0.00303917	  -19.5531	-0.00305745	  -19.5531	  -76.4364	
  -19.6451	-0.00304908	  -19.6425	-0.00309133	  -19.6351	-0.00304285	  -19.6409	-0.00306108	  -19.6409	  -76.5271	
  -19.7313	-0.00305269	  -19.7295	-0.00309463	  -19.7224	-0.00304652	  -19.7277	-0.00306461	  -19.7277	  -76.6153	
  -19.8168	-0.00305617	  -19.8161	-0.00309789	  -19.8087	-0.00305001	  -19.8139	-0.00306802	  -19.8139	  -76.7005	
  -19.9017	-0.00305965	  -19.9017	-0.00310104	  -19.8942	-0.00305344	  -19.8992	-0.00307138	  -19.8992	  -76.7844	
  -19.9857	 -0.003063	  -19.9865	-0.00310404	   -19.979	-0.00305689	  -19.9837	-0.00307464	  -19.9837	  -76.8661	
  -20.0689	-0.00306622	  -20.0704	-0.00310709	  -20.0631	-0.00306012	  -20.0675	-0.00307781	  -20.0675	  -76.9452	
  -20.1515	-0.00306946	  -20.1537	-0.00310999	  -20.1466	-0.00306334	  -20.1506	-0.00308093	  -20.1506	  -77.0232	
  -20.2335	-0.00307262	  -20.2363	-0.00311282	  -20.2291	-0.00306652	   -20.233	-0.00308399	   -20.233	  -77.0996	
  -20.3149	-0.00307565	  -20.3181	-0.00311567	  -20.3109	-0.00306953	  -20.3146	-0.00308695	  -20.3146	  -77.1738	
  -20.3955	-0.00307867	   -20.399	-0.00311838	  -20.3918	-0.00307254	  -20.3954	-0.00308986	  -20.3954	  -77.2465	
  -20.4753	-0.00308162	   -20.479	-0.00312099	   -20.472	-0.00307554	  -20.4754	-0.00309272	  -20.4754	   -77.318	
   -20.554	-0.00308447	  -20.5581	-0.00312361	  -20.5514	-0.00307842	  -20.5545	-0.0030955	  -20.5545	  -77.3876	
  -20.6319	-0.00308734	  -20.6361	-0.00312612	  -20.6301	-0.00308128	  -20.6327	-0.00309825	  -20.6327	  -77.4562	
  -20.7089	-0.00309004	  -20.7135	-0.00312856	   -20.708	-0.00308413	  -20.7101	-0.00310091	  -20.7101	  -77.5228	
  -20.7849	-0.00309273	  -20.7899	 -0.003131	  -20.7848	-0.00308689	  -20.7866	-0.00310354	  -20.7866	  -77.5885	
  -20.8603	-0.00309545	  -20.8657	-0.00313334	  -20.8609	-0.00308959	  -20.8623	-0.00310613	  -20.8623	  -77.6532	
  -20.9347	 -0.003098	  -20.9408	-0.0031356	  -20.9359	-0.00309234	  -20.9371	-0.00310865	  -20.9371	  -77.7162	
  -21.0083	-0.00310055	  -21.0152	-0.00313783	    -21.01	-0.00309497	  -21.0112	-0.00311112	  -21.0112	   -77.778	
  -21.0814	-0.0031031	  -21.0887	-0.00313994	  -21.0836	-0.00309754	  -21.0846	-0.00311353	  -21.0846	  -77.8381	
  -21.1538	-0.00310552	  -21.1613	-0.00314214	  -21.1563	-0.00310015	  -21.1571	-0.00311594	  -21.1571	  -77.8985	
   -21.225	-0.00310792	   -21.233	-0.00314426	  -21.2282	-0.00310273	  -21.2287	-0.0031183	  -21.2287	  -77.9576	
  -21.2954	-0.00311032	  -21.3037	-0.00314622	  -21.2997	-0.00310523	  -21.2996	-0.00312059	  -21.2996	  -78.0147	
   -21.365	-0.00311262	  -21.3737	-0.00314826	  -21.3703	-0.00310776	  -21.3697	-0.00312288	  -21.3697	   -78.072	
  -21.4338	-0.00311488	  -21.4429	-0.00315024	  -21.4402	-0.00311023	   -21.439	-0.00312512	   -21.439	  -78.1279	
  -21.5018	-0.00311714	  -21.5114	-0.00315206	  -21.5094	-0.00311263	  -21.5075	-0.00312728	  -21.5075	  -78.1819	
  -21.5692	-0.00311935	  -21.5798	-0.0031539	  -21.5775	-0.00311502	  -21.5755	-0.00312942	  -21.5755	  -78.2356	
  -21.6357	-0.00312149	  -21.6467	-0.00315576	  -21.6451	-0.00311739	  -21.6425	-0.00313155	  -21.6425	  -78.2887	
  -21.7012	-0.0031237	  -21.7127	-0.00315748	  -21.7116	-0.00311967	  -21.7085	-0.00313362	  -21.7085	  -78.3404	
  -21.7659	-0.00312586	  -21.7779	-0.00315919	  -21.7773	-0.00312193	  -21.7737	-0.00313566	  -21.7737	  -78.3914	
  -21.8299	-0.0031279	  -21.8423	-0.0031608	  -21.8418	-0.00312417	   -21.838	-0.00313763	   -21.838	  -78.4406	
  -21.8931	-0.00313003	  -21.9056	-0.00316244	  -21.9052	-0.00312627	  -21.9013	-0.00313958	  -21.9013	  -78.4895	
  -21.9553	-0.0031321	  -21.9682	-0.00316398	  -21.9678	-0.00312842	  -21.9637	-0.0031415	  -21.9637	  -78.5375	
  -22.0166	-0.00313409	  -22.0299	-0.00316551	  -22.0298	-0.0031306	  -22.0254	-0.0031434	  -22.0254	   -78.585	
  -22.0768	-0.00313612	  -22.0908	-0.00316701	  -22.0909	-0.00313259	  -22.0862	-0.00314524	  -22.0862	   -78.631	
  -22.1362	-0.0031381	  -22.1508	-0.00316843	  -22.1511	-0.00313467	   -22.146	-0.00314707	   -22.146	  -78.6766	
  -22.1948	  -0.00314	  -22.2098	-0.00316983	  -22.2104	-0.00313667	   -22.205	-0.00314883	   -22.205	  -78.7209	
  -22.2527	-0.0031419	  -22.2678	-0.0031712	  -22.2685	-0.00313859	   -22.263	-0.00315056	   -22.263	   -78.764	
  -22.3097	-0.00314378	  -22.3247	-0.00317252	  -22.3257	-0.00314056	    -22.32	-0.00315229	    -22.32	  -78.8071	
  -22.3659	-0.00314568	  -22.3808	-0.0031738	  -22.3821	-0.00314246	  -22.3762	-0.00315398	  -22.3762	  -78.8496	
  -22.4212	-0.00314751	  -22.4358	-0.00317508	  -22.4376	-0.0031443	  -22.4315	-0.00315563	  -22.4315	  -78.8907	
  -22.4761	-0.0031493	  -22.4903	-0.00317631	  -22.4924	-0.00314618	  -22.4863	-0.00315726	  -22.4863	  -78.9316	
    -22.53	-0.00315113	  -22.5436	-0.0031775	  -22.5466	-0.00314802	  -22.5401	-0.00315888	  -22.5401	   -78.972	
   -22.583	-0.00315288	  -22.5961	-0.00317868	  -22.5999	-0.00314973	   -22.593	-0.00316043	   -22.593	  -79.0107	
  -22.6354	-0.00315458	   -22.648	-0.00317987	  -22.6524	-0.00315155	  -22.6453	 -0.003162	  -22.6453	    -79.05	
  -22.6868	-0.00315628	   -22.699	-0.00318098	  -22.7042	-0.00315335	  -22.6966	-0.00316354	  -22.6966	  -79.0885	
  -22.7375	-0.00315795	  -22.7492	-0.00318212	   -22.755	-0.00315507	  -22.7472	-0.00316505	  -22.7472	  -79.1262	
  -22.7871	-0.00315956	  -22.7986	-0.00318328	   -22.805	-0.00315684	  -22.7969	-0.00316656	  -22.7969	   -79.164	
   -22.836	-0.00316119	  -22.8468	-0.00318435	  -22.8542	-0.00315853	  -22.8457	-0.00316802	  -22.8457	  -79.2006	
  -22.8842	-0.00316278	  -22.8942	-0.00318544	  -22.9026	-0.00316016	  -22.8937	-0.00316946	  -22.8937	  -79.2365	
  -22.9312	-0.00316432	  -22.9406	-0.00318653	  -22.9501	-0.00316183	  -22.9406	-0.00317089	  -22.9406	  -79.2722	
  -22.9773	-0.00316587	   -22.986	-0.00318753	  -22.9968	-0.00316343	  -22.9867	-0.00317228	  -22.9867	  -79.3069	
  -23.0226	-0.00316736	  -23.0302	-0.00318852	  -23.0426	-0.00316499	  -23.0318	-0.00317362	  -23.0318	  -79.3406	
  -23.0671	-0.00316888	  -23.0733	-0.0031896	  -23.0876	-0.00316655	   -23.076	-0.00317501	   -23.076	  -79.3752	
  -23.1107	-0.00317031	  -23.1156	-0.00319059	  -23.1312	-0.00316802	  -23.1192	-0.00317631	  -23.1192	  -79.4076	
  -23.1534	-0.00317168	   -23.157	-0.00319153	  -23.1747	-0.00316952	  -23.1617	-0.00317757	  -23.1617	  -79.4393	
   -23.195	-0.00317311	  -23.1975	-0.00319252	  -23.2173	-0.00317095	  -23.2033	-0.00317886	  -23.2033	  -79.4715	
  -23.2357	-0.00317444	  -23.2371	-0.0031935	   -23.259	-0.00317232	   -23.244	-0.00318009	   -23.244	  -79.5022	
  -23.2753	-0.0031757	  -23.2756	-0.00319442	  -23.2988	-0.00317379	  -23.2832	-0.0031813	  -23.2832	  -79.5325	
  -23.3136	-0.00317698	  -23.3133	-0.00319538	  -23.3389	-0.0031751	  -23.3219	-0.00318249	  -23.3219	  -79.5622	
  -23.3502	-0.0031782	    -23.35	-0.00319639	  -23.3777	-0.00317638	  -23.3593	-0.00318366	  -23.3593	  -79.5914	
  -23.3866	-0.00317929	   -23.386	-0.00319731	  -23.4153	-0.00317773	   -23.396	-0.00318478	   -23.396	  -79.6195	
  -23.4217	-0.0031804	  -23.4211	-0.00319827	   -23.452	-0.00317904	  -23.4316	-0.0031859	  -23.4316	  -79.6476	
  -23.4559	-0.00318154	  -23.4552	-0.00319924	  -23.4876	-0.00318014	  -23.4662	-0.00318697	  -23.4662	  -79.6743	
  -23.4891	-0.0031826	  -23.4882	-0.00320013	  -23.5222	-0.00318144	  -23.4998	-0.00318806	  -23.4998	  -79.7014	
  -23.5213	-0.00318351	  -23.5203	-0.00320104	  -23.5558	-0.00318272	  -23.5325	-0.00318909	  -23.5325	  -79.7273	
  -23.5524	-0.0031845	  -23.5516	-0.00320196	  -23.5882	-0.00318384	   -23.564	-0.0031901	   -23.564	  -79.7526	
  -23.5825	-0.00318539	   -23.582	-0.00320282	  -23.6197	-0.0031851	  -23.5947	-0.00319111	  -23.5947	  -79.7776	
  -23.6117	-0.00318617	  -23.6115	-0.00320369	  -23.6502	-0.00318634	  -23.6245	-0.00319207	  -23.6245	  -79.8018	
  -23.6399	-0.00318701	  -23.6404	-0.00320453	  -23.6797	-0.00318747	  -23.6533	 -0.003193	  -23.6533	  -79.8251	
  -23.6671	-0.0031878	  -23.6682	-0.00320533	  -23.7083	-0.00318875	  -23.6812	-0.00319396	  -23.6812	   -79.849	
  -23.6936	-0.0031885	  -23.6954	-0.00320618	   -23.736	-0.00318997	  -23.7083	-0.00319488	  -23.7083	  -79.8721	
  -23.7189	-0.00318925	  -23.7217	-0.00320699	  -23.7629	-0.00319105	  -23.7345	-0.00319576	  -23.7345	  -79.8941	
  -23.7434	-0.00318994	  -23.7467	-0.00320776	  -23.7888	-0.00319231	  -23.7596	-0.00319667	  -23.7596	  -79.9168	
  -23.7671	-0.00319051	  -23.7709	-0.00320857	  -23.8137	-0.00319348	  -23.7839	-0.00319752	  -23.7839	  -79.9379	
  -23.7899	-0.00319117	  -23.7942	-0.00320932	  -23.8375	-0.00319465	  -23.8072	-0.00319838	  -23.8072	  -79.9595	
  -23.8114	-0.00319178	  -23.8168	-0.00321009	  -23.8603	-0.00319588	  -23.8295	-0.00319925	  -23.8295	  -79.9813	
  -23.8319	-0.00319239	  -23.8386	-0.00321082	  -23.8821	-0.00319701	  -23.8508	-0.00320008	  -23.8508	  -80.0019	
  -23.8516	 -0.003193	  -23.8594	-0.00321153	  -23.9032	-0.00319815	  -23.8714	-0.00320089	  -23.8714	  -80.0223	
  -23.8706	-0.00319354	  -23.8792	-0.00321238	  -23.9234	-0.00319931	  -23.8911	-0.00320174	  -23.8911	  -80.0436	
  -23.8889	-0.00319413	  -23.8981	-0.00321308	  -23.9421	-0.00320043	  -23.9097	-0.00320255	  -23.9097	  -80.0637	
  -23.9064	-0.00319469	  -23.9156	-0.00321379	  -23.9599	-0.00320153	  -23.9273	-0.00320334	  -23.9273	  -80.0834	
  -23.9231	-0.00319526	   -23.932	-0.00321456	  -23.9766	-0.00320266	  -23.9439	-0.00320416	  -23.9439	  -80.1039	
  -23.9392	-0.00319585	  -23.9474	-0.00321524	  -23.9923	-0.00320371	  -23.9596	-0.00320493	  -23.9596	  -80.1233	
  -23.9545	-0.00319643	  -23.9619	-0.0032159	  -24.0077	-0.0032048	  -23.9747	-0.00320571	  -23.9747	  -80.1428	
  -23.9687	 -0.003197	  -23.9756	-0.00321658	  -24.0218	-0.00320588	  -23.9887	-0.00320649	  -23.9887	  -80.1621	
  -23.9817	-0.0031976	  -23.9887	-0.00321725	  -24.0352	-0.00320688	  -24.0019	-0.00320724	  -24.0019	  -80.1811	
  -23.9942	-0.00319815	   -24.001	-0.00321783	  -24.0473	-0.00320792	  -24.0142	-0.00320797	  -24.0142	  -80.1991	
  -24.0058	-0.00319872	  -24.0122	-0.00321845	  -24.0585	-0.00320901	  -24.0255	-0.00320873	  -24.0255	  -80.2181	
  -24.0162	-0.00319926	  -24.0225	-0.00321906	  -24.0684	-0.00320993	  -24.0357	-0.00320942	  -24.0357	  -80.2354	
  -24.0259	-0.00319975	   -24.032	-0.00321959	  -24.0774	-0.00321088	  -24.0451	-0.00321007	  -24.0451	  -80.2518	
   -24.035	-0.0032003	  -24.0403	-0.00322011	  -24.0855	-0.0032119	  -24.0536	-0.00321077	  -24.0536	  -80.2692	
  -24.0429	-0.00320079	  -24.0478	-0.0032207	  -24.0928	-0.00321267	  -24.0611	-0.00321139	  -24.0611	  -80.2847	
  -24.0503	-0.00320127	  -24.0543	-0.00322115	  -24.0989	-0.00321347	  -24.0679	-0.00321196	  -24.0679	  -80.2991	
  -24.0565	-0.00320178	  -24.0598	-0.00322159	  -24.1042	-0.00321433	  -24.0735	-0.00321257	  -24.0735	  -80.3142	
  -24.0617	-0.00320223	  -24.0646	-0.00322206	  -24.1088	-0.00321498	  -24.0784	-0.00321309	  -24.0784	  -80.3273	
  -24.0659	-0.0032027	  -24.0684	-0.0032224	   -24.112	-0.00321563	  -24.0821	-0.00321358	  -24.0821	  -80.3394	
  -24.0694	-0.00320301	   -24.071	-0.00322273	  -24.1142	-0.00321633	  -24.0849	-0.00321402	  -24.0849	  -80.3505	
  -24.0718	-0.00320341	  -24.0725	-0.00322303	  -24.1156	-0.00321688	  -24.0866	-0.00321444	  -24.0866	   -80.361	
  -24.0731	-0.0032038	   -24.073	-0.00322328	   -24.116	-0.00321743	  -24.0873	-0.00321484	  -24.0873	  -80.3709	
  -24.0735	-0.00320399	  -24.0724	-0.00322349	  -24.1156	-0.00321792	  -24.0872	-0.00321514	  -24.0872	  -80.3784	
   -24.073	-0.00320431	  -24.0715	-0.00322369	  -24.1144	-0.0032184	  -24.0863	-0.00321547	  -24.0863	  -80.3867	
  -24.0716	-0.00320465	  -24.0693	-0.0032239	  -24.1123	-0.00321881	  -24.0844	-0.00321579	  -24.0844	  -80.3947	
  -24.0691	-0.00320493	  -24.0665	-0.00322399	  -24.1092	-0.00321923	  -24.0816	-0.00321605	  -24.0816	  -80.4012	
  -24.0658	-0.00320513	  -24.0624	-0.00322407	   -24.105	-0.00321964	  -24.0777	-0.00321628	  -24.0777	  -80.4069	
  -24.0618	-0.00320538	  -24.0573	-0.00322417	  -24.0999	-0.00321998	   -24.073	-0.00321651	   -24.073	  -80.4128	
  -24.0568	-0.00320553	  -24.0513	-0.00322415	  -24.0937	-0.00322032	  -24.0673	-0.00321667	  -24.0673	  -80.4167	
   -24.051	-0.00320563	  -24.0442	-0.00322407	  -24.0867	-0.00322066	  -24.0607	-0.00321679	  -24.0607	  -80.4197	
  -24.0444	-0.0032058	   -24.036	-0.00322407	  -24.0787	-0.00322093	   -24.053	-0.00321693	   -24.053	  -80.4233	
  -24.0368	-0.00320604	  -24.0267	-0.00322392	  -24.0698	-0.0032212	  -24.0444	-0.00321705	  -24.0444	  -80.4263	
  -24.0282	-0.00320605	  -24.0163	-0.00322371	  -24.0595	-0.00322145	  -24.0347	-0.00321707	  -24.0347	  -80.4267	
  -24.0187	-0.00320616	  -24.0048	-0.00322354	  -24.0482	-0.00322168	  -24.0239	-0.00321713	  -24.0239	  -80.4282	
  -24.0081	-0.00320631	  -23.9921	-0.00322327	  -24.0361	-0.00322181	  -24.0121	-0.00321713	  -24.0121	  -80.4282	
  -23.9964	-0.00320626	  -23.9785	-0.00322293	  -24.0226	-0.00322197	  -23.9992	-0.00321706	  -23.9992	  -80.4264	
  -23.9839	-0.00320631	  -23.9642	-0.00322261	  -24.0084	-0.00322191	  -23.9855	-0.00321694	  -23.9855	  -80.4236	
  -23.9704	-0.0032064	  -23.9487	-0.00322221	  -23.9932	-0.00322195	  -23.9708	-0.00321686	  -23.9708	  -80.4214	
  -23.9559	-0.00320635	  -23.9325	-0.00322176	  -23.9771	-0.00322194	  -23.9552	-0.00321668	  -23.9552	  -80.4171	
    -23.94	-0.00320634	  -23.9155	-0.00322136	    -23.96	-0.00322185	  -23.9385	-0.00321652	  -23.9385	  -80.4129	
  -23.9237	-0.00320637	  -23.8977	-0.00322087	  -23.9419	-0.00322186	  -23.9211	-0.00321637	  -23.9211	  -80.4091	
  -23.9058	-0.00320629	  -23.8791	-0.00322035	  -23.9231	-0.00322183	  -23.9027	-0.00321615	  -23.9027	  -80.4039	
  -23.8868	-0.00320622	  -23.8596	-0.00321984	  -23.9032	-0.00322175	  -23.8832	-0.00321594	  -23.8832	  -80.3985	
  -23.8669	-0.00320623	   -23.839	-0.00321926	  -23.8825	-0.00322174	  -23.8628	-0.00321574	  -23.8628	  -80.3935	
  -23.8461	-0.00320605	  -23.8175	-0.00321876	  -23.8611	-0.00322172	  -23.8416	-0.00321551	  -23.8416	  -80.3877	
   -23.824	-0.00320596	   -23.795	-0.0032182	  -23.8389	-0.00322165	  -23.8193	-0.00321527	  -23.8193	  -80.3817	
  -23.8012	-0.00320594	  -23.7717	-0.00321758	  -23.8156	-0.00322167	  -23.7962	-0.00321506	  -23.7962	  -80.3765	
  -23.7771	-0.00320576	  -23.7476	-0.00321701	  -23.7916	-0.00322171	  -23.7721	-0.00321483	  -23.7721	  -80.3707	
  -23.7521	-0.00320566	  -23.7227	-0.00321639	  -23.7666	-0.0032217	  -23.7471	-0.00321458	  -23.7471	  -80.3646	
   -23.726	-0.00320557	  -23.6967	-0.00321583	  -23.7404	-0.00322179	  -23.7211	-0.00321439	  -23.7211	  -80.3598	
  -23.6988	-0.00320542	  -23.6701	-0.0032153	  -23.7133	-0.0032219	  -23.6941	-0.00321421	  -23.6941	  -80.3552	
  -23.6706	-0.00320527	  -23.6426	-0.0032146	  -23.6853	-0.00322199	  -23.6662	-0.00321395	  -23.6662	  -80.3488	
  -23.6416	-0.00320517	  -23.6141	-0.00321403	  -23.6563	-0.00322202	  -23.6373	-0.00321374	  -23.6373	  -80.3435	
  -23.6114	-0.00320503	  -23.5847	-0.00321349	  -23.6266	-0.00322218	  -23.6076	-0.00321357	  -23.6076	  -80.3392	
  -23.5802	-0.00320479	  -23.5544	-0.00321285	   -23.596	-0.00322234	  -23.5769	-0.00321332	  -23.5769	  -80.3331	
  -23.5479	-0.00320468	  -23.5233	-0.00321228	  -23.5647	-0.00322247	  -23.5453	-0.00321314	  -23.5453	  -80.3286	
  -23.5147	-0.00320453	  -23.4912	-0.00321176	  -23.5322	-0.00322271	  -23.5127	 -0.003213	  -23.5127	   -80.325	
  -23.4808	-0.00320431	  -23.4581	-0.00321116	  -23.4988	-0.00322294	  -23.4792	-0.00321281	  -23.4792	  -80.3201	
  -23.4461	-0.00320422	  -23.4243	-0.0032106	  -23.4646	-0.00322318	   -23.445	-0.00321267	   -23.445	  -80.3167	
  -23.4105	-0.00320404	  -23.3898	-0.0032101	  -23.4297	-0.00322349	    -23.41	-0.00321254	    -23.41	  -80.3136	
  -23.3737	-0.00320382	  -23.3542	-0.00320954	   -23.394	-0.00322383	   -23.374	-0.0032124	   -23.374	  -80.3099	
   -23.336	-0.00320366	  -23.3178	-0.00320899	  -23.3573	-0.00322407	   -23.337	-0.00321224	   -23.337	   -80.306	
  -23.2973	-0.00320344	  -23.2803	-0.0032085	    -23.32	-0.00322443	  -23.2992	-0.00321212	  -23.2992	  -80.3031	
  -23.2578	-0.00320318	  -23.2421	-0.00320799	  -23.2818	-0.00322473	  -23.2606	-0.00321197	  -23.2606	  -80.2992	
  -23.2174	-0.00320297	  -23.2029	-0.00320745	  -23.2428	-0.00322502	   -23.221	-0.00321181	   -23.221	  -80.2953	
  -23.1761	-0.00320271	  -23.1629	-0.00320692	   -23.203	-0.00322537	  -23.1807	-0.00321166	  -23.1807	  -80.2916	
  -23.1337	-0.0032024	  -23.1219	-0.00320641	   -23.162	-0.00322569	  -23.1392	-0.0032115	  -23.1392	  -80.2875	
  -23.0905	-0.00320216	  -23.0793	-0.00320582	  -23.1198	-0.00322602	  -23.0966	-0.00321133	  -23.0966	  -80.2833	
  -23.0465	-0.00320182	  -23.0363	-0.0032053	  -23.0768	-0.00322634	  -23.0532	-0.00321116	  -23.0532	  -80.2789	
  -23.0015	-0.00320153	  -22.9921	-0.00320477	  -23.0328	-0.00322665	  -23.0088	-0.00321098	  -23.0088	  -80.2745	
  -22.9555	-0.00320128	  -22.9471	-0.00320419	  -22.9878	-0.00322693	  -22.9635	-0.0032108	  -22.9635	    -80.27	
  -22.9084	-0.00320095	   -22.901	-0.00320369	   -22.942	-0.00322722	  -22.9171	-0.00321062	  -22.9171	  -80.2655	
  -22.8602	-0.00320067	  -22.8542	-0.00320313	  -22.8951	-0.00322748	  -22.8698	-0.00321043	  -22.8698	  -80.2607	
  -22.8112	-0.00320037	  -22.8064	-0.00320263	  -22.8475	-0.00322771	  -22.8217	-0.00321024	  -22.8217	  -80.2559	
  -22.7614	   -0.0032	  -22.7575	-0.00320206	  -22.7989	-0.0032279	  -22.7726	-0.00320999	  -22.7726	  -80.2497	
   -22.711	-0.00319966	  -22.7075	-0.00320146	  -22.7494	-0.00322809	  -22.7226	-0.00320974	  -22.7226	  -80.2435	
  -22.6599	-0.00319927	  -22.6563	-0.00320083	  -22.6989	-0.00322821	  -22.6717	-0.00320944	  -22.6717	  -80.2359	
  -22.6079	-0.00319882	  -22.6043	-0.00320025	  -22.6474	-0.00322831	  -22.6199	-0.00320913	  -22.6199	  -80.2282	
  -22.5552	-0.0031984	  -22.5514	-0.00319959	  -22.5947	-0.00322838	  -22.5671	-0.00320879	  -22.5671	  -80.2197	
  -22.5017	-0.00319792	  -22.4974	-0.0031989	  -22.5413	-0.00322839	  -22.5135	-0.0032084	  -22.5135	  -80.2101	
  -22.4475	-0.0031974	  -22.4424	-0.00319825	  -22.4871	-0.00322842	   -22.459	-0.00320802	   -22.459	  -80.2005	
  -22.3925	-0.00319687	  -22.3866	-0.00319748	  -22.4321	-0.00322843	  -22.4038	-0.00320759	  -22.4038	  -80.1898	
  -22.3366	-0.0031963	    -22.33	-0.0031966	  -22.3762	-0.00322832	  -22.3476	-0.00320707	  -22.3476	  -80.1768	
  -22.2798	-0.00319568	  -22.2724	-0.00319592	  -22.3195	-0.00322825	  -22.2906	-0.00320661	  -22.2906	  -80.1654	
  -22.2222	-0.00319503	  -22.2139	-0.0031951	  -22.2618	-0.00322814	  -22.2326	-0.00320609	  -22.2326	  -80.1523	
  -22.1637	-0.00319436	  -22.1545	-0.00319418	  -22.2033	-0.00322793	  -22.1738	-0.00320549	  -22.1738	  -80.1373	
  -22.1041	-0.00319364	  -22.0942	-0.00319337	  -22.1439	-0.00322773	  -22.1141	-0.00320491	  -22.1141	  -80.1228	
  -22.0436	-0.00319291	  -22.0331	-0.00319241	  -22.0837	-0.00322748	  -22.0535	-0.00320427	  -22.0535	  -80.1067	
  -21.9822	-0.00319215	   -21.971	-0.00319143	  -22.0228	-0.00322712	   -21.992	-0.00320357	   -21.992	  -80.0892	
  -21.9199	-0.00319136	   -21.908	-0.0031905	   -21.961	-0.00322675	  -21.9296	-0.00320287	  -21.9296	  -80.0717	
  -21.8567	-0.00319052	   -21.844	-0.00318946	  -21.8981	-0.00322644	  -21.8663	-0.00320214	  -21.8663	  -80.0534	
  -21.7928	-0.00318959	  -21.7796	-0.00318843	  -21.8342	-0.00322595	  -21.8022	-0.00320133	  -21.8022	  -80.0332	
  -21.7278	-0.00318871	  -21.7146	-0.00318739	  -21.7694	-0.00322545	  -21.7373	-0.00320052	  -21.7373	  -80.0129	
   -21.662	-0.00318784	  -21.6491	-0.00318628	  -21.7036	-0.00322495	  -21.6716	-0.00319969	  -21.6716	  -79.9923	
  -21.5952	-0.00318684	  -21.5828	-0.00318513	  -21.6367	-0.00322433	  -21.6049	-0.00319877	  -21.6049	  -79.9692	
  -21.5275	-0.00318589	  -21.5158	-0.00318399	  -21.5692	-0.00322369	  -21.5375	-0.00319786	  -21.5375	  -79.9464	
   -21.459	-0.00318493	  -21.4477	-0.00318278	  -21.5009	-0.00322305	  -21.4692	-0.00319692	  -21.4692	   -79.923	
  -21.3897	-0.00318387	  -21.3787	-0.00318156	  -21.4319	-0.00322235	  -21.4001	-0.00319593	  -21.4001	  -79.8982	
  -21.3197	-0.00318284	   -21.309	-0.0031803	  -21.3623	-0.00322154	  -21.3303	-0.0031949	  -21.3303	  -79.8724	
  -21.2489	-0.00318183	  -21.2382	-0.00317903	  -21.2918	-0.00322078	  -21.2596	-0.00319388	  -21.2596	   -79.847	
  -21.1774	-0.00318069	  -21.1668	-0.0031777	  -21.2206	-0.00321991	  -21.1883	-0.00319277	  -21.1883	  -79.8193	
  -21.1052	-0.00317957	  -21.0947	-0.00317631	  -21.1487	-0.00321898	  -21.1162	-0.00319162	  -21.1162	  -79.7905	
  -21.0319	-0.00317852	  -21.0218	-0.0031749	  -21.0758	-0.0032181	  -21.0432	-0.00319051	  -21.0432	  -79.7627	
  -20.9577	-0.00317733	   -20.948	-0.00317346	   -21.002	-0.00321709	  -20.9692	-0.00318929	  -20.9692	  -79.7323	
  -20.8826	-0.00317608	  -20.8732	-0.00317197	  -20.9275	-0.00321597	  -20.8944	-0.00318801	  -20.8944	  -79.7002	
  -20.8065	-0.00317489	  -20.7977	-0.00317046	   -20.852	-0.00321491	  -20.8187	-0.00318675	  -20.8187	  -79.6688	
  -20.7296	-0.0031736	  -20.7215	-0.00316896	  -20.7761	-0.00321374	  -20.7424	-0.00318543	  -20.7424	  -79.6358	
  -20.6518	-0.00317225	  -20.6443	-0.00316747	  -20.6994	-0.0032125	  -20.6652	-0.00318407	  -20.6652	  -79.6018	
  -20.5732	-0.00317095	  -20.5662	-0.00316589	  -20.6219	-0.00321126	  -20.5871	-0.0031827	  -20.5871	  -79.5675	
  -20.4939	-0.00316956	  -20.4875	-0.00316436	  -20.5436	-0.00320991	  -20.5083	-0.00318128	  -20.5083	  -79.5319	
  -20.4137	-0.00316811	  -20.4079	-0.00316277	  -20.4645	-0.00320856	  -20.4287	-0.00317981	  -20.4287	  -79.4953	
  -20.3327	-0.00316669	  -20.3275	-0.00316119	  -20.3844	-0.00320714	  -20.3482	-0.00317834	  -20.3482	  -79.4585	
   -20.251	-0.00316517	  -20.2462	-0.00315957	  -20.3033	-0.00320562	  -20.2668	-0.00317679	  -20.2668	  -79.4196	
  -20.1683	-0.0031637	  -20.1641	-0.0031579	  -20.2217	-0.00320406	  -20.1847	-0.00317522	  -20.1847	  -79.3805	
  -20.0849	-0.00316209	  -20.0811	-0.00315625	  -20.1391	-0.00320256	  -20.1017	-0.00317364	  -20.1017	  -79.3409	
  -20.0007	-0.00316046	  -19.9972	-0.00315455	  -20.0552	-0.00320089	  -20.0177	-0.00317197	  -20.0177	  -79.2992	
  -19.9155	-0.00315875	  -19.9124	-0.00315281	  -19.9711	-0.00319925	   -19.933	-0.00317027	   -19.933	  -79.2568	
  -19.8284	-0.00315697	  -19.8265	-0.00315107	  -19.8861	-0.00319758	   -19.847	-0.00316854	   -19.847	  -79.2135	
  -19.7416	-0.00315511	  -19.7396	-0.00314926	  -19.8005	-0.00319574	  -19.7606	-0.0031667	  -19.7606	  -79.1676	
  -19.6537	-0.00315318	  -19.6517	-0.0031475	  -19.7141	-0.00319394	  -19.6732	-0.00316487	  -19.6732	  -79.1219	
   -19.565	-0.00315119	  -19.5631	-0.00314572	  -19.6268	-0.00319213	   -19.585	-0.00316302	   -19.585	  -79.0754	
  -19.4757	-0.00314916	  -19.4741	-0.00314382	  -19.5388	-0.00319031	  -19.4962	-0.00316109	  -19.4962	  -79.0273	
  -19.3855	-0.00314692	  -19.3841	-0.0031419	    -19.45	-0.00318833	  -19.4065	-0.00315905	  -19.4065	  -78.9763	
  -19.2946	-0.00314472	  -19.2933	-0.00314004	  -19.3601	-0.00318637	   -19.316	-0.00315704	   -19.316	  -78.9261	
  -19.2033	-0.00314246	  -19.2016	-0.00313801	  -19.2693	-0.00318439	  -19.2247	-0.00315495	  -19.2247	  -78.8738	
   -19.111	-0.00313999	  -19.1091	 -0.003136	  -19.1778	-0.00318228	  -19.1327	-0.00315276	  -19.1327	  -78.8189	
  -19.0179	-0.00313749	  -19.0161	-0.00313402	  -19.0848	-0.00318016	  -19.0396	-0.00315056	  -19.0396	  -78.7639	
   -18.924	-0.00313499	  -18.9224	-0.00313191	  -18.9921	-0.00317803	  -18.9461	-0.00314831	  -18.9461	  -78.7077	
  -18.8292	-0.00313232	  -18.8282	-0.00312971	  -18.8983	-0.00317579	  -18.8519	-0.00314594	  -18.8519	  -78.6486	
  -18.7336	-0.00312962	  -18.7333	-0.00312752	  -18.8038	-0.00317353	  -18.7569	-0.00314356	  -18.7569	   -78.589	
  -18.6372	-0.00312689	  -18.6377	-0.0031252	  -18.7086	-0.00317125	  -18.6612	-0.00314111	  -18.6612	  -78.5278	
  -18.5397	-0.00312401	  -18.5416	-0.00312279	  -18.6128	-0.00316887	  -18.5647	-0.00313856	  -18.5647	  -78.4639	
  -18.4416	-0.00312109	  -18.4448	-0.00312034	  -18.5161	-0.00316657	  -18.4675	 -0.003136	  -18.4675	     -78.4	
  -18.3427	-0.00311813	  -18.3473	-0.00311786	  -18.4187	-0.00316418	  -18.3696	-0.00313339	  -18.3696	  -78.3348	
  -18.2428	-0.00311506	  -18.2492	-0.00311522	  -18.3204	-0.00316168	  -18.2708	-0.00313065	  -18.2708	  -78.2663	
   -18.142	-0.0031119	  -18.1503	-0.00311255	  -18.2212	-0.00315924	  -18.1712	-0.0031279	  -18.1712	  -78.1974	
  -18.0407	-0.00310873	  -18.0507	-0.00310983	  -18.1213	-0.00315671	  -18.0709	-0.00312509	  -18.0709	  -78.1272	
  -17.9386	-0.00310547	  -17.9504	-0.00310695	  -18.0207	-0.0031541	  -17.9699	-0.00312217	  -17.9699	  -78.0543	
   -17.836	-0.00310206	  -17.8496	-0.00310412	  -17.9192	-0.00315145	  -17.8683	-0.00311921	  -17.8683	  -77.9802	
  -17.7327	-0.00309868	  -17.7478	-0.00310119	  -17.8171	-0.00314871	  -17.7659	-0.00311619	  -17.7659	  -77.9049	
  -17.6286	-0.0030952	  -17.6456	-0.00309816	  -17.7145	-0.00314586	  -17.6629	-0.00311307	  -17.6629	  -77.8268	
  -17.5244	-0.00309159	  -17.5426	-0.0030951	  -17.6112	-0.00314298	  -17.5594	-0.00310989	  -17.5594	  -77.7473	
  -17.4199	-0.00308802	   -17.439	-0.00309195	  -17.5068	-0.00314006	  -17.4552	-0.00310668	  -17.4552	  -77.6669	
  -17.3146	-0.00308435	  -17.3348	-0.00308871	  -17.4015	 -0.003137	  -17.3503	-0.00310335	  -17.3503	  -77.5838	
  -17.2088	-0.00308057	  -17.2296	-0.00308552	  -17.2952	-0.00313397	  -17.2445	-0.00310002	  -17.2445	  -77.5005	
  -17.1021	-0.00307686	  -17.1239	-0.00308217	   -17.188	-0.00313082	   -17.138	-0.00309662	   -17.138	  -77.4154	
  -16.9947	-0.00307299	  -17.0175	-0.00307878	  -17.0802	-0.00312753	  -17.0308	-0.0030931	  -17.0308	  -77.3274	
  -16.8867	-0.00306905	  -16.9103	-0.00307536	  -16.9716	-0.00312419	  -16.9229	-0.00308953	  -16.9229	  -77.2384	
  -16.7782	-0.00306516	   -16.802	-0.00307196	  -16.8622	-0.00312087	  -16.8141	 -0.003086	  -16.8141	  -77.1499	
  -16.6686	-0.00306112	  -16.6927	-0.00306841	  -16.7521	-0.00311732	  -16.7045	-0.00308228	  -16.7045	   -77.057	
  -16.5581	-0.00305702	  -16.5826	-0.00306488	  -16.6413	-0.0031137	   -16.594	-0.00307853	   -16.594	  -76.9633	
  -16.4469	-0.00305293	  -16.4718	-0.0030613	  -16.5297	-0.00311012	  -16.4828	-0.00307479	  -16.4828	  -76.8696	
  -16.3351	-0.00304876	  -16.3603	-0.00305755	  -16.4174	-0.00310633	  -16.3709	-0.00307088	  -16.3709	   -76.772	
  -16.2225	-0.00304449	  -16.2483	-0.00305384	  -16.3047	-0.00310246	  -16.2585	-0.00306693	  -16.2585	  -76.6732	
  -16.1094	-0.00304021	  -16.1358	-0.00305007	   -16.191	-0.00309861	  -16.1454	-0.00306296	  -16.1454	   -76.574	
  -15.9959	-0.00303581	  -16.0225	-0.00304616	  -16.0768	-0.00309459	  -16.0317	-0.00305886	  -16.0317	  -76.4714	
  -15.8816	-0.00303142	  -15.9084	-0.0030423	  -15.9617	-0.00309052	  -15.9172	-0.00305474	  -15.9172	  -76.3686	
   -15.767	-0.00302691	   -15.794	-0.00303839	  -15.8459	-0.0030864	  -15.8023	-0.00305056	  -15.8023	  -76.2641	
  -15.6512	-0.00302233	  -15.6789	-0.00303434	  -15.7298	-0.00308218	  -15.6866	-0.00304628	  -15.6866	   -76.157	
  -15.5352	-0.00301771	  -15.5633	-0.00303032	  -15.6131	-0.00307791	  -15.5705	-0.00304198	  -15.5705	  -76.0495	
  -15.4183	-0.00301301	  -15.4472	-0.00302624	  -15.4958	-0.00307353	  -15.4538	-0.00303759	  -15.4538	  -75.9399	
  -15.3012	-0.00300824	  -15.3304	-0.00302204	   -15.378	-0.00306911	  -15.3365	-0.00303313	  -15.3365	  -75.8283	
  -15.1834	-0.00300342	  -15.2128	-0.00301785	  -15.2595	-0.00306466	  -15.2186	-0.00302864	  -15.2186	  -75.7161	
  -15.0654	-0.00299848	  -15.0946	-0.00301356	  -15.1405	-0.00306011	  -15.1002	-0.00302405	  -15.1002	  -75.6012	
  -14.9466	-0.0029936	  -14.9756	-0.00300921	  -15.0208	-0.0030555	   -14.981	-0.00301944	   -14.981	  -75.4859	
  -14.8276	-0.00298843	   -14.856	-0.00300479	  -14.9004	-0.00305085	  -14.8613	-0.00301469	  -14.8613	  -75.3673	
  -14.7078	-0.00298338	  -14.7356	-0.00300036	  -14.7795	-0.00304613	   -14.741	-0.00300996	   -14.741	  -75.2489	
  -14.5874	-0.00297833	  -14.6146	-0.00299582	  -14.6581	-0.00304128	    -14.62	-0.00300514	    -14.62	  -75.1286	
  -14.4666	-0.00297295	  -14.4929	-0.00299123	  -14.5361	-0.0030364	  -14.4985	-0.00300019	  -14.4985	  -75.0048	
   -14.345	-0.00296779	  -14.3709	-0.00298659	  -14.4137	-0.00303149	  -14.3765	-0.00299529	  -14.3765	  -74.8823	
  -14.2228	-0.00296263	  -14.2488	-0.00298179	  -14.2907	-0.00302651	  -14.2541	-0.00299031	  -14.2541	  -74.7577	
     -14.1	-0.00295725	   -14.126	-0.00297702	  -14.1671	-0.00302146	   -14.131	-0.00298524	   -14.131	   -74.631	
  -13.9768	-0.00295201	  -14.0028	-0.0029722	  -14.0431	-0.00301626	  -14.0076	-0.00298016	  -14.0076	  -74.5039	
  -13.8529	-0.00294675	  -13.8785	-0.00296723	  -13.9185	-0.00301112	  -13.8833	-0.00297503	  -13.8833	  -74.3759	
  -13.7285	-0.00294133	  -13.7535	-0.00296232	  -13.7934	-0.00300583	  -13.7585	-0.00296983	  -13.7585	  -74.2457	
  -13.6036	-0.00293596	  -13.6277	-0.0029573	  -13.6678	-0.00300048	  -13.6331	-0.00296458	  -13.6331	  -74.1145	
  -13.4781	-0.0029306	  -13.5011	-0.00295213	  -13.5418	-0.00299513	   -13.507	-0.00295929	   -13.507	  -73.9821	
   -13.352	-0.00292509	  -13.3738	-0.00294702	  -13.4149	-0.00298964	  -13.3802	-0.00295391	  -13.3802	  -73.8479	
  -13.2252	-0.00291958	  -13.2459	-0.00294174	  -13.2871	-0.00298401	  -13.2527	-0.00294844	  -13.2527	  -73.7111	
  -13.0981	-0.00291404	  -13.1173	-0.00293632	  -13.1591	-0.00297841	  -13.1248	-0.00294292	  -13.1248	  -73.5731	
  -12.9704	-0.00290835	  -12.9884	-0.00293092	  -13.0308	-0.00297269	  -12.9965	-0.00293732	  -12.9965	  -73.4329	
  -12.8422	-0.00290264	  -12.8589	-0.00292537	  -12.9021	-0.00296683	  -12.8677	-0.00293162	  -12.8677	  -73.2904	
  -12.7136	-0.00289689	  -12.7287	-0.00291968	  -12.7729	-0.00296096	  -12.7384	-0.00292584	  -12.7384	  -73.1461	
  -12.5842	 -0.002891	  -12.5982	-0.00291398	  -12.6429	-0.00295498	  -12.6084	-0.00291998	  -12.6084	  -72.9996	
  -12.4544	-0.00288511	  -12.4673	-0.00290814	  -12.5123	-0.00294886	   -12.478	-0.00291404	   -12.478	  -72.8509	
  -12.3243	-0.00287909	   -12.336	-0.00290215	  -12.3814	-0.00294272	  -12.3473	-0.00290799	  -12.3473	  -72.6997	
  -12.1933	-0.00287297	  -12.2044	-0.00289611	  -12.2499	-0.00293648	  -12.2159	-0.00290185	  -12.2159	  -72.5463	
  -12.0619	-0.00286681	  -12.0723	-0.00288995	  -12.1181	-0.00293008	  -12.0841	-0.00289561	  -12.0841	  -72.3903	
  -11.9298	-0.00286052	  -11.9398	-0.00288355	  -11.9856	-0.00292358	  -11.9517	-0.00288921	  -11.9517	  -72.2304	
  -11.7975	-0.00285405	  -11.8067	-0.00287712	  -11.8526	-0.00291707	  -11.8189	-0.00288275	  -11.8189	  -72.0687	
  -11.6645	-0.00284756	   -11.673	-0.0028706	  -11.7193	-0.00291038	  -11.6856	-0.00287618	  -11.6856	  -71.9046	
   -11.531	-0.00284099	  -11.5389	-0.00286385	  -11.5856	-0.00290358	  -11.5518	-0.00286947	  -11.5518	  -71.7368	
  -11.3972	-0.00283418	  -11.4046	-0.0028569	  -11.4515	-0.00289674	  -11.4177	-0.00286261	  -11.4177	  -71.5652	
  -11.2629	-0.00282738	  -11.2698	  -0.00285	   -11.317	-0.00288973	  -11.2832	-0.0028557	  -11.2832	  -71.3926	
  -11.1282	-0.00282054	  -11.1346	-0.00284285	   -11.182	-0.00288256	  -11.1483	-0.00284865	  -11.1483	  -71.2162	
  -10.9931	-0.00281346	  -10.9989	-0.00283551	  -11.0463	-0.00287537	  -11.0127	-0.00284144	  -11.0127	  -71.0361	
  -10.8574	-0.00280631	  -10.8626	-0.00282817	  -10.9101	-0.00286801	  -10.8767	-0.00283416	  -10.8767	  -70.8541	
  -10.7212	-0.00279916	  -10.7261	-0.00282056	  -10.7735	-0.00286043	  -10.7403	-0.00282672	  -10.7403	   -70.668	
  -10.5848	-0.00279171	  -10.5894	-0.00281282	  -10.6364	-0.00285284	  -10.6035	-0.00281912	  -10.6035	  -70.4781	
  -10.4482	-0.00278417	  -10.4523	-0.00280499	  -10.4992	-0.00284502	  -10.4666	-0.0028114	  -10.4666	  -70.2849	
  -10.3111	-0.00277658	   -10.315	-0.00279696	  -10.3615	 -0.002837	  -10.3292	-0.00280351	  -10.3292	  -70.0878	
  -10.1734	-0.00276872	  -10.1773	-0.0027888	  -10.2234	-0.00282892	  -10.1914	-0.00279548	  -10.1914	  -69.8869	
  -10.0351	-0.00276075	  -10.0392	-0.00278057	  -10.0849	-0.00282061	  -10.0531	-0.00278731	  -10.0531	  -69.6827	
  -9.89652	-0.00275267	  -9.90091	-0.00277204	  -9.94618	-0.00281209	  -9.91454	-0.00277893	  -9.91454	  -69.4733	
   -9.7574	-0.00274435	  -9.76239	-0.0027634	  -9.80705	-0.00280347	  -9.77561	-0.00277041	  -9.77561	  -69.2602	
  -9.61808	-0.00273588	  -9.62332	-0.00275467	  -9.66751	-0.00279467	   -9.6363	-0.00276174	   -9.6363	  -69.0435	
  -9.47839	-0.00272734	  -9.48393	-0.0027457	  -9.52768	-0.00278563	  -9.49667	-0.00275289	  -9.49667	  -68.8223	
  -9.33852	-0.0027185	  -9.34427	-0.00273649	  -9.38768	-0.0027765	  -9.35682	-0.00274383	  -9.35682	  -68.5957	
   -9.1983	-0.00270947	  -9.20426	-0.00272721	  -9.24707	-0.00276717	  -9.21654	-0.00273461	  -9.21654	  -68.3653	
  -9.05802	-0.00270031	  -9.06417	-0.00271768	  -9.10607	-0.00275759	  -9.07609	-0.0027252	  -9.07609	  -68.1299	
  -8.91728	-0.00269087	  -8.92354	-0.00270797	  -8.96448	-0.00274789	   -8.9351	-0.00271558	   -8.9351	  -67.8895	
  -8.77595	-0.00268123	  -8.78244	-0.00269815	  -8.82279	-0.00273798	  -8.79373	-0.00270579	  -8.79373	  -67.6447	
  -8.63447	-0.00267143	  -8.64051	-0.00268805	  -8.68085	-0.0027278	  -8.65194	-0.00269576	  -8.65194	   -67.394	
  -8.49263	-0.00266138	  -8.49894	-0.00267779	  -8.53879	-0.0027175	  -8.51012	-0.00268556	  -8.51012	   -67.139	
  -8.35029	-0.00265106	   -8.3568	-0.00266742	  -8.39667	-0.00270698	  -8.36792	-0.00267515	  -8.36792	  -66.8788	
  -8.20753	-0.00264054	  -8.21452	-0.00265673	  -8.25453	-0.00269618	  -8.22553	-0.00266448	  -8.22553	  -66.6121	
  -8.06422	-0.00262976	  -8.07183	-0.00264582	  -8.11216	-0.00268526	  -8.08274	-0.00265361	  -8.08274	  -66.3403	
  -7.92072	-0.00261869	   -7.9285	-0.0026348	  -7.96941	-0.0026741	  -7.93954	-0.00264253	  -7.93954	  -66.0633	
  -7.77698	-0.00260739	  -7.78501	-0.0026235	   -7.8264	-0.00266267	  -7.79613	-0.00263119	  -7.79613	  -65.7796	
  -7.63304	-0.00259582	  -7.64112	-0.00261187	  -7.68324	-0.00265107	  -7.65247	-0.00261959	  -7.65247	  -65.4897	
  -7.48859	-0.00258395	  -7.49718	-0.00260011	  -7.54009	-0.00263921	  -7.50862	-0.00260776	  -7.50862	  -65.1939	
  -7.34368	-0.00257183	  -7.35263	-0.00258821	  -7.39654	-0.0026271	  -7.36428	-0.00259572	  -7.36428	  -64.8929	
  -7.19847	-0.00255941	  -7.20791	-0.0025758	  -7.25268	-0.00261479	  -7.21969	-0.00258333	  -7.21969	  -64.5834	
  -7.05281	-0.00254668	  -7.06282	-0.00256329	  -7.10872	-0.00260216	  -7.07479	-0.00257071	  -7.07479	  -64.2677	
  -6.90703	-0.00253365	   -6.9178	-0.00255063	  -6.96464	-0.00258927	  -6.92983	-0.00255785	  -6.92983	  -63.9462	
  -6.76113	-0.00252039	  -6.77251	-0.00253751	  -6.82026	-0.00257611	  -6.78463	-0.00254467	  -6.78463	  -63.6168	
  -6.61476	-0.00250673	  -6.62687	-0.00252424	  -6.67543	-0.00256273	  -6.63902	-0.00253123	  -6.63902	  -63.2808	
  -6.46808	-0.00249277	  -6.48102	-0.00251078	  -6.53027	-0.00254896	  -6.49313	-0.0025175	  -6.49313	  -62.9376	
  -6.32128	-0.00247853	  -6.33483	-0.00249687	  -6.38482	-0.00253489	  -6.34698	-0.00250343	  -6.34698	  -62.5858	
  -6.17434	-0.0024639	  -6.18829	-0.0024828	  -6.23905	-0.00252055	  -6.20056	-0.00248909	  -6.20056	  -62.2271	
  -6.02719	-0.00244895	  -6.04137	-0.00246853	  -6.09308	-0.00250583	  -6.05388	-0.00247444	  -6.05388	  -61.8609	
  -5.87996	-0.00243376	  -5.89418	-0.00245383	   -5.9468	-0.00249078	  -5.90698	-0.00245946	  -5.90698	  -61.4865	
  -5.73262	-0.00241815	  -5.74668	-0.00243889	  -5.80026	-0.00247544	  -5.75985	-0.00244416	  -5.75985	  -61.1039	
  -5.58528	-0.00240215	  -5.59929	-0.00242372	  -5.65364	-0.00245971	  -5.61274	-0.00242852	  -5.61274	  -60.7131	
  -5.43794	-0.00238587	  -5.45194	-0.00240812	   -5.5067	-0.00244361	  -5.46553	-0.00241253	  -5.46553	  -60.3133	
   -5.2905	-0.00236918	  -5.30423	-0.00239222	  -5.35955	-0.0024272	  -5.31809	-0.0023962	  -5.31809	  -59.9051	
  -5.14302	-0.00235206	  -5.15634	-0.00237611	  -5.21236	-0.0024104	  -5.17058	-0.00237953	  -5.17058	  -59.4881	
   -4.9955	-0.00233467	  -5.00849	-0.00235955	  -5.06497	-0.00239323	  -5.02299	-0.00236248	  -5.02299	   -59.062	
  -4.84795	-0.00231687	  -4.86075	-0.00234263	  -4.91752	-0.00237574	  -4.87541	-0.00234508	  -4.87541	  -58.6271	
  -4.70031	-0.00229863	  -4.71328	-0.00232547	  -4.76983	-0.00235781	  -4.72781	-0.0023273	  -4.72781	  -58.1826	
  -4.55259	-0.00228006	  -4.56542	-0.00230784	  -4.62191	-0.00233955	  -4.57997	-0.00230915	  -4.57997	  -57.7288	
  -4.40487	-0.00226105	  -4.41738	-0.00228985	  -4.47362	-0.00232091	  -4.43196	-0.0022906	  -4.43196	   -57.265	
  -4.25701	-0.00224159	  -4.26933	-0.00227156	  -4.32547	-0.00230182	  -4.28394	-0.00227166	  -4.28394	  -56.7915	
  -4.10891	-0.00222177	  -4.12109	-0.00225275	  -4.17714	-0.00228235	  -4.13571	-0.00225229	  -4.13571	  -56.3073	
  -3.96086	-0.00220157	  -3.97283	-0.00223357	  -4.02874	-0.00226254	  -3.98747	-0.00223256	  -3.98747	  -55.8139	
  -3.81277	-0.00218085	  -3.82441	-0.00221404	   -3.8803	-0.00224224	  -3.83916	-0.00221238	  -3.83916	  -55.3094	
  -3.66452	-0.00215973	  -3.67565	-0.00219397	  -3.73212	-0.00222149	  -3.69076	-0.00219173	  -3.69076	  -54.7932	
  -3.51628	-0.00213822	  -3.52711	-0.00217356	  -3.58385	-0.00220038	  -3.54241	-0.00217072	  -3.54241	   -54.268	
  -3.36785	-0.0021162	  -3.37864	-0.00215257	  -3.43557	-0.00217876	  -3.39402	-0.00214918	  -3.39402	  -53.7294	
