# User: ACHyster
# File name: C:/ACHYSTER/ACHyster SENS/SHAMS/CoFe2O4-1gl-water-Zero Glycerol- Sens-07-03-2023/CoFe2O4-1gl-water-Zero Glycerol- 10_100F- 12kAm -Sens-07-03-20230005#1
# Saved at: ma. mar. 7 14:22:35 2023
# Hyster Loop (3 iterations). Intensity: 12.0 kA/m; Tuned frequency: 59.9 kHz
# Units x axis: (kA/m)
# Units y axis: "Repeats y" & "Average y" (10^(-3)Am^2); "Mass avg y" (Am^2/kg)
# Magnetic mass: 4e-05 g
# Parameter      	Repeat   1	Repeat   2	Repeat   3	Average   	Sigma     
# H_C (kA/m)     	       9.4	       9.3	       9.3	       9.3	       0.0
# M_R (Am^2/kg)  	      45.1	      44.9	      45.2	      45.1	       0.1
# M_max (Am^2/kg)	      38.4	      38.6	      39.5	      38.8	       0.5
# Area (mJ/kg)   	    2099.9	    2086.0	    2101.1	    2095.7	       6.8
# SAR (W/g)      	     125.7	     124.9	     125.8	     125.5	       0.4
#Repeat 1 x	Repeat 1 y	Repeat 2 x	Repeat 2 y	Repeat 3 x	Repeat 3 y	Average x 	Average y 	Mass avg x 	Mass avg y 
  -1.75753	-0.00196385	  -1.75802	-0.00195527	  -1.75479	-0.00197015	  -1.75678	-0.00196309	  -1.75678	  -49.0773	
  -1.68252	-0.00195781	  -1.68353	-0.00194948	  -1.68057	-0.00196415	  -1.68221	-0.00195715	  -1.68221	  -48.9287	
  -1.60762	-0.00195157	  -1.60909	-0.00194349	   -1.6064	-0.00195807	   -1.6077	-0.00195104	   -1.6077	  -48.7761	
  -1.53245	-0.00194519	  -1.53448	-0.00193726	  -1.53205	-0.00195184	  -1.53299	-0.00194476	  -1.53299	  -48.6191	
  -1.45727	-0.00193876	  -1.45979	-0.00193087	  -1.45761	-0.00194543	  -1.45822	-0.00193835	  -1.45822	  -48.4588	
  -1.38234	-0.00193238	  -1.38513	-0.0019244	   -1.3832	-0.00193883	  -1.38355	-0.00193187	  -1.38355	  -48.2968	
  -1.30741	-0.00192611	  -1.31043	-0.00191796	  -1.30858	-0.0019321	  -1.30881	-0.00192539	  -1.30881	  -48.1347	
  -1.23258	-0.00191993	  -1.23578	-0.0019116	  -1.23402	-0.00192531	  -1.23413	-0.00191895	  -1.23413	  -47.9737	
  -1.15763	-0.00191376	  -1.16096	-0.00190533	  -1.15929	-0.00191853	  -1.15929	-0.00191254	  -1.15929	  -47.8136	
  -1.08264	-0.0019075	  -1.08608	-0.00189906	   -1.0845	-0.0019118	  -1.08441	-0.00190612	  -1.08441	  -47.6529	
  -1.00772	-0.00190102	  -1.01123	-0.0018927	  -1.00975	-0.00190509	  -1.00957	-0.0018996	  -1.00957	    -47.49	
 -0.932649	-0.00189428	 -0.936184	-0.00188614	 -0.934805	-0.00189835	 -0.934546	-0.00189292	 -0.934546	  -47.3231	
 -0.857679	-0.00188729	 -0.861216	-0.00187934	 -0.859941	-0.0018915	 -0.859612	-0.00188604	 -0.859612	  -47.1511	
 -0.782679	-0.00188014	 -0.785939	-0.00187231	 -0.785022	-0.0018845	 -0.784547	-0.00187898	 -0.784547	  -46.9746	
  -0.70765	-0.00187294	 -0.710629	-0.00186514	  -0.71005	-0.00187731	 -0.709443	-0.0018718	 -0.709443	  -46.7949	
 -0.632844	-0.00186578	 -0.635383	-0.00185793	 -0.634966	-0.00186997	 -0.634398	-0.00186456	 -0.634398	   -46.614	
 -0.557865	-0.00185872	 -0.559976	-0.00185077	 -0.559715	-0.00186253	 -0.559185	-0.00185734	 -0.559185	  -46.4335	
 -0.482976	-0.00185175	 -0.484671	-0.0018437	 -0.484561	-0.00185506	 -0.484069	-0.00185017	 -0.484069	  -46.2542	
 -0.408044	-0.00184476	 -0.409335	-0.00183669	 -0.409245	-0.00184762	 -0.408875	-0.00184302	 -0.408875	  -46.0755	
 -0.333069	-0.00183765	 -0.333969	-0.00182965	 -0.333905	-0.0018402	 -0.333648	-0.00183583	 -0.333648	  -45.8959	
 -0.257993	-0.00183033	 -0.258516	-0.0018225	 -0.258637	-0.00183278	 -0.258382	-0.00182854	 -0.258382	  -45.7134	
 -0.182762	-0.00182277	 -0.182919	-0.00181515	 -0.183218	-0.0018253	 -0.182966	-0.00182107	 -0.182966	  -45.5268	
 -0.107637	-0.00181501	 -0.107444	-0.00180757	 -0.107909	-0.00181769	 -0.107664	-0.00181342	 -0.107664	  -45.3356	
-0.0325493	-0.00180715	-0.0320184	-0.00179979	-0.0324859	-0.00180993	-0.0323512	-0.00180563	-0.0323512	  -45.1406	
 0.0425703	-0.00179931	 0.0434254	-0.00179192	 0.0429513	-0.00180201	 0.0429823	-0.00179774	 0.0429823	  -44.9436	
  0.117625	-0.00179154	  0.118947	-0.00178402	  0.118306	-0.00179396	  0.118293	-0.00178984	  0.118293	   -44.746	
  0.192842	-0.00178388	  0.194445	-0.00177618	  0.193806	-0.00178583	  0.193697	-0.00178196	  0.193697	  -44.5491	
  0.267956	-0.00177626	  0.269829	-0.00176839	  0.269187	-0.00177768	  0.268991	-0.00177411	  0.268991	  -44.3527	
   0.34304	-0.00176858	  0.345325	-0.00176061	   0.34452	-0.00176953	  0.344295	-0.00176624	  0.344295	  -44.1559	
   0.41816	-0.00176071	  0.420674	-0.00175274	  0.419875	-0.00176137	  0.419569	-0.00175827	  0.419569	  -43.9568	
  0.493063	-0.00175258	  0.495794	-0.00174471	  0.495121	-0.00175317	   0.49466	-0.00175015	   0.49466	  -43.7538	
  0.568143	-0.00174419	  0.571081	-0.00173645	   0.57052	-0.00174488	  0.569914	-0.00174184	  0.569914	  -43.5459	
  0.643135	-0.0017356	  0.646424	-0.00172799	  0.645806	-0.00173645	  0.645122	-0.00173335	  0.645122	  -43.3337	
  0.717953	-0.00172696	   0.72157	-0.00171938	  0.721207	-0.00172788	  0.720243	-0.00172474	  0.720243	  -43.1185	
  0.792833	-0.00171836	  0.796755	-0.00171072	  0.796621	-0.00171918	  0.795403	-0.00171609	  0.795403	  -42.9022	
  0.867521	-0.00170989	  0.871726	-0.00170208	  0.871922	-0.00171039	  0.870389	-0.00170745	  0.870389	  -42.6864	
  0.942411	-0.00170154	  0.946719	-0.0016935	  0.947369	-0.00170154	    0.9455	-0.00169886	    0.9455	  -42.4715	
   1.01724	-0.0016932	   1.02164	-0.00168496	    1.0227	-0.00169267	   1.02053	-0.00169028	   1.02053	  -42.2569	
   1.09191	-0.00168478	   1.09641	-0.00167637	   1.09814	-0.0016838	   1.09549	-0.00168165	   1.09549	  -42.0412	
   1.16667	-0.00167614	   1.17125	-0.00166765	    1.1736	-0.00167489	   1.17051	-0.00167289	   1.17051	  -41.8224	
   1.24126	-0.00166722	   1.24591	-0.00165872	   1.24881	-0.00166592	   1.24533	-0.00166395	   1.24533	  -41.5988	
   1.31606	-0.00165802	   1.32054	-0.00164956	   1.32417	-0.00165684	   1.32026	-0.00165481	   1.32026	  -41.3702	
   1.39082	-0.00164863	   1.39513	-0.00164021	   1.39942	-0.00164763	   1.39512	-0.00164549	   1.39512	  -41.1372	
   1.46528	-0.00163919	   1.46944	-0.00163075	   1.47463	-0.00163829	   1.46979	-0.00163608	   1.46979	  -40.9019	
   1.53923	-0.00162984	   1.54388	-0.0016213	   1.54987	-0.00162884	   1.54433	-0.00162666	   1.54433	  -40.6665	
   1.61324	-0.00162064	   1.61818	-0.00161189	   1.62489	-0.00161932	   1.61877	-0.00161728	   1.61877	  -40.4321	
   1.68706	-0.00161158	   1.69243	-0.00160256	   1.69976	-0.00160975	   1.69308	-0.00160796	   1.69308	   -40.199	
   1.76118	-0.00160254	   1.76669	-0.00159323	   1.77456	-0.00160014	   1.76748	-0.00159864	   1.76748	   -39.966	
   1.83555	-0.0015934	   1.84088	-0.00158383	   1.84905	-0.00159047	   1.84183	-0.00158923	   1.84183	  -39.7308	
   1.90959	-0.00158399	   1.91505	-0.00157424	   1.92302	-0.00158073	   1.91589	-0.00157965	   1.91589	  -39.4913	
   1.98402	-0.00157427	   1.98914	-0.00156444	   1.99687	-0.0015709	   1.99001	-0.00156987	   1.99001	  -39.2468	
    2.0584	-0.0015643	   2.06336	-0.00155445	   2.07038	-0.00156098	   2.06404	-0.00155991	   2.06404	  -38.9978	
   2.13267	-0.00155419	   2.13762	-0.00154435	   2.14382	-0.00155097	   2.13804	-0.00154984	   2.13804	  -38.7459	
   2.20673	-0.0015441	   2.21181	-0.00153423	    2.2174	-0.00154091	   2.21198	-0.00153975	   2.21198	  -38.4936	
   2.28113	-0.00153414	   2.28618	-0.00152416	   2.29086	-0.00153076	   2.28606	-0.00152969	   2.28606	  -38.2421	
   2.35575	-0.00152432	   2.36045	-0.00151416	   2.36475	-0.00152056	   2.36032	-0.00151968	   2.36032	   -37.992	
   2.42984	-0.00151456	    2.4344	-0.00150417	   2.43831	-0.00151028	   2.43418	-0.00150967	   2.43418	  -37.7417	
   2.50479	-0.00150472	   2.50841	-0.0014941	   2.51181	-0.00149991	   2.50834	-0.00149958	   2.50834	  -37.4895	
    2.5786	-0.00149466	   2.58226	-0.00148387	   2.58503	-0.00148945	   2.58196	-0.00148933	   2.58196	  -37.2332	
   2.65356	-0.00148431	   2.65616	-0.00147343	   2.65819	-0.00147892	   2.65597	-0.00147889	   2.65597	  -36.9722	
   2.72699	-0.00147369	   2.73003	-0.00146279	   2.73136	-0.00146829	   2.72946	-0.00146826	   2.72946	  -36.7064	
    2.8008	-0.0014629	   2.80363	 -0.001452	   2.80431	-0.0014576	   2.80291	-0.0014575	   2.80291	  -36.4375	
   2.87439	-0.00145207	   2.87705	-0.00144114	   2.87789	-0.00144684	   2.87644	-0.00144668	   2.87644	  -36.1671	
   2.94771	-0.00144133	   2.95036	-0.00143027	   2.95088	-0.00143598	   2.94965	-0.00143586	   2.94965	  -35.8966	
   3.02169	-0.00143072	   3.02333	-0.00141943	   3.02456	-0.00142502	   3.02319	-0.00142506	   3.02319	  -35.6265	
   3.09471	-0.00142021	   3.09638	-0.0014086	    3.0973	-0.00141395	   3.09613	-0.00141426	   3.09613	  -35.3564	
   3.16833	-0.00140967	   3.16926	-0.00139772	   3.17035	-0.00140279	   3.16931	-0.0014034	   3.16931	  -35.0849	
   3.24101	-0.00139898	   3.24204	-0.00138674	   3.24282	-0.00139157	   3.24196	-0.00139243	   3.24196	  -34.8107	
   3.31367	-0.00138803	   3.31465	-0.00137561	   3.31529	-0.00138031	   3.31454	-0.00138132	   3.31454	  -34.5329	
   3.38607	-0.0013768	   3.38703	-0.00136431	   3.38784	-0.00136902	   3.38698	-0.00137005	   3.38698	  -34.2512	
   3.45825	-0.00136535	   3.45907	-0.00135287	   3.46016	-0.00135771	   3.45916	-0.00135864	   3.45916	   -33.966	
   3.53083	-0.00135377	   3.53107	-0.00134133	   3.53287	-0.00134634	   3.53159	-0.00134715	   3.53159	  -33.6787	
   3.60307	-0.00134221	   3.60278	-0.00132974	   3.60522	-0.00133485	   3.60369	-0.0013356	   3.60369	    -33.39	
   3.67521	-0.00133073	   3.67447	-0.00131814	   3.67748	-0.00132323	   3.67572	-0.00132403	   3.67572	  -33.1008	
   3.74704	-0.00131935	   3.74604	-0.00130654	   3.74942	-0.00131144	    3.7475	-0.00131244	    3.7475	  -32.8111	
   3.81874	-0.00130801	   3.81728	-0.00129493	   3.82109	-0.00129951	   3.81904	-0.00130082	   3.81904	  -32.5204	
   3.89046	-0.00129659	   3.88845	-0.00128328	   3.89279	-0.00128748	   3.89057	-0.00128912	   3.89057	  -32.2279	
    3.9618	-0.00128499	   3.95946	-0.00127153	   3.96396	-0.00127541	   3.96174	-0.00127731	   3.96174	  -31.9327	
   4.03335	-0.00127316	   4.03009	-0.00125963	   4.03535	-0.00126332	   4.03293	-0.00126537	   4.03293	  -31.6343	
   4.10452	-0.0012611	   4.10078	-0.00124756	   4.10638	-0.00125125	   4.10389	-0.0012533	   4.10389	  -31.3326	
   4.17544	-0.0012489	   4.17127	-0.00123533	   4.17749	-0.00123916	   4.17473	-0.00124113	   4.17473	  -31.0283	
   4.24626	-0.00123667	   4.24173	 -0.001223	   4.24835	-0.00122701	   4.24545	-0.00122889	   4.24545	  -30.7223	
   4.31685	-0.00122449	   4.31217	-0.00121062	   4.31914	-0.00121475	   4.31605	-0.00121662	   4.31605	  -30.4155	
   4.38714	-0.0012124	   4.38237	-0.00119824	   4.38978	-0.00120236	   4.38643	-0.00120433	   4.38643	  -30.1083	
    4.4574	-0.00120036	   4.45257	-0.00118589	   4.46005	-0.00118982	   4.45668	-0.00119202	   4.45668	  -29.8005	
   4.52756	-0.00118827	    4.5227	-0.00117356	   4.53021	-0.00117715	   4.52682	-0.00117966	   4.52682	  -29.4915	
   4.59738	-0.00117605	   4.59254	-0.00116119	   4.60004	-0.00116441	   4.59665	-0.00116721	   4.59665	  -29.1804	
   4.66704	-0.00116361	   4.66224	-0.00114874	   4.66971	-0.00115161	   4.66633	-0.00115465	   4.66633	  -28.8663	
   4.73657	-0.00115095	   4.73184	-0.00113614	   4.73925	-0.00113879	   4.73589	-0.00114196	   4.73589	   -28.549	
   4.80591	-0.00113813	   4.80128	-0.00112339	   4.80859	-0.00112595	   4.80526	-0.00112916	   4.80526	  -28.2289	
   4.87531	-0.00112524	   4.87048	-0.0011105	   4.87784	-0.00111308	   4.87455	-0.00111627	   4.87455	  -27.9069	
   4.94454	-0.00111238	   4.93956	-0.0010975	   4.94693	-0.00110016	   4.94368	-0.00110335	   4.94368	  -27.5837	
    5.0135	-0.00109959	   5.00829	-0.00108446	   5.01577	-0.00108716	   5.01252	-0.00109041	   5.01252	  -27.2602	
   5.08249	-0.00108687	   5.07695	-0.00107141	   5.08449	-0.00107407	   5.08131	-0.00107745	   5.08131	  -26.9363	
   5.15128	-0.00107416	   5.14547	-0.00105838	   5.15303	-0.00106087	   5.14992	-0.00106447	   5.14992	  -26.6118	
   5.21996	-0.00106135	   5.21362	-0.00104535	   5.22118	-0.00104757	   5.21826	-0.00105142	   5.21826	  -26.2855	
   5.28833	-0.00104837	   5.28169	-0.00103227	   5.28906	-0.00103416	   5.28636	-0.00103827	   5.28636	  -25.9568	
   5.35648	-0.0010352	   5.34961	-0.00101912	   5.35677	-0.00102068	   5.35429	 -0.001025	   5.35429	  -25.6249	
   5.42421	-0.00102186	   5.41717	-0.00100584	   5.42423	-0.00100713	   5.42187	-0.00101161	   5.42187	  -25.2902	
   5.49179	-0.00100843	    5.4848	-0.000992407	   5.49157	-0.000993534	   5.48939	-0.000998124	   5.48939	  -24.9531	
   5.55918	-0.000995004	   5.55226	-0.00097885	   5.55875	-0.000979904	   5.55673	-0.000984586	   5.55673	  -24.6147	
   5.62616	-0.000981647	    5.6195	-0.000965193	   5.62555	-0.000966245	   5.62374	-0.000971028	   5.62374	  -24.2757	
   5.69317	-0.00096837	   5.68648	-0.000951488	   5.69225	-0.000952544	   5.69063	-0.000957468	   5.69063	  -23.9367	
   5.75999	-0.000955135	    5.7533	-0.000937766	   5.75879	-0.000938788	   5.75736	-0.000943897	   5.75736	  -23.5974	
   5.82653	-0.000941853	   5.81976	-0.000924049	   5.82497	-0.000924956	   5.82375	-0.000930286	   5.82375	  -23.2572	
   5.89294	-0.000928434	   5.88582	-0.000910318	   5.89106	-0.000911036	   5.88994	-0.000916596	   5.88994	  -22.9149	
   5.95916	-0.000914807	   5.95177	-0.000896536	   5.95701	-0.000897023	   5.95598	-0.000902789	   5.95598	  -22.5697	
   6.02516	-0.000900974	   6.01739	-0.00088266	   6.02261	-0.000882924	   6.02172	-0.000888853	   6.02172	  -22.2213	
   6.09056	-0.000886989	   6.08265	-0.00086866	   6.08767	-0.00086875	   6.08696	-0.0008748	   6.08696	    -21.87	
   6.15583	-0.000872951	   6.14783	-0.000854528	   6.15264	-0.000854527	    6.1521	-0.000860669	    6.1521	  -21.5167	
   6.22076	-0.000858966	   6.21271	-0.000840292	   6.21732	-0.000840268	   6.21693	-0.000846509	   6.21693	  -21.1627	
   6.28532	-0.000845088	   6.27712	-0.000825991	   6.28167	-0.000825976	   6.28137	-0.000832351	   6.28137	  -20.8088	
   6.34979	-0.0008313	   6.34149	-0.00081167	   6.34597	-0.000811648	   6.34575	-0.000818206	   6.34575	  -20.4551	
   6.41396	-0.000817528	   6.40562	-0.000797349	   6.41001	-0.000797271	   6.40986	-0.00080405	   6.40986	  -20.1012	
   6.47797	-0.000803667	   6.46932	-0.000783027	    6.4736	-0.000782827	   6.47363	-0.00078984	   6.47363	   -19.746	
   6.54179	-0.000789627	   6.53278	-0.000768675	   6.53719	-0.000768306	   6.53726	-0.000775536	   6.53726	  -19.3884	
   6.60521	-0.000775373	   6.59606	-0.000754259	   6.60058	-0.000753707	   6.60062	-0.000761113	   6.60062	  -19.0278	
   6.66819	-0.000760928	   6.65897	-0.000739745	   6.66356	-0.000739035	   6.66357	-0.000746569	   6.66357	  -18.6642	
   6.73072	-0.000746371	   6.72148	-0.000725123	   6.72612	-0.0007243	   6.72611	-0.000731931	   6.72611	  -18.2983	
   6.79295	-0.000731813	   6.78389	-0.00071041	    6.7884	-0.000709517	   6.78841	-0.000717246	   6.78841	  -17.9312	
   6.85484	-0.000717317	     6.846	-0.000695635	   6.85036	-0.000694691	    6.8504	-0.000702548	    6.8504	  -17.5637	
   6.91635	-0.000702926	   6.90788	-0.000680837	   6.91208	-0.000679824	    6.9121	-0.000687862	    6.9121	  -17.1966	
    6.9778	-0.000688604	   6.96971	-0.000666042	   6.97359	-0.000664909	    6.9737	-0.000673185	    6.9737	  -16.8296	
   7.03899	-0.000674274	    7.0313	-0.00065125	   7.03487	-0.000649936	   7.03505	-0.000658487	   7.03505	  -16.4622	
   7.09974	-0.000659844	   7.09245	-0.000636441	   7.09587	-0.0006349	   7.09602	-0.000643728	   7.09602	  -16.0932	
   7.16004	-0.000645246	   7.15316	-0.000621584	   7.15658	-0.000619797	    7.1566	-0.000628876	    7.1566	  -15.7219	
    7.2202	-0.000630453	   7.21373	-0.000606647	   7.21714	-0.000604633	   7.21702	-0.000613911	   7.21702	  -15.3478	
   7.28002	-0.000615493	   7.27398	-0.000591614	   7.27735	-0.000589419	   7.27712	-0.000598842	   7.27712	  -14.9711	
    7.3395	-0.000600437	   7.33387	-0.000576497	   7.33735	-0.00057416	   7.33691	-0.000583698	   7.33691	  -14.5925	
   7.39877	-0.000585361	   7.39341	-0.000561319	   7.39728	-0.000558858	   7.39649	-0.000568513	   7.39649	  -14.2128	
   7.45781	-0.000570324	   7.45273	-0.000546112	   7.45695	-0.000543516	   7.45583	-0.000553317	   7.45583	  -13.8329	
   7.51644	-0.000555348	   7.51165	-0.00053091	   7.51633	-0.000528134	   7.51481	-0.000538131	   7.51481	  -13.4533	
   7.57476	-0.000540412	   7.57014	-0.000515717	   7.57534	-0.000512707	   7.57341	-0.000522945	   7.57341	  -13.0736	
   7.63297	-0.000525458	   7.62854	-0.000500523	   7.63403	-0.000497232	   7.63185	-0.000507738	   7.63185	  -12.6934	
   7.69089	-0.000510429	   7.68666	-0.000485306	    7.6924	-0.000481714	   7.68998	-0.000492483	   7.68998	  -12.3121	
   7.74835	-0.000495279	   7.74433	-0.000470034	   7.75027	-0.000466159	   7.74765	-0.000477157	   7.74765	  -11.9289	
   7.80534	-0.000479996	    7.8014	-0.000454684	   7.80796	-0.000450588	    7.8049	-0.000461756	    7.8049	  -11.5439	
   7.86219	-0.000464612	   7.85803	-0.000439253	   7.86546	-0.000435003	   7.86189	-0.000446289	   7.86189	  -11.1572	
   7.91872	-0.000449173	   7.91439	-0.000423744	   7.92258	-0.000419384	   7.91857	-0.000430767	   7.91857	  -10.7692	
   7.97477	-0.000433731	   7.97031	-0.000408189	   7.97932	-0.000403706	    7.9748	-0.000415209	    7.9748	  -10.3802	
   8.03035	-0.000418321	   8.02596	-0.00039263	   8.03537	-0.000387949	   8.03056	-0.000399633	   8.03056	  -9.99083	
   8.08577	-0.000402945	   8.08148	-0.000377094	    8.0906	-0.000372121	   8.08595	-0.000384053	   8.08595	  -9.60134	
   8.14088	-0.000387571	   8.13671	-0.000361586	   8.14505	-0.000356247	   8.14088	-0.000368468	   8.14088	   -9.2117	
   8.19551	-0.00037216	   8.19147	-0.000346086	   8.19922	-0.000340358	    8.1954	-0.000352868	    8.1954	  -8.82169	
   8.24976	-0.000356669	   8.24601	-0.000330555	   8.25293	-0.000324478	   8.24957	-0.000337234	   8.24957	  -8.43085	
   8.30387	-0.000341084	    8.3004	-0.000314954	   8.30701	-0.000308622	   8.30376	-0.000321553	   8.30376	  -8.03883	
   8.35767	-0.000325416	   8.35449	-0.000299263	   8.36094	-0.000292776	    8.3577	-0.000305818	    8.3577	  -7.64545	
     8.411	-0.000309698	   8.40812	-0.000283485	   8.41438	-0.000276889	   8.41117	-0.000290024	   8.41117	   -7.2506	
   8.46388	-0.000293973	    8.4613	-0.000267656	   8.46784	-0.000260951	   8.46434	-0.000274193	   8.46434	  -6.85483	
   8.51664	-0.000278279	   8.51435	-0.000251823	   8.52087	-0.000244924	   8.51729	-0.000258342	   8.51729	  -6.45854	
   8.56912	-0.000262622	   8.56713	-0.000236017	    8.5736	-0.000228827	   8.56995	-0.000242489	   8.56995	  -6.06222	
   8.62116	-0.000246984	   8.61947	-0.000220253	   8.62571	-0.000212688	   8.62211	-0.000226642	   8.62211	  -5.66604	
   8.67279	-0.000231333	   8.67139	-0.000204509	   8.67832	-0.000196558	   8.67417	-0.0002108	   8.67417	  -5.26999	
   8.72418	-0.000215631	    8.7229	-0.000188751	   8.73061	-0.000180461	    8.7259	-0.000194948	    8.7259	   -4.8737	
   8.77532	-0.000199846	   8.77419	-0.000172927	   8.78257	-0.000164413	   8.77736	-0.000179062	   8.77736	  -4.47655	
   8.82608	-0.000183973	    8.8251	-0.000157022	   8.83431	-0.00014839	    8.8285	-0.000163128	    8.8285	  -4.07821	
   8.87647	-0.000168033	   8.87549	-0.000141028	   8.88481	-0.000132353	   8.87892	-0.000147138	   8.87892	  -3.67845	
   8.92636	-0.000152068	   8.92555	-0.000124978	   8.93586	-0.000116273	   8.92925	-0.000131106	   8.92925	  -3.27766	
   8.97592	-0.000136124	   8.97529	-0.000108913	   8.98523	-0.000100121	   8.97881	-0.000115053	   8.97881	  -2.87632	
   9.02518	-0.000120232	   9.02473	-9.28717e-05	   9.03508	-8.3907e-05	   9.02833	-9.90034e-05	   9.02833	  -2.47509	
   9.07401	-0.000104385	   9.07374	-7.68689e-05	    9.0841	-6.76547e-05	   9.07728	-8.29695e-05	   9.07728	  -2.07424	
   9.12252	-8.85574e-05	   9.12244	-6.09103e-05	   9.13314	-5.14149e-05	   9.12603	-6.69609e-05	   9.12603	  -1.67402	
   9.17079	-7.27076e-05	    9.1709	-4.49663e-05	   9.18204	-3.52094e-05	   9.17458	-5.09611e-05	   9.17458	  -1.27403	
   9.21885	-5.67992e-05	   9.21915	-2.90017e-05	    9.2297	-1.9046e-05	   9.22256	-3.49489e-05	   9.22256	 -0.873723	
   9.26655	-4.08234e-05	   9.26703	-1.299e-05	    9.2781	-2.89866e-06	   9.27056	-1.8904e-05	   9.27056	   -0.4726	
   9.31392	-2.47953e-05	   9.31443	3.08557e-06	   9.32546	1.32369e-05	   9.31794	-2.8243e-06	   9.31794	-0.0706074	
   9.36098	-8.75816e-06	   9.36138	1.92203e-05	   9.37295	2.94232e-05	    9.3651	1.32951e-05	    9.3651	  0.332378	
   9.40792	7.26422e-06	    9.4081	3.53859e-05	   9.41962	4.56887e-05	   9.41188	2.94463e-05	   9.41188	  0.736157	
   9.45459	2.32377e-05	   9.45459	5.15392e-05	   9.46571	6.20546e-05	    9.4583	4.56105e-05	    9.4583	   1.14026	
   9.50086	3.91864e-05	    9.5007	6.76557e-05	   9.51188	7.84852e-05	   9.50448	6.17757e-05	   9.50448	   1.54439	
   9.54661	5.5129e-05	   9.54632	8.37092e-05	   9.55704	9.49284e-05	   9.54999	7.79222e-05	   9.54999	   1.94805	
   9.59219	7.11186e-05	   9.59134	9.97128e-05	   9.60221	0.000111327	   9.59524	9.40529e-05	   9.59524	   2.35132	
   9.63737	8.7181e-05	   9.63614	0.000115693	   9.64674	0.000127648	   9.64008	0.000110174	   9.64008	   2.75435	
   9.68228	0.000103308	   9.68073	0.000131688	   9.69136	0.000143865	   9.68479	0.000126287	   9.68479	   3.15718	
   9.72681	0.000119458	   9.72498	0.000147729	   9.73558	0.000160005	   9.72912	0.000142397	   9.72912	   3.55993	
   9.77082	0.000135584	   9.76876	0.000163825	   9.77899	0.00017611	   9.77286	0.000158506	   9.77286	   3.96266	
   9.81454	0.000151639	   9.81212	0.000179963	   9.82245	0.000192231	   9.81637	0.000174611	   9.81637	   4.36527	
   9.85799	0.00016761	   9.85512	0.000196112	   9.86517	0.000208416	   9.85942	0.000190712	   9.85942	   4.76781	
   9.90121	0.000183513	   9.89794	0.000212232	   9.90783	0.000224686	   9.90233	0.00020681	   9.90233	   5.17026	
   9.94407	0.000199396	   9.94047	0.000228288	   9.94986	0.000241021	    9.9448	0.000222902	    9.9448	   5.57254	
   9.98646	0.00021531	   9.98259	0.000244274	   9.99163	0.000257377	   9.98689	0.000238987	   9.98689	   5.97467	
   10.0283	0.000231296	   10.0242	0.00026021	   10.0332	0.000273704	   10.0285	0.00025507	   10.0285	   6.37675	
   10.0696	0.000247351	   10.0652	0.000276128	   10.0741	0.000289952	   10.0696	0.000271144	   10.0696	   6.77859	
   10.1106	0.000263437	   10.1058	0.000292065	   10.1149	0.000306112	   10.1104	0.000287205	   10.1104	   7.18013	
   10.1513	0.000279505	   10.1462	0.000308047	   10.1553	0.000322205	   10.1509	0.000303252	   10.1509	   7.58131	
   10.1916	0.000295521	   10.1863	0.000324067	   10.1954	0.000338272	   10.1911	0.000319287	   10.1911	   7.98217	
   10.2314	0.000311456	    10.226	 0.0003401	   10.2351	0.000354366	   10.2308	0.000335308	   10.2308	   8.38269	
   10.2707	0.000327334	   10.2652	0.000356112	   10.2744	0.000370512	   10.2701	0.000351319	   10.2701	   8.78298	
   10.3095	0.000343179	   10.3038	0.000372063	   10.3133	0.000386707	   10.3089	0.000367317	   10.3089	   9.18291	
    10.348	0.000359026	   10.3421	0.000387939	   10.3516	0.000402925	   10.3472	0.000383296	   10.3472	   9.58241	
    10.386	0.000374895	   10.3802	0.000403741	   10.3896	0.000419115	   10.3853	0.000399251	   10.3853	   9.98127	
   10.4238	0.000390793	   10.4181	0.000419497	   10.4271	0.00043524	    10.423	0.000415177	    10.423	   10.3794	
   10.4612	0.000406695	   10.4556	0.000435238	   10.4643	0.000451279	   10.4604	0.000431071	   10.4604	   10.7768	
   10.4982	0.000422581	   10.4927	0.000450997	    10.501	0.000467236	   10.4973	0.000446938	   10.4973	   11.1734	
   10.5347	0.000438436	   10.5292	0.000466783	   10.5371	0.000483132	   10.5336	0.000462784	   10.5336	   11.5696	
   10.5706	0.00045424	    10.565	0.000482587	   10.5727	0.000498996	   10.5695	0.000478608	   10.5695	   11.9652	
   10.6063	0.000469993	   10.6005	0.000498377	   10.6078	0.000514857	   10.6049	0.000494409	   10.6049	   12.3602	
   10.6415	0.00048569	   10.6357	0.000514116	   10.6426	0.000530726	   10.6399	0.000510177	   10.6399	   12.7544	
   10.6763	0.000501337	   10.6704	0.000529776	   10.6771	0.000546612	   10.6746	0.000525908	   10.6746	   13.1477	
   10.7108	0.000516947	   10.7049	0.000545349	   10.7113	0.000562502	    10.709	0.000541599	    10.709	     13.54	
   10.7449	0.000532536	   10.7389	0.000560845	    10.745	0.000578377	   10.7429	0.000557253	   10.7429	   13.9313	
   10.7784	0.000548112	   10.7724	0.00057629	   10.7782	0.000594216	   10.7764	0.000572873	   10.7764	   14.3218	
   10.8113	0.000563694	   10.8054	0.00059172	   10.8111	0.000609998	   10.8092	0.000588471	   10.8092	   14.7118	
   10.8437	0.000579282	   10.8378	0.000607157	   10.8433	0.000625714	   10.8416	0.000604051	   10.8416	   15.1013	
   10.8757	0.000594857	   10.8698	0.000622601	   10.8751	0.000641367	   10.8735	0.000619609	   10.8735	   15.4902	
   10.9072	0.000610396	   10.9012	0.000638038	   10.9065	0.000656963	    10.905	0.000635132	    10.905	   15.8783	
   10.9384	0.000625871	   10.9325	0.000653434	   10.9378	0.000672515	   10.9362	0.000650606	   10.9362	   16.2652	
   10.9692	0.000641259	   10.9634	0.00066875	   10.9687	0.00068803	   10.9671	0.000666013	   10.9671	   16.6503	
   10.9996	0.000656561	   10.9938	0.000683965	   10.9993	0.000703512	   10.9976	0.000681346	   10.9976	   17.0336	
   11.0296	0.000671795	   11.0239	0.000699086	   11.0294	0.000718954	   11.0276	0.000696612	   11.0276	   17.4153	
    11.059	0.00068699	   11.0535	0.000714131	   11.0589	0.000734352	   11.0571	0.000711824	   11.0571	   17.7956	
   11.0878	0.000702179	   11.0825	0.000729133	   11.0879	0.000749701	   11.0861	0.000727004	   11.0861	   18.1751	
    11.116	0.00071737	   11.1109	0.000744123	   11.1163	0.00076499	   11.1144	0.000742161	   11.1144	    18.554	
   11.1437	0.000732562	   11.1389	0.000759115	   11.1443	0.000780219	   11.1423	0.000757299	   11.1423	   18.9325	
    11.171	0.000747728	   11.1663	 0.0007741	   11.1718	0.000795394	   11.1697	0.000772407	   11.1697	   19.3102	
   11.1982	0.000762832	   11.1933	0.000789051	   11.1991	0.000810509	   11.1969	0.000787464	   11.1969	   19.6866	
   11.2251	0.000777847	   11.2202	0.000803934	    11.226	0.000825566	   11.2238	0.000802449	   11.2238	   20.0612	
   11.2516	0.000792769	   11.2468	0.000818724	   11.2525	0.000840566	   11.2503	0.000817353	   11.2503	   20.4338	
   11.2777	0.000807609	   11.2731	0.000833407	   11.2787	0.000855508	   11.2765	0.000832175	   11.2765	   20.8044	
   11.3034	0.000822393	    11.299	0.000847993	   11.3046	0.00087039	   11.3023	0.000846925	   11.3023	   21.1731	
   11.3286	0.000837159	   11.3244	0.000862507	   11.3299	0.000885214	   11.3276	0.000861627	   11.3276	   21.5407	
   11.3533	0.000851919	   11.3494	0.000876976	   11.3547	0.000899981	   11.3525	0.000876292	   11.3525	   21.9073	
   11.3775	0.00086667	   11.3738	0.000891424	    11.379	0.000914685	   11.3768	0.000890926	   11.3768	   22.2732	
   11.4011	0.00088139	   11.3976	0.000905862	   11.4027	0.000929326	   11.4005	0.000905526	   11.4005	   22.6382	
   11.4241	0.000896049	   11.4209	0.000920281	   11.4258	0.000943897	   11.4236	0.000920076	   11.4236	   23.0019	
   11.4465	0.000910616	   11.4436	0.000934654	   11.4482	0.000958391	   11.4461	0.000934553	   11.4461	   23.3638	
   11.4685	0.000925083	   11.4659	0.000948953	   11.4701	0.000972814	   11.4682	0.00094895	   11.4682	   23.7238	
   11.4901	0.000939456	   11.4875	0.000963154	   11.4915	0.000987179	   11.4897	0.000963263	   11.4897	   24.0816	
   11.5114	0.000953758	   11.5087	0.000977249	   11.5127	 0.0010015	   11.5109	0.000977503	   11.5109	   24.4376	
   11.5324	0.000968018	   11.5294	0.000991248	   11.5334	0.00101578	   11.5317	0.000991684	   11.5317	   24.7921	
   11.5532	0.000982255	   11.5498	0.00100518	   11.5539	0.00103002	   11.5523	0.00100582	   11.5523	   25.1454	
   11.5738	0.000996468	   11.5697	0.00101906	   11.5739	0.00104419	   11.5725	0.00101991	   11.5725	   25.4977	
   11.5938	0.00101065	   11.5892	0.00103291	   11.5936	 0.0010583	   11.5922	0.00103395	   11.5922	   25.8488	
   11.6136	0.00102477	   11.6085	0.00104674	   11.6131	0.00107233	   11.6117	0.00104794	   11.6117	   26.1986	
   11.6329	 0.0010388	   11.6272	0.00106052	   11.6322	0.00108628	   11.6308	0.00106187	   11.6308	   26.5467	
   11.6519	0.00105273	   11.6457	0.00107426	   11.6509	0.00110016	   11.6495	0.00107572	   11.6495	   26.8929	
   11.6704	0.00106656	   11.6637	0.00108791	   11.6692	0.00111398	   11.6678	0.00108948	   11.6678	    27.237	
   11.6884	0.00108029	   11.6814	0.00110146	    11.687	0.00112771	   11.6856	0.00110315	   11.6856	   27.5789	
   11.7059	0.00109395	   11.6987	0.00111492	   11.7044	0.00114137	    11.703	0.00111675	    11.703	   27.9187	
    11.723	0.00110757	   11.7155	0.00112827	   11.7213	0.00115494	   11.7199	0.00113026	   11.7199	   28.2564	
   11.7395	0.00112114	   11.7319	0.00114154	   11.7377	 0.0011684	   11.7364	 0.0011437	   11.7364	   28.5924	
   11.7554	0.00113468	   11.7477	0.00115475	   11.7537	0.00118177	   11.7523	0.00115707	   11.7523	   28.9267	
   11.7709	0.00114817	   11.7631	 0.0011679	    11.769	0.00119506	   11.7677	0.00117038	   11.7677	   29.2594	
   11.7857	0.00116157	    11.778	0.00118102	   11.7839	0.00120829	   11.7825	0.00118363	   11.7825	   29.5907	
   11.8001	0.00117488	   11.7923	 0.0011941	   11.7982	0.00122149	   11.7969	0.00119682	   11.7969	   29.9206	
   11.8138	0.00118808	   11.8062	0.00120713	    11.812	0.00123467	   11.8107	0.00120996	   11.8107	    30.249	
    11.827	0.00120117	   11.8195	0.00122007	   11.8252	0.00124784	   11.8239	0.00122303	   11.8239	   30.5757	
   11.8397	0.00121417	   11.8323	0.00123293	   11.8379	0.00126097	   11.8366	0.00123602	   11.8366	   30.9006	
   11.8518	0.00122711	   11.8445	0.00124567	     11.85	0.00127402	   11.8488	0.00124893	   11.8488	   31.2233	
   11.8633	0.00123999	   11.8563	0.00125832	   11.8616	0.00128696	   11.8604	0.00126176	   11.8604	   31.5439	
   11.8743	0.00125282	   11.8675	0.00127088	   11.8727	0.00129977	   11.8715	0.00127449	   11.8715	   31.8622	
   11.8848	0.00126559	   11.8782	0.00128338	   11.8832	0.00131243	   11.8821	0.00128713	   11.8821	   32.1784	
   11.8947	0.00127828	   11.8884	0.00129584	   11.8933	0.00132499	   11.8921	 0.0012997	   11.8921	   32.4926	
   11.9041	0.00129088	   11.8981	0.00130828	   11.9028	0.00133747	   11.9017	0.00131221	   11.9017	   32.8052	
   11.9131	0.00130336	   11.9073	0.00132066	   11.9118	0.00134991	   11.9107	0.00132464	   11.9107	   33.1161	
   11.9215	0.00131574	    11.916	0.00133297	   11.9203	0.00136233	   11.9193	0.00133701	   11.9193	   33.4253	
   11.9294	0.00132802	   11.9242	0.00134518	   11.9284	0.00137473	   11.9273	0.00134931	   11.9273	   33.7327	
   11.9369	0.00134023	    11.932	0.00135727	    11.936	0.00138706	    11.935	0.00136152	    11.935	    34.038	
   11.9439	0.00135237	   11.9394	0.00136924	   11.9431	0.00139929	   11.9421	0.00137363	   11.9421	   34.3408	
   11.9505	0.00136445	   11.9463	0.00138111	   11.9498	0.00141137	   11.9488	0.00138564	   11.9488	   34.6411	
   11.9566	0.00137645	   11.9527	 0.0013929	   11.9561	 0.0014233	   11.9551	0.00139755	   11.9551	   34.9388	
   11.9624	0.00138836	   11.9588	0.00140465	   11.9619	0.00143508	    11.961	0.00140936	    11.961	   35.2341	
   11.9677	0.00140018	   11.9645	0.00141636	   11.9674	0.00144676	   11.9665	 0.0014211	   11.9665	   35.5275	
   11.9726	 0.0014119	   11.9698	0.00142802	   11.9724	0.00145837	   11.9716	0.00143276	   11.9716	   35.8191	
   11.9772	0.00142353	   11.9747	0.00143959	   11.9772	0.00146994	   11.9763	0.00144435	   11.9763	   36.1088	
   11.9814	0.00143507	   11.9792	0.00145106	   11.9815	0.00148147	   11.9807	0.00145586	   11.9807	   36.3966	
   11.9853	0.00144651	   11.9833	0.00146239	   11.9855	0.00149295	   11.9847	0.00146728	   11.9847	   36.6821	
   11.9887	0.00145785	   11.9869	 0.0014736	   11.9892	0.00150434	   11.9883	 0.0014786	   11.9883	    36.965	
   11.9917	 0.0014691	     11.99	0.00148469	   11.9926	0.00151561	   11.9914	 0.0014898	   11.9914	    37.245	
   11.9942	0.00148026	   11.9927	 0.0014957	   11.9957	0.00152672	   11.9942	0.00150089	   11.9942	   37.5223	
   11.9964	0.00149134	   11.9951	0.00150664	   11.9983	0.00153769	   11.9966	0.00151189	   11.9966	   37.7972	
   11.9982	0.00150234	   11.9967	0.00151754	   12.0004	0.00154853	   11.9984	 0.0015228	   11.9984	   38.0701	
   11.9993	0.00151325	   11.9979	0.00152838	   12.0019	0.00155929	   11.9997	0.00153364	   11.9997	    38.341	
   11.9999	0.00152408	   11.9985	0.00153915	   12.0029	0.00156999	   12.0004	0.00154441	   12.0004	   38.6102	
   12.0001	 0.0015348	   11.9983	0.00154983	   12.0034	0.00158067	   12.0006	 0.0015551	   12.0006	   38.8775	
   11.9996	0.00154541	   11.9976	0.00156038	   12.0032	 0.0015913	   12.0001	 0.0015657	   12.0001	   39.1425	
   11.9985	0.00155592	   11.9962	0.00157081	   12.0023	0.00160187	    11.999	 0.0015762	    11.999	    39.405	
   11.9968	0.00156635	   11.9942	0.00158112	   12.0009	0.00161233	   11.9973	 0.0015866	   11.9973	    39.665	
   11.9946	0.00157671	   11.9918	0.00159132	   11.9989	0.00162265	   11.9951	 0.0015969	   11.9951	   39.9224	
   11.9918	0.00158702	    11.989	0.00160145	   11.9964	0.00163283	   11.9924	 0.0016071	   11.9924	   40.1775	
   11.9887	0.00159728	   11.9857	0.00161153	   11.9934	0.00164286	   11.9893	0.00161723	   11.9893	   40.4306	
   11.9851	0.00160748	    11.982	0.00162157	     11.99	0.00165279	   11.9857	0.00162728	   11.9857	   40.6819	
   11.9812	0.00161758	   11.9779	0.00163154	   11.9863	0.00166263	   11.9818	0.00163725	   11.9818	   40.9313	
    11.977	0.00162755	   11.9735	0.00164145	   11.9822	0.00167244	   11.9776	0.00164715	   11.9776	   41.1787	
   11.9726	0.00163741	   11.9686	0.00165125	   11.9777	0.00168222	   11.9729	0.00165696	   11.9729	    41.424	
   11.9676	0.00164714	   11.9633	0.00166095	   11.9726	0.00169196	   11.9678	0.00166668	   11.9678	   41.6671	
   11.9621	 0.0016568	   11.9574	0.00167052	   11.9671	0.00170165	   11.9622	0.00167632	   11.9622	    41.908	
   11.9561	0.00166639	   11.9511	0.00167999	   11.9609	0.00171125	    11.956	0.00168588	    11.956	   42.1469	
   11.9496	0.00167594	   11.9441	0.00168937	   11.9542	0.00172073	   11.9493	0.00169535	   11.9493	   42.3837	
   11.9424	0.00168544	   11.9367	0.00169868	   11.9468	0.00173007	    11.942	0.00170473	    11.942	   42.6183	
   11.9348	0.00169487	   11.9287	0.00170794	    11.939	0.00173927	   11.9342	0.00171403	   11.9342	   42.8507	
   11.9266	 0.0017042	   11.9204	0.00171714	   11.9306	0.00174833	   11.9259	0.00172322	   11.9259	   43.0806	
   11.9181	0.00171341	   11.9117	0.00172628	   11.9219	0.00175728	   11.9172	0.00173232	   11.9172	   43.3081	
   11.9092	 0.0017225	   11.9025	0.00173533	   11.9129	0.00176615	   11.9082	0.00174132	   11.9082	   43.5331	
      11.9	0.00173146	    11.893	0.00174428	   11.9036	0.00177495	   11.8989	0.00175023	   11.8989	   43.7557	
   11.8903	0.00174033	    11.883	0.00175312	   11.8937	0.00178371	    11.889	0.00175905	    11.889	   43.9764	
   11.8799	0.00174912	   11.8724	0.00176186	   11.8836	0.00179245	   11.8786	0.00176781	   11.8786	   44.1953	
    11.869	0.00175785	   11.8612	 0.0017705	   11.8728	0.00180116	   11.8677	 0.0017765	   11.8677	   44.4126	
   11.8575	0.00176651	   11.8495	0.00177905	   11.8615	0.00180983	   11.8562	0.00178513	   11.8562	   44.6283	
   11.8457	 0.0017751	   11.8373	0.00178753	   11.8496	0.00181841	   11.8442	0.00179368	   11.8442	    44.842	
   11.8333	0.00178359	   11.8247	0.00179593	   11.8373	0.00182687	   11.8318	0.00180213	   11.8318	   45.0533	
   11.8206	0.00179197	   11.8117	0.00180426	   11.8245	0.00183518	    11.819	0.00181047	    11.819	   45.2618	
   11.8076	0.00180024	   11.7986	0.00181251	   11.8115	0.00184333	   11.8059	0.00181869	   11.8059	   45.4673	
   11.7941	 0.0018084	    11.785	0.00182066	   11.7982	0.00185133	   11.7925	 0.0018268	   11.7925	   45.6699	
   11.7803	0.00181646	   11.7707	 0.0018287	   11.7843	0.00185923	   11.7784	 0.0018348	   11.7784	   45.8699	
   11.7658	0.00182443	   11.7559	0.00183663	   11.7699	0.00186707	   11.7639	0.00184271	   11.7639	   46.0678	
   11.7509	0.00183232	   11.7406	0.00184446	   11.7548	 0.0018749	   11.7487	0.00185056	   11.7487	    46.264	
   11.7354	0.00184015	   11.7249	0.00185219	   11.7392	0.00188272	   11.7332	0.00185835	   11.7332	   46.4588	
   11.7195	 0.0018479	   11.7088	0.00185985	   11.7232	0.00189052	   11.7172	0.00186609	   11.7172	   46.6522	
   11.7033	0.00185557	   11.6924	0.00186743	   11.7069	0.00189827	   11.7009	0.00187375	   11.7009	   46.8438	
   11.6866	0.00186314	   11.6754	0.00187493	   11.6902	0.00190591	   11.6841	0.00188133	   11.6841	   47.0332	
   11.6693	0.00187062	   11.6578	0.00188235	    11.673	0.00191341	   11.6667	0.00188879	   11.6667	   47.2198	
   11.6515	0.00187799	     11.64	0.00188969	   11.6552	0.00192073	   11.6489	0.00189614	   11.6489	   47.4034	
   11.6332	0.00188527	   11.6216	0.00189692	   11.6369	 0.0019279	   11.6306	0.00190336	   11.6306	   47.5841	
   11.6143	0.00189247	   11.6028	0.00190405	   11.6181	0.00193497	   11.6117	 0.0019105	   11.6117	   47.7624	
   11.5951	 0.0018996	   11.5834	0.00191108	   11.5989	0.00194201	   11.5925	0.00191757	   11.5925	   47.9391	
   11.5756	0.00190665	   11.5639	0.00191803	   11.5793	0.00194909	   11.5729	0.00192459	   11.5729	   48.1147	
   11.5559	0.00191363	   11.5437	0.00192489	   11.5592	 0.0019562	   11.5529	0.00193157	   11.5529	   48.2893	
   11.5357	0.00192052	   11.5229	0.00193167	   11.5387	0.00196327	   11.5324	0.00193849	   11.5324	   48.4622	
   11.5148	0.00192732	   11.5017	0.00193838	   11.5176	0.00197022	   11.5114	0.00194531	   11.5114	   48.6326	
   11.4934	0.00193402	   11.4801	  0.001945	    11.496	0.00197698	   11.4898	  0.001952	   11.4898	      48.8	
   11.4716	0.00194062	   11.4582	0.00195154	    11.474	0.00198349	    11.468	0.00195855	    11.468	   48.9638	
   11.4494	0.00194714	   11.4356	0.00195798	   11.4517	0.00198976	   11.4456	0.00196496	   11.4456	    49.124	
   11.4267	0.00195357	   11.4128	0.00196434	   11.4288	0.00199588	   11.4228	0.00197126	   11.4228	   49.2816	
   11.4033	0.00195993	   11.3894	0.00197059	   11.4054	0.00200194	   11.3994	0.00197749	   11.3994	   49.4372	
   11.3794	0.00196621	   11.3654	0.00197676	   11.3815	0.00200803	   11.3754	0.00198367	   11.3754	   49.5917	
    11.355	0.00197241	   11.3412	0.00198285	   11.3572	0.00201417	   11.3511	0.00198981	   11.3511	   49.7453	
   11.3303	0.00197852	   11.3164	0.00198887	   11.3325	0.00202036	   11.3264	0.00199592	   11.3264	    49.898	
   11.3055	0.00198455	   11.2916	0.00199482	   11.3076	 0.0020265	   11.3016	0.00200196	   11.3016	   50.0489	
   11.2802	 0.0019905	   11.2662	0.00200069	   11.2821	0.00203252	   11.2762	 0.0020079	   11.2762	   50.1975	
   11.2542	0.00199636	   11.2403	0.00200649	   11.2559	0.00203833	   11.2502	0.00201373	   11.2502	   50.3431	
   11.2279	0.00200213	   11.2142	 0.0020122	   11.2293	0.00204392	   11.2238	0.00201942	   11.2238	   50.4854	
   11.2011	0.00200781	   11.1876	0.00201783	   11.2023	0.00204934	    11.197	  0.002025	    11.197	   50.6249	
    11.174	0.00201343	   11.1608	0.00202338	    11.175	0.00205466	   11.1699	0.00203049	   11.1699	   50.7622	
   11.1463	0.00201896	   11.1333	 0.0020289	   11.1471	0.00205995	   11.1423	0.00203594	   11.1423	   50.8984	
    11.118	0.00202441	   11.1053	0.00203438	   11.1187	0.00206526	    11.114	0.00204135	    11.114	   51.0338	
   11.0892	0.00202978	   11.0768	 0.0020398	   11.0898	0.00207059	   11.0853	0.00204672	   11.0853	   51.1681	
   11.0602	0.00203508	   11.0481	0.00204514	   11.0606	0.00207589	   11.0563	0.00205204	   11.0563	   51.3009	
   11.0309	0.00204031	   11.0191	0.00205033	   11.0311	0.00208109	    11.027	0.00205725	    11.027	   51.4311	
   11.0009	0.00204548	   10.9906	0.00205536	   11.0011	0.00208613	   10.9975	0.00206232	   10.9975	   51.5581	
   10.9704	0.00205059	   10.9623	0.00206024	   10.9705	0.00209096	   10.9677	0.00206726	   10.9677	   51.6816	
   10.9394	0.00205561	   10.9333	  0.002065	   10.9396	0.00209562	   10.9374	0.00207208	   10.9374	   51.8019	
    10.908	0.00206055	   10.9048	0.00206969	   10.9083	0.00210017	   10.9071	 0.0020768	   10.9071	   51.9201	
   10.8764	0.00206538	   10.8744	0.00207439	   10.8769	0.00210468	   10.8759	0.00208148	   10.8759	   52.0371	
   10.8443	0.00207012	   10.8443	0.00207913	   10.8447	0.00210922	   10.8445	0.00208615	   10.8445	   52.1538	
   10.8117	0.00207477	   10.8127	 0.0020839	   10.8121	0.00211379	   10.8122	0.00209082	   10.8122	   52.2705	
   10.7788	0.00207934	   10.7797	0.00208866	   10.7792	0.00211836	   10.7792	0.00209545	   10.7792	   52.3864	
   10.7456	0.00208385	   10.7461	0.00209335	   10.7458	0.00212286	   10.7458	0.00210002	   10.7458	   52.5005	
   10.7121	0.00208829	   10.7114	0.00209789	   10.7118	0.00212721	   10.7118	0.00210446	   10.7118	   52.6116	
    10.678	0.00209267	   10.6768	0.00210223	   10.6774	0.00213138	   10.6774	0.00210876	   10.6774	    52.719	
   10.6435	0.00209696	   10.6413	0.00210638	   10.6426	0.00213537	   10.6425	0.00211291	   10.6425	   52.8226	
   10.6088	0.00210115	   10.6061	0.00211039	   10.6072	0.00213925	   10.6074	0.00211693	   10.6074	   52.9233	
   10.5738	0.00210525	   10.5705	0.00211432	   10.5717	0.00214307	    10.572	0.00212088	    10.572	    53.022	
   10.5382	0.00210924	   10.5347	0.00211824	   10.5357	0.00214689	   10.5362	0.00212479	   10.5362	   53.1198	
   10.5022	0.00211316	   10.4992	 0.0021222	   10.4994	0.00215073	   10.5003	 0.0021287	   10.5003	   53.2175	
   10.4658	0.00211703	   10.4627	0.00212617	   10.4627	0.00215457	   10.4638	0.00213259	   10.4638	   53.3147	
   10.4289	0.00212084	   10.4263	0.00213012	   10.4253	0.00215834	   10.4268	0.00213644	   10.4268	   53.4109	
   10.3915	0.00212461	   10.3888	0.00213398	   10.3876	  0.002162	   10.3893	0.00214019	   10.3893	   53.5049	
   10.3538	0.00212831	   10.3511	 0.0021377	   10.3494	 0.0021655	   10.3514	0.00214384	   10.3514	   53.5959	
   10.3157	0.00213193	   10.3128	0.00214126	    10.311	0.00216885	   10.3132	0.00214735	   10.3132	   53.6837	
   10.2774	0.00213546	   10.2738	0.00214467	   10.2724	0.00217209	   10.2745	0.00215074	   10.2745	   53.7685	
   10.2384	0.00213888	   10.2347	0.00214798	   10.2333	0.00217526	   10.2355	0.00215404	   10.2355	    53.851	
   10.1991	0.00214222	    10.195	0.00215126	   10.1938	 0.0021784	    10.196	 0.0021573	    10.196	   53.9324	
   10.1594	0.00214548	   10.1551	0.00215454	   10.1539	0.00218154	   10.1561	0.00216052	   10.1561	    54.013	
   10.1194	0.00214869	   10.1148	0.00215783	   10.1138	0.00218466	    10.116	0.00216373	    10.116	   54.0932	
   10.0788	0.00215185	   10.0742	0.00216111	   10.0732	0.00218773	   10.0754	 0.0021669	   10.0754	   54.1724	
   10.0378	0.00215496	   10.0333	0.00216432	   10.0322	 0.0021907	   10.0344	   0.00217	   10.0344	   54.2499	
   9.99651	0.00215801	   9.99163	0.00216742	   9.99086	0.00219355	     9.993	0.00217299	     9.993	   54.3248	
   9.95465	0.00216099	   9.94986	0.00217036	    9.9489	0.00219626	   9.95114	0.00217587	   9.95114	   54.3968	
   9.91231	0.00216388	   9.90762	0.00217317	   9.90649	0.00219885	   9.90881	0.00217863	   9.90881	   54.4659	
   9.86966	0.00216669	    9.8651	0.00217585	    9.8638	0.00220137	   9.86619	 0.0021813	   9.86619	   54.5326	
   9.82686	 0.0021694	   9.82214	0.00217848	   9.82084	0.00220384	   9.82328	0.00218391	   9.82328	   54.5977	
   9.78345	0.00217204	   9.77861	0.00218109	   9.77744	0.00220632	   9.77983	0.00218648	   9.77983	    54.662	
   9.73962	 0.0021746	    9.7347	0.00218369	   9.73364	0.00220878	   9.73599	0.00218903	   9.73599	   54.7256	
   9.69555	0.00217712	   9.69043	 0.0021863	   9.68963	0.00221122	   9.69187	0.00219154	   9.69187	   54.7886	
   9.65109	0.00217958	   9.64598	0.00218886	   9.64511	0.00221358	   9.64739	0.00219401	   9.64739	   54.8502	
   9.60627	  0.002182	   9.60104	0.00219132	   9.60009	0.00221583	   9.60247	0.00219639	   9.60247	   54.9097	
    9.5611	0.00218436	    9.5558	0.00219366	   9.55478	0.00221795	   9.55723	0.00219866	   9.55723	   54.9665	
   9.51564	0.00218665	   9.51031	0.00219586	   9.50921	0.00221994	   9.51172	0.00220082	   9.51172	   55.0204	
   9.46957	0.00218885	   9.46423	0.00219793	   9.46308	0.00222183	   9.46563	0.00220287	   9.46563	   55.0717	
   9.42309	0.00219096	   9.41779	0.00219993	   9.41657	0.00222365	   9.41915	0.00220485	   9.41915	   55.1211	
   9.37638	0.00219299	   9.37099	0.00220187	   9.36987	0.00222544	   9.37241	0.00220677	   9.37241	   55.1692	
   9.32931	0.00219494	   9.32387	0.00220381	   9.32284	0.00222721	   9.32534	0.00220866	   9.32534	   55.2164	
   9.28175	0.00219685	   9.27629	0.00220574	   9.27534	0.00222896	    9.2778	0.00221052	    9.2778	   55.2629	
    9.2339	0.00219872	   9.22846	0.00220764	   9.22758	0.00223066	   9.22998	0.00221234	   9.22998	   55.3085	
   9.18578	0.00220055	   9.18009	0.00220948	   9.17958	0.00223227	   9.18182	 0.0022141	   9.18182	   55.3526	
   9.13711	0.00220233	   9.13121	0.00221122	   9.13104	0.00223378	   9.13312	0.00221578	   9.13312	   55.3945	
   9.08809	0.00220405	   9.08204	0.00221284	   9.08218	0.00223518	    9.0841	0.00221736	    9.0841	   55.4339	
   9.03876	0.00220568	   9.03245	0.00221434	   9.03317	0.00223648	   9.03479	0.00221883	   9.03479	   55.4708	
   8.98883	0.00220722	   8.98233	0.00221574	   8.98358	 0.0022377	   8.98491	0.00222022	   8.98491	   55.5055	
   8.93853	0.00220868	   8.93187	0.00221708	    8.9336	0.00223887	   8.93467	0.00222154	   8.93467	   55.5386	
   8.88805	0.00221005	   8.88114	0.00221839	   8.88345	0.00224002	   8.88421	0.00222282	   8.88421	   55.5705	
    8.8371	0.00221135	   8.82984	 0.0022197	   8.83267	0.00224115	    8.8332	0.00222407	    8.8332	   55.6016	
   8.78573	0.00221261	   8.77819	0.00222098	   8.78149	0.00224223	   8.78181	0.00222527	   8.78181	   55.6318	
   8.73416	0.00221382	    8.7264	0.00222221	   8.72995	0.00224325	   8.73017	0.00222642	   8.73017	   55.6606	
   8.68219	0.00221498	   8.67415	0.00222335	   8.67816	0.00224418	   8.67816	 0.0022275	   8.67816	   55.6875	
   8.62977	0.00221607	   8.62167	0.00222437	   8.62593	0.00224499	   8.62579	0.00222848	   8.62579	   55.7119	
   8.57712	0.00221708	   8.56885	0.00222526	   8.57332	 0.0022457	    8.5731	0.00222935	    8.5731	   55.7337	
   8.52412	0.00221801	   8.51558	0.00222605	   8.52038	0.00224631	   8.52003	0.00223012	   8.52003	    55.753	
   8.47082	0.00221884	   8.46191	0.00222675	   8.46699	0.00224687	   8.46657	0.00223082	   8.46657	   55.7705	
   8.41726	0.00221958	   8.40807	0.00222741	   8.41337	 0.0022474	    8.4129	0.00223146	    8.4129	   55.7866	
   8.36317	0.00222025	   8.35376	0.00222805	   8.35941	0.00224792	   8.35878	0.00223207	   8.35878	   55.8018	
   8.30861	0.00222086	   8.29905	0.00222867	     8.305	0.00224842	   8.30422	0.00223265	   8.30422	   55.8163	
   8.25382	0.00222143	   8.24416	0.00222925	   8.25035	0.00224888	   8.24944	0.00223319	   8.24944	   55.8296	
   8.19898	0.00222194	   8.18898	0.00222976	   8.19536	0.00224928	   8.19444	0.00223366	   8.19444	   55.8415	
   8.14366	 0.0022224	   8.13339	0.00223017	   8.13993	0.00224959	   8.13899	0.00223405	   8.13899	   55.8513	
   8.08808	 0.0022228	   8.07761	0.00223045	   8.08426	 0.0022498	   8.08332	0.00223435	   8.08332	   55.8587	
   8.03199	0.00222311	   8.02154	0.00223062	   8.02811	0.00224991	   8.02721	0.00223455	   8.02721	   55.8637	
   7.97544	0.00222334	   7.96507	0.00223068	   7.97153	0.00224994	   7.97068	0.00223465	   7.97068	   55.8663	
   7.91867	0.00222348	   7.90841	0.00223067	   7.91476	0.00224988	   7.91395	0.00223468	   7.91395	   55.8669	
   7.86157	0.00222354	   7.85162	0.00223062	   7.85783	0.00224975	   7.85701	0.00223463	   7.85701	   55.8659	
   7.80404	0.00222353	   7.79443	0.00223055	   7.80049	0.00224954	   7.79965	0.00223454	   7.79965	   55.8635	
   7.74631	0.00222348	   7.73706	0.00223043	   7.74294	0.00224927	   7.74211	 0.0022344	   7.74211	   55.8599	
   7.68827	0.00222338	   7.67924	0.00223027	   7.68495	0.00224893	   7.68415	0.00223419	   7.68415	   55.8549	
   7.62984	0.00222323	   7.62105	0.00223003	   7.62657	0.00224853	   7.62582	0.00223393	   7.62582	   55.8482	
   7.57123	0.00222302	   7.56271	0.00222968	   7.56787	0.00224808	   7.56727	0.00223359	   7.56727	   55.8398	
   7.51249	0.00222274	    7.5038	0.00222923	   7.50877	0.00224758	   7.50836	0.00223318	   7.50836	   55.8296	
   7.45338	0.00222239	   7.44457	0.00222867	   7.44933	0.00224703	   7.44909	 0.0022327	   7.44909	   55.8174	
   7.39398	0.00222194	   7.38511	0.00222804	   7.38979	0.00224643	   7.38963	0.00223214	   7.38963	   55.8034	
   7.33433	0.00222142	   7.32514	0.00222735	   7.32988	0.00224576	   7.32978	0.00223151	   7.32978	   55.7877	
   7.27434	0.00222082	   7.26489	0.00222663	   7.26967	0.00224497	   7.26963	0.00223081	   7.26963	   55.7702	
   7.21423	0.00222017	   7.20444	0.00222587	   7.20939	0.00224408	   7.20935	0.00223004	   7.20935	    55.751	
   7.15374	0.00221946	   7.14369	0.00222506	   7.14892	 0.0022431	   7.14878	0.00222921	   7.14878	   55.7302	
   7.09295	0.00221871	   7.08271	0.00222419	   7.08818	0.00224205	   7.08795	0.00222832	   7.08795	   55.7079	
   7.03177	0.00221791	   7.02125	0.00222322	   7.02723	0.00224097	   7.02675	0.00222737	   7.02675	   55.6842	
   6.97013	0.00221705	   6.95939	0.00222215	   6.96581	0.00223989	   6.96511	0.00222636	   6.96511	   55.6591	
   6.90826	0.00221612	   6.89738	0.00222098	   6.90418	 0.0022388	   6.90328	 0.0022253	   6.90328	   55.6325	
   6.84624	 0.0022151	   6.83512	0.00221973	    6.8424	0.00223768	   6.84125	0.00222417	   6.84125	   55.6043	
   6.78381	0.00221399	   6.77253	 0.0022184	   6.78022	 0.0022365	   6.77885	0.00222296	   6.77885	   55.5741	
   6.72122	 0.0022128	   6.70984	0.00221703	   6.71787	 0.0022352	   6.71631	0.00222167	   6.71631	   55.5418	
   6.65837	0.00221153	   6.64696	0.00221562	   6.65526	0.00223375	   6.65353	 0.0022203	   6.65353	   55.5075	
   6.59518	0.00221021	   6.58379	0.00221417	   6.59232	0.00223217	   6.59043	0.00221885	   6.59043	   55.4713	
    6.5319	0.00220884	   6.52042	0.00221268	   6.52928	0.00223048	    6.5272	0.00221733	    6.5272	   55.4333	
   6.46825	0.00220742	    6.4566	0.00221112	   6.46619	0.00222873	   6.46368	0.00221576	   6.46368	   55.3939	
   6.40434	0.00220595	   6.39257	0.00220947	    6.4028	0.00222697	    6.3999	0.00221413	    6.3999	   55.3533	
   6.34039	0.00220442	   6.32845	0.00220773	   6.33935	0.00222523	   6.33607	0.00221246	   6.33607	   55.3115	
   6.27616	 0.0022028	   6.26395	0.00220591	   6.27543	0.00222348	   6.27185	0.00221073	   6.27185	   55.2683	
   6.21171	0.00220111	   6.19933	0.00220401	   6.21129	 0.0022217	   6.20744	0.00220894	   6.20744	   55.2235	
   6.14698	0.00219933	   6.13464	0.00220206	   6.14699	0.00221983	   6.14287	0.00220707	   6.14287	   55.1769	
   6.08188	0.00219749	   6.06964	 0.0022001	   6.08231	0.00221782	   6.07794	0.00220514	   6.07794	   55.1284	
   6.01666	0.00219559	   6.00444	0.00219812	   6.01749	0.00221567	   6.01287	0.00220312	   6.01287	   55.0781	
   5.95109	0.00219363	   5.93894	0.00219611	   5.95244	0.00221339	   5.94749	0.00220104	   5.94749	    55.026	
   5.88524	0.00219164	   5.87322	0.00219403	   5.88708	0.00221103	   5.88185	 0.0021989	   5.88185	   54.9725	
   5.81937	 0.0021896	   5.80721	0.00219186	   5.82165	0.00220865	   5.81608	 0.0021967	   5.81608	   54.9176	
   5.75322	0.00218751	   5.74098	0.00218958	   5.75576	0.00220629	   5.74999	0.00219446	   5.74999	   54.8615	
   5.68688	0.00218536	   5.67462	0.00218718	   5.68966	0.00220395	   5.68372	0.00219216	   5.68372	   54.8041	
   5.62033	0.00218313	   5.60787	 0.0021847	   5.62333	0.00220159	   5.61718	0.00218981	   5.61718	   54.7451	
   5.55344	0.00218081	   5.54084	0.00218215	   5.55679	0.00219918	   5.55036	0.00218738	   5.55036	   54.6845	
   5.48645	0.00217841	   5.47379	 0.0021796	   5.49013	0.00219665	   5.48346	0.00218489	   5.48346	   54.6222	
   5.41929	0.00217594	   5.40632	0.00217705	   5.42311	  0.002194	   5.41624	0.00218233	   5.41624	   54.5582	
   5.35188	0.00217341	   5.33868	0.00217451	   5.35583	0.00219121	    5.3488	0.00217971	    5.3488	   54.4927	
   5.28431	0.00217084	   5.27111	0.00217195	   5.28853	0.00218831	   5.28132	0.00217703	   5.28132	   54.4259	
   5.21647	0.00216823	   5.20321	0.00216935	   5.22081	0.00218533	    5.2135	 0.0021743	    5.2135	   54.3576	
   5.14848	0.00216558	   5.13523	0.00216664	   5.15276	0.00218234	   5.14549	0.00217152	   5.14549	    54.288	
   5.08042	0.00216287	   5.06693	 0.0021638	   5.08434	0.00217934	   5.07723	0.00216867	   5.07723	   54.2168	
   5.01206	0.00216009	   4.99841	0.00216083	   5.01565	0.00217636	   5.00871	0.00216576	   5.00871	    54.144	
   4.94365	0.00215722	   4.92975	0.00215776	   4.94676	0.00217336	   4.94006	0.00216278	   4.94006	   54.0695	
   4.87495	0.00215425	   4.86073	0.00215461	   4.87763	0.00217033	    4.8711	0.00215973	    4.8711	   53.9933	
   4.80606	0.00215121	   4.79185	0.00215144	   4.80834	 0.0021672	   4.80208	0.00215661	   4.80208	   53.9154	
   4.73691	0.00214809	   4.72246	0.00214827	   4.73882	0.00216395	   4.73273	0.00215344	   4.73273	   53.8359	
   4.66743	0.00214492	   4.65314	 0.0021451	   4.66901	0.00216058	   4.66319	 0.0021502	   4.66319	    53.755	
   4.59789	 0.0021417	   4.58349	0.00214191	   4.59917	0.00215711	   4.59352	0.00214691	   4.59352	   53.6727	
   4.52789	0.00213844	   4.51362	0.00213866	    4.5289	0.00215356	   4.52347	0.00214355	   4.52347	   53.5888	
   4.45771	0.00213512	   4.44387	0.00213531	   4.45848	0.00214999	   4.45335	0.00214014	   4.45335	   53.5035	
   4.38759	0.00213174	   4.37357	0.00213184	   4.38783	0.00214642	     4.383	0.00213667	     4.383	   53.4166	
   4.31714	0.00212828	   4.30349	0.00212825	    4.3169	0.00214288	   4.31251	0.00213314	   4.31251	   53.3284	
   4.24645	0.00212473	   4.23305	0.00212456	   4.24594	0.00213932	   4.24181	0.00212954	   4.24181	   53.2385	
   4.17547	0.00212111	   4.16252	0.00212082	   4.17473	0.00213568	   4.17091	0.00212587	   4.17091	   53.1468	
   4.10431	 0.0021174	   4.09213	0.00211705	   4.10336	0.00213192	   4.09993	0.00212213	   4.09993	   53.0531	
   4.03309	0.00211363	   4.02143	0.00211326	   4.03184	0.00212801	   4.02878	 0.0021183	   4.02878	   52.9575	
    3.9617	 0.0021098	   3.95073	0.00210945	   3.96003	0.00212396	   3.95749	 0.0021144	   3.95749	   52.8601	
   3.89025	0.00210592	   3.87981	0.00210559	   3.88821	0.00211982	   3.88609	0.00211044	   3.88609	   52.7611	
   3.81866	0.00210198	   3.80907	0.00210166	    3.8163	0.00211564	   3.81467	0.00210643	   3.81467	   52.6607	
   3.74687	0.00209799	    3.7381	0.00209763	   3.74423	0.00211146	   3.74306	0.00210236	   3.74306	    52.559	
   3.67497	0.00209392	   3.66717	0.00209349	   3.67225	0.00210731	   3.67146	0.00209824	   3.67146	    52.456	
     3.603	0.00208977	   3.59612	0.00208923	    3.6001	0.00210316	   3.59974	0.00209405	   3.59974	   52.3513	
   3.53094	0.00208553	    3.5248	0.00208488	    3.5279	0.00209894	   3.52788	0.00208979	   3.52788	   52.2447	
   3.45859	0.00208122	   3.45331	0.00208047	   3.45559	 0.0020946	   3.45583	0.00208543	   3.45583	   52.1358	
   3.38604	0.00207684	   3.38175	0.00207601	    3.3831	0.00209009	   3.38363	0.00208098	   3.38363	   52.0245	
   3.31339	0.00207239	   3.31019	0.00207151	   3.31069	0.00208541	   3.31142	0.00207644	   3.31142	    51.911	
   3.24056	0.00206789	   3.23851	0.00206697	   3.23821	 0.0020806	   3.23909	0.00207182	   3.23909	   51.7955	
   3.16767	0.00206333	    3.1667	0.00206237	   3.16566	0.00207573	   3.16668	0.00206714	   3.16668	   51.6786	
   3.09466	 0.0020587	   3.09486	0.00205768	   3.09314	0.00207087	   3.09422	0.00206242	   3.09422	   51.5604	
   3.02147	  0.002054	   3.02276	0.00205288	   3.02041	0.00206604	   3.02155	0.00205764	   3.02155	    51.441	
   2.94836	0.00204921	   2.95065	0.00204798	   2.94773	0.00206122	   2.94891	 0.0020528	   2.94891	   51.3201	
   2.87508	0.00204434	   2.87847	0.00204298	   2.87487	0.00205637	   2.87614	 0.0020479	   2.87614	   51.1974	
   2.80175	 0.0020394	   2.80615	0.00203791	   2.80193	0.00205141	   2.80328	0.00204291	   2.80328	   51.0726	
   2.72846	0.00203439	   2.73362	 0.0020328	   2.72854	0.00204629	    2.7302	0.00203783	    2.7302	   50.9457	
   2.65496	0.00202933	   2.66084	0.00202766	   2.65496	  0.002041	   2.65692	0.00203266	   2.65692	   50.8166	
   2.58138	0.00202421	   2.58805	 0.0020225	     2.581	0.00203558	   2.58348	0.00202743	   2.58348	   50.6857	
   2.50781	0.00201903	    2.5149	0.00201729	   2.50724	0.00203006	   2.50998	0.00202213	   2.50998	   50.5532	
   2.43417	 0.0020138	   2.44163	0.00201197	   2.43314	0.00202452	   2.43631	0.00201676	   2.43631	   50.4191	
   2.36047	 0.0020085	   2.36839	0.00200651	   2.35902	0.00201899	   2.36263	0.00201133	   2.36263	   50.2833	
   2.28658	0.00200312	   2.29507	0.00200085	   2.28507	0.00201347	   2.28891	0.00200581	   2.28891	   50.1453	
   2.21276	0.00199767	   2.22176	0.00199502	   2.21059	0.00200792	   2.21504	 0.0020002	   2.21504	   50.0051	
   2.13879	0.00199214	    2.1484	0.00198909	   2.13649	 0.0020023	   2.14122	0.00199451	   2.14122	   49.8628	
   2.06476	0.00198654	   2.07491	0.00198316	   2.06205	0.00199654	   2.06724	0.00198875	   2.06724	   49.7187	
   1.99079	0.00198088	   2.00106	0.00197732	    1.9876	0.00199064	   1.99315	0.00198295	   1.99315	   49.5736	
   1.91664	0.00197515	   1.92636	 0.0019716	   1.91302	 0.0019846	   1.91867	0.00197711	   1.91867	   49.4279	
   1.84256	0.00196936	   1.85051	0.00196594	   1.83811	0.00197846	   1.84372	0.00197125	   1.84372	   49.2813	
   1.76816	0.00196352	   1.77432	0.00196025	   1.76343	0.00197227	   1.76864	0.00196535	   1.76864	   49.1336	
   1.69373	0.00195761	   1.69761	0.00195441	    1.6883	0.00196607	   1.69321	0.00195936	   1.69321	   48.9841	
   1.61919	 0.0019516	   1.62114	0.00194833	   1.61347	0.00195987	   1.61793	0.00195326	   1.61793	   48.8316	
    1.5445	0.00194546	   1.54494	0.00194197	   1.53828	0.00195364	   1.54257	0.00194703	   1.54257	   48.6756	
   1.46975	0.00193921	   1.46866	0.00193541	    1.4631	0.00194736	   1.46717	0.00194066	   1.46717	   48.5165	
   1.39489	0.00193288	   1.39304	0.00192875	   1.38804	0.00194096	   1.39199	 0.0019342	   1.39199	   48.3549	
   1.32002	0.00192653	   1.31734	0.00192209	   1.31271	0.00193442	   1.31669	0.00192768	   1.31669	    48.192	
   1.24492	 0.0019202	   1.24197	 0.0019155	   1.23768	0.00192774	   1.24153	0.00192114	   1.24153	   48.0286	
    1.1697	 0.0019139	   1.16621	0.00190898	   1.16241	0.00192094	   1.16611	0.00191461	   1.16611	   47.8651	
   1.09438	0.00190761	    1.0908	0.00190246	   1.08731	0.00191408	   1.09083	0.00190805	   1.09083	   47.7012	
   1.01882	0.00190127	   1.01487	0.00189586	     1.012	 0.0019072	   1.01523	0.00190144	   1.01523	   47.5361	
   0.94315	 0.0018948	   0.93921	0.00188908	  0.936595	 0.0019003	  0.939652	0.00189473	  0.939652	   47.3682	
  0.867315	0.00188814	  0.863724	0.00188208	    0.8615	 0.0018934	   0.86418	0.00188787	   0.86418	   47.1968	
  0.791425	0.00188126	  0.787243	0.00187486	  0.786318	0.00188644	  0.788329	0.00188086	  0.788329	   47.0214	
  0.715581	0.00187418	  0.712138	0.00186749	  0.711307	 0.0018794	  0.713008	0.00187369	  0.713008	   46.8422	
   0.63981	0.00186697	  0.635819	0.00186005	  0.636075	0.00187223	  0.637235	0.00186642	  0.637235	   46.6605	
   0.56411	0.00185974	  0.560583	0.00185269	   0.56089	0.00186491	  0.561861	0.00185911	  0.561861	   46.4778	
  0.488568	0.00185255	  0.484713	0.00184542	  0.485687	0.00185744	  0.486323	 0.0018518	  0.486323	   46.2951	
  0.412954	0.00184541	  0.409453	0.00183825	  0.410402	0.00184988	  0.410936	0.00184451	  0.410936	   46.1128	
  0.337367	 0.0018383	  0.334533	0.00183109	  0.335293	0.00184227	  0.335731	0.00183722	  0.335731	   45.9306	
  0.261715	0.00183114	  0.258891	0.00182385	  0.260095	0.00183467	  0.260234	0.00182989	  0.260234	   45.7473	
  0.186125	0.00182385	  0.184123	0.00181641	  0.184939	0.00182709	  0.185062	0.00182245	  0.185062	   45.5613	
  0.110846	0.00181637	  0.108369	0.00180871	  0.109914	0.00181952	   0.10971	0.00181487	   0.10971	   45.3717	
  0.035478	0.00180868	  0.033371	0.00180075	 0.0347928	0.00181189	 0.0345473	0.00180711	 0.0345473	   45.1777	
-0.0397217	0.00180083	-0.0422487	 0.0017926	-0.0401683	0.00180413	-0.0407129	0.00179919	-0.0407129	   44.9797	
 -0.114985	0.00179288	 -0.118032	0.00178438	 -0.115201	 0.0017962	 -0.116073	0.00179115	 -0.116073	   44.7788	
 -0.190214	 0.0017849	 -0.193337	0.00177619	 -0.190208	0.00178807	 -0.191253	0.00178305	 -0.191253	   44.5763	
 -0.265474	0.00177695	 -0.268956	0.00176809	 -0.265255	0.00177977	 -0.266562	0.00177494	 -0.266562	   44.3734	
 -0.340827	0.00176903	 -0.343984	0.00176008	 -0.340404	0.00177138	 -0.341738	0.00176683	 -0.341738	   44.1707	
 -0.416015	 0.0017611	  -0.41963	 0.0017521	 -0.415395	0.00176296	 -0.417013	0.00175872	 -0.417013	   43.9679	
 -0.491427	0.00175308	 -0.494965	0.00174403	 -0.490461	0.00175457	 -0.492284	0.00175056	 -0.492284	    43.764	
 -0.566795	0.00174493	 -0.570231	0.00173579	 -0.565504	0.00174623	  -0.56751	0.00174231	  -0.56751	   43.5578	
 -0.642121	0.00173658	 -0.645561	0.00172732	 -0.640402	 0.0017379	 -0.642694	0.00173393	 -0.642694	   43.3483	
 -0.717532	0.00172807	  -0.72048	0.00171864	 -0.715416	0.00172951	 -0.717809	0.00172541	 -0.717809	   43.1351	
 -0.792771	0.00171942	  -0.79571	0.00170984	 -0.790288	0.00172098	 -0.792923	0.00171675	 -0.792923	   42.9187	
 -0.868071	0.00171071	 -0.870507	0.00170099	 -0.865408	0.00171227	 -0.867995	0.00170799	 -0.867995	   42.6998	
 -0.943333	  0.001702	 -0.945441	0.00169217	 -0.940504	0.00170337	 -0.943093	0.00169918	 -0.943093	   42.4795	
  -1.01844	0.00169333	  -1.02034	0.00168341	  -1.01558	0.00169432	  -1.01812	0.00169035	  -1.01812	   42.2589	
  -1.09365	0.00168468	  -1.09503	0.00167469	  -1.09076	0.00168519	  -1.09315	0.00168152	  -1.09315	    42.038	
  -1.16886	  0.001676	   -1.1699	0.00166593	  -1.16579	0.00167604	  -1.16818	0.00167266	  -1.16818	   41.8165	
  -1.24398	0.00166722	  -1.24437	0.00165705	  -1.24091	0.00166693	  -1.24309	0.00166373	  -1.24309	   41.5933	
  -1.31908	0.00165829	  -1.31887	0.00164799	    -1.316	0.00165783	  -1.31798	 0.0016547	  -1.31798	   41.3676	
  -1.39391	0.00164919	  -1.39312	0.00163874	  -1.39099	 0.0016487	  -1.39267	0.00164555	  -1.39267	   41.1386	
  -1.46875	0.00163994	   -1.4673	0.00162934	  -1.46596	0.00163949	  -1.46734	0.00163626	  -1.46734	   40.9064	
  -1.54347	0.00163059	  -1.54139	0.00161985	  -1.54081	0.00163012	  -1.54189	0.00162686	  -1.54189	   40.6714	
  -1.61814	0.00162119	  -1.61548	0.00161035	  -1.61575	0.00162059	  -1.61646	0.00161738	  -1.61646	   40.4344	
  -1.69284	 0.0016118	  -1.68964	0.00160088	   -1.6907	0.00161088	  -1.69106	0.00160786	  -1.69106	   40.1964	
  -1.76731	0.00160242	  -1.76361	0.00159145	  -1.76539	0.00160104	  -1.76544	 0.0015983	  -1.76544	   39.9575	
   -1.8418	0.00159301	  -1.83763	  0.001582	  -1.84008	0.00159112	  -1.83983	0.00158871	  -1.83983	   39.7177	
   -1.9162	0.00158354	  -1.91161	0.00157244	  -1.91467	0.00158119	  -1.91416	0.00157906	  -1.91416	   39.4764	
  -1.99045	0.00157395	  -1.98561	 0.0015627	  -1.98923	0.00157128	  -1.98843	0.00156931	  -1.98843	   39.2328	
  -2.06461	0.00156422	  -2.05971	0.00155272	  -2.06384	0.00156141	  -2.06272	0.00155945	  -2.06272	   38.9862	
   -2.1386	0.00155436	  -2.13365	0.00154252	  -2.13824	0.00155152	  -2.13683	0.00154947	  -2.13683	   38.7366	
  -2.21251	 0.0015444	  -2.20767	0.00153217	  -2.21251	0.00154155	  -2.21089	0.00153937	  -2.21089	   38.4843	
  -2.28641	0.00153439	  -2.28166	0.00152176	  -2.28673	0.00153145	  -2.28493	 0.0015292	  -2.28493	     38.23	
  -2.36017	0.00152438	  -2.35539	0.00151139	  -2.36065	0.00152117	  -2.35874	0.00151898	  -2.35874	   37.9745	
  -2.43391	0.00151436	   -2.4291	0.00150108	  -2.43453	0.00151071	  -2.43251	0.00150872	  -2.43251	   37.7179	
  -2.50754	 0.0015043	   -2.5027	0.00149083	  -2.50827	 0.0015001	  -2.50617	0.00149841	  -2.50617	   37.4602	
  -2.58098	0.00149414	  -2.57612	0.00148056	  -2.58181	0.00148939	  -2.57964	0.00148803	  -2.57964	   37.2007	
  -2.65417	0.00148381	  -2.64959	0.00147018	  -2.65538	0.00147863	  -2.65305	0.00147754	  -2.65305	   36.9385	
  -2.72718	 0.0014733	  -2.72287	0.00145961	  -2.72873	0.00146786	  -2.72626	0.00146692	  -2.72626	   36.6731	
  -2.79979	0.00146262	  -2.79605	0.00144881	  -2.80196	 0.0014571	  -2.79927	0.00145618	  -2.79927	   36.4044	
  -2.87243	0.00145185	  -2.86919	0.00143782	  -2.87514	0.00144632	  -2.87225	0.00144533	  -2.87225	   36.1332	
  -2.94484	0.00144105	  -2.94206	 0.0014267	  -2.94819	 0.0014355	  -2.94503	0.00143442	  -2.94503	   35.8604	
  -3.01743	0.00143031	  -3.01507	0.00141554	  -3.02119	 0.0014246	   -3.0179	0.00142348	   -3.0179	    35.587	
  -3.09057	0.00141964	  -3.08796	0.00140441	  -3.09406	0.00141354	  -3.09086	0.00141253	  -3.09086	   35.3133	
  -3.16397	  0.001409	  -3.16074	0.00139333	  -3.16694	0.00140235	  -3.16388	0.00140156	  -3.16388	    35.039	
  -3.23753	0.00139832	  -3.23357	0.00138226	  -3.23983	  0.001391	  -3.23698	0.00139053	  -3.23698	   34.7631	
  -3.31097	0.00138749	  -3.30619	0.00137113	  -3.31251	0.00137956	  -3.30989	0.00137939	  -3.30989	   34.4847	
  -3.38408	0.00137645	  -3.37869	0.00135986	  -3.38504	0.00136805	  -3.38261	0.00136812	  -3.38261	    34.203	
   -3.4571	0.00136519	  -3.45116	0.00134841	  -3.45753	0.00135654	  -3.45526	0.00135671	  -3.45526	   33.9178	
  -3.52964	0.00135376	  -3.52336	0.00133678	  -3.52972	0.00134502	  -3.52758	0.00134519	  -3.52758	   33.6297	
  -3.60179	0.00134226	  -3.59532	0.00132502	  -3.60166	 0.0013335	  -3.59959	 0.0013336	  -3.59959	   33.3399	
  -3.67382	0.00133077	  -3.66719	0.00131322	   -3.6735	0.00132193	   -3.6715	0.00132197	   -3.6715	   33.0493	
  -3.74553	0.00131935	  -3.73875	0.00130143	  -3.74501	0.00131026	   -3.7431	0.00131035	   -3.7431	   32.7586	
  -3.81715	0.00130798	  -3.81024	0.00128968	   -3.8163	0.00129845	  -3.81456	 0.0012987	  -3.81456	   32.4676	
  -3.88862	0.00129661	   -3.8816	0.00127796	  -3.88745	0.00128647	  -3.88589	0.00128701	  -3.88589	   32.1753	
  -3.95996	0.00128515	  -3.95285	0.00126617	  -3.95837	0.00127434	  -3.95706	0.00127522	  -3.95706	   31.8805	
  -4.03132	0.00127352	  -4.02413	0.00125426	  -4.02934	 0.0012621	  -4.02827	0.00126329	  -4.02827	   31.5823	
  -4.10246	0.00126171	  -4.09537	0.00124215	  -4.10012	 0.0012498	  -4.09932	0.00125122	  -4.09932	   31.2804	
  -4.17364	0.00124971	  -4.16663	0.00122984	  -4.17081	0.00123748	  -4.17036	0.00123901	  -4.17036	   30.9752	
  -4.24476	0.00123759	  -4.23738	0.00121739	  -4.24148	0.00122517	  -4.24121	0.00122672	  -4.24121	   30.6679	
  -4.31576	0.00122542	  -4.30804	0.00120489	  -4.31191	0.00121286	   -4.3119	0.00121439	   -4.3119	   30.3597	
  -4.38638	0.00121327	  -4.37836	0.00119242	    -4.382	 0.0012005	  -4.38225	0.00120206	  -4.38225	   30.0515	
  -4.45691	0.00120116	  -4.44846	0.00118002	  -4.45206	0.00118805	  -4.45248	0.00118974	  -4.45248	   29.7436	
  -4.52712	0.00118907	  -4.51846	0.00116769	  -4.52201	0.00117545	  -4.52253	0.00117741	  -4.52253	   29.4351	
  -4.59713	0.00117694	  -4.58828	0.00115535	  -4.59178	0.00116271	   -4.5924	  0.001165	   -4.5924	    29.125	
  -4.66703	0.00116468	  -4.65802	0.00114291	  -4.66131	0.00114983	  -4.66212	0.00115248	  -4.66212	   28.8119	
  -4.73659	0.00115226	  -4.72744	0.00113029	  -4.73054	0.00113688	  -4.73152	0.00113981	  -4.73152	   28.4952	
  -4.80612	0.00113966	  -4.79673	0.00111746	  -4.79952	0.00112388	  -4.80079	  0.001127	  -4.80079	    28.175	
   -4.8755	 0.0011269	  -4.86592	0.00110445	  -4.86841	0.00111089	  -4.86994	0.00111408	  -4.86994	    27.852	
  -4.94452	0.00111407	  -4.93478	0.00109134	    -4.937	 0.0010979	  -4.93876	0.00110111	  -4.93876	   27.5276	
  -5.01361	0.00110121	  -5.00357	0.00107822	  -5.00555	0.00108491	  -5.00757	0.00108811	  -5.00757	   27.2028	
  -5.08253	0.00108837	  -5.07224	0.00106514	  -5.07399	0.00107185	  -5.07625	0.00107512	  -5.07625	    26.878	
  -5.15106	0.00107555	  -5.14056	0.00105214	   -5.1421	0.00105868	  -5.14457	0.00106213	  -5.14457	   26.5532	
  -5.21949	0.00106274	  -5.20865	0.00103917	  -5.21016	0.00104537	  -5.21276	0.00104909	  -5.21276	   26.2274	
  -5.28774	0.00104985	  -5.27662	0.00102614	  -5.27809	0.00103193	  -5.28081	0.00103598	  -5.28081	   25.8994	
   -5.3556	0.00103685	  -5.34424	0.00101298	  -5.34569	0.00101839	  -5.34851	0.00102274	  -5.34851	   25.5685	
  -5.42304	0.00102368	  -5.41179	0.000999618	  -5.41306	 0.0010048	  -5.41597	0.00100937	  -5.41597	   25.2341	
  -5.49034	0.00101036	  -5.47922	0.000986059	  -5.48032	0.000991199	  -5.48329	0.000995873	  -5.48329	   24.8968	
  -5.55753	0.000996925	  -5.54642	0.000972367	  -5.54725	0.000977614	   -5.5504	0.000982302	   -5.5504	   24.5576	
  -5.62461	0.000983429	  -5.61353	0.000958635	  -5.61412	0.000964025	  -5.61742	0.000968696	  -5.61742	   24.2174	
  -5.69154	0.00096992	  -5.68051	0.000944947	  -5.68088	0.000950393	  -5.68431	0.000955087	  -5.68431	   23.8772	
   -5.7581	0.000956422	  -5.74729	0.000931344	   -5.7473	0.000936671	  -5.75089	0.000941479	  -5.75089	    23.537	
   -5.8244	0.000942918	  -5.81367	0.000917802	  -5.81367	0.000922821	  -5.81725	0.000927847	  -5.81725	   23.1962	
  -5.89042	0.000929348	  -5.87976	0.000904249	  -5.87993	0.000908834	  -5.88337	0.000914144	  -5.88337	   22.8536	
   -5.9561	0.000915668	  -5.94567	0.000890591	  -5.94598	0.000894732	  -5.94925	0.00090033	  -5.94925	   22.5083	
  -6.02127	0.00090185	  -6.01137	0.000876749	  -6.01182	0.000880553	  -6.01482	0.000886384	  -6.01482	   22.1596	
  -6.08636	0.00088791	  -6.07697	0.000862697	   -6.0774	0.000866341	  -6.08024	0.000872316	  -6.08024	   21.8079	
  -6.15117	0.00087389	  -6.14227	0.000848465	  -6.14268	0.000852125	  -6.14538	0.00085816	  -6.14538	    21.454	
  -6.21567	0.000859841	  -6.20722	0.000834118	  -6.20763	0.000837904	  -6.21017	0.000843954	  -6.21017	   21.0989	
  -6.28013	0.000845801	  -6.27196	0.000819759	  -6.27236	0.000823657	  -6.27482	0.000829739	  -6.27482	   20.7435	
  -6.34435	0.00083178	  -6.33644	0.000805451	  -6.33684	0.000809345	  -6.33921	0.000815525	  -6.33921	   20.3881	
  -6.40812	0.00081774	  -6.40046	0.000791238	  -6.40103	0.00079493	   -6.4032	0.000801303	   -6.4032	   20.0326	
  -6.47174	0.000803617	  -6.46433	0.000777085	  -6.46505	 0.0007804	  -6.46704	0.000787034	  -6.46704	   19.6758	
  -6.53517	0.000789355	  -6.52783	0.000762932	  -6.52885	0.000765754	  -6.53062	0.000772681	  -6.53062	    19.317	
  -6.59822	0.00077492	  -6.59095	 0.0007487	  -6.59241	0.00075102	  -6.59386	0.000758213	  -6.59386	   18.9553	
  -6.66082	0.000760312	  -6.65389	0.000734331	   -6.6555	0.000736233	  -6.65674	0.000743625	  -6.65674	   18.5906	
  -6.72332	0.000745577	  -6.71669	0.000719789	  -6.71844	0.000721427	  -6.71948	0.000728931	  -6.71948	   18.2233	
  -6.78551	0.000730789	  -6.77917	0.000705089	  -6.78105	0.000706616	  -6.78191	0.000714164	  -6.78191	   17.8541	
  -6.84736	0.000716012	  -6.84129	0.00069028	  -6.84345	0.000691797	  -6.84403	0.000699363	  -6.84403	   17.4841	
  -6.90917	 0.0007013	  -6.90336	0.000675435	  -6.90577	0.000676948	   -6.9061	0.000684561	   -6.9061	    17.114	
  -6.97074	0.000686662	  -6.96516	0.00066061	   -6.9678	0.000662031	   -6.9679	0.000669767	   -6.9679	   16.7442	
    -7.032	0.000672072	  -7.02665	0.000645831	  -7.02949	0.000647018	  -7.02938	0.000654974	  -7.02938	   16.3743	
  -7.09296	0.000657475	  -7.08797	0.000631087	  -7.09069	0.000631899	  -7.09054	0.000640153	  -7.09054	   16.0038	
  -7.15361	0.00064279	  -7.14911	0.000616335	  -7.15171	0.000616679	  -7.15148	0.000625268	  -7.15148	   15.6317	
  -7.21392	0.000627954	  -7.20987	0.000601513	  -7.21236	0.00060139	  -7.21205	0.000610286	  -7.21205	   15.2571	
  -7.27388	0.000612932	  -7.27023	0.00058658	  -7.27246	0.000586067	  -7.27219	0.000595193	  -7.27219	   14.8798	
  -7.33346	0.000597732	  -7.33034	0.000571521	  -7.33249	0.000570737	   -7.3321	0.000579997	   -7.3321	   14.4999	
   -7.3927	0.000582408	  -7.39019	0.000556354	  -7.39226	0.000555406	  -7.39171	0.000564723	  -7.39171	   14.1181	
  -7.45154	0.000567044	  -7.44958	0.000541128	  -7.45158	0.000540059	   -7.4509	0.00054941	   -7.4509	   13.7353	
  -7.50998	0.00055172	  -7.50883	0.000525893	  -7.51061	0.000524663	  -7.50981	0.000534092	  -7.50981	   13.3523	
  -7.56834	0.000536481	  -7.56792	0.000510681	  -7.56949	0.000509192	  -7.56858	0.000518785	  -7.56858	   12.9696	
  -7.62641	0.000521332	  -7.62665	0.000495499	  -7.62804	0.000493638	  -7.62703	0.00050349	  -7.62703	   12.5872	
  -7.68404	0.00050623	  -7.68486	0.000480319	  -7.68621	0.000478012	  -7.68504	0.000488187	  -7.68504	   12.2047	
  -7.74154	0.000491093	  -7.74272	0.000465098	  -7.74419	0.000462347	  -7.74282	0.000472846	  -7.74282	   11.8211	
  -7.79888	0.000475845	  -7.80038	0.000449794	  -7.80195	0.000446678	   -7.8004	0.000457439	   -7.8004	    11.436	
  -7.85588	0.000460445	  -7.85765	0.000434381	  -7.85932	0.000431019	  -7.85762	0.000441948	  -7.85762	   11.0487	
  -7.91239	0.000444894	  -7.91454	0.000418867	  -7.91615	0.000415364	  -7.91436	0.000426375	  -7.91436	   10.6594	
  -7.96856	0.000429245	  -7.97104	0.000403287	  -7.97291	0.000399686	  -7.97084	0.000410739	  -7.97084	   10.2685	
  -8.02456	0.00041357	  -8.02731	0.000387685	  -8.02941	0.000383945	  -8.02709	0.000395067	  -8.02709	   9.87666	
   -8.0802	0.000397939	  -8.08318	0.000372102	   -8.0855	0.000368114	  -8.08296	0.000379385	  -8.08296	   9.48462	
  -8.13549	0.000382386	   -8.1385	0.000356558	  -8.14117	0.000352187	  -8.13839	0.00036371	  -8.13839	   9.09276	
  -8.19059	 0.0003669	   -8.1936	0.000341039	  -8.19675	0.000336185	  -8.19365	0.000348041	  -8.19365	   8.70104	
  -8.24549	0.000351429	  -8.24847	0.000325508	  -8.25205	0.000320146	  -8.24867	0.000332361	  -8.24867	   8.30903	
  -8.30001	0.000335906	  -8.30295	0.000309924	  -8.30692	0.000304114	  -8.30329	0.000316648	  -8.30329	   7.91621	
  -8.35414	0.000320275	    -8.357	0.000294258	  -8.36159	0.00028812	  -8.35758	0.000300884	  -8.35758	   7.52211	
  -8.40823	0.000304513	  -8.41084	0.000278498	  -8.41597	0.000272163	  -8.41168	0.000285058	  -8.41168	   7.12645	
  -8.46194	0.000288646	  -8.46446	0.000262664	  -8.47008	0.000256224	  -8.46549	0.000269178	  -8.46549	   6.72945	
  -8.51528	0.000272727	  -8.51769	0.000246786	  -8.52375	0.000240262	  -8.51891	0.000253258	  -8.51891	   6.33146	
  -8.56827	0.00025682	  -8.57055	0.000230905	  -8.57685	0.000224239	  -8.57189	0.000237321	  -8.57189	   5.93304	
  -8.62072	0.000240979	  -8.62299	0.000215055	  -8.62973	0.000208136	  -8.62448	0.00022139	  -8.62448	   5.53475	
    -8.673	0.00022522	  -8.67523	0.000199253	  -8.68238	0.000191954	  -8.67687	0.000205476	  -8.67687	   5.13689	
  -8.72496	0.000209504	  -8.72714	0.00018349	  -8.73463	0.00017572	  -8.72891	0.000189571	  -8.72891	   4.73928	
  -8.77645	0.000193779	  -8.77871	0.000167741	  -8.78635	0.000159473	   -8.7805	0.000173664	   -8.7805	   4.34161	
  -8.82749	0.000177989	  -8.83027	0.000151994	  -8.83771	0.000143249	  -8.83182	0.000157744	  -8.83182	    3.9436	
  -8.87826	0.000162095	  -8.88164	0.000136208	  -8.88873	0.000127068	  -8.88288	0.000141791	  -8.88288	   3.54477	
  -8.92877	0.000146096	  -8.93268	0.000120358	  -8.93942	0.000110927	  -8.93363	0.000125793	  -8.93363	   3.14484	
  -8.97887	0.000130029	  -8.98325	0.000104424	  -8.98965	9.48007e-05	  -8.98392	0.000109751	  -8.98392	   2.74378	
  -9.02875	0.000113953	  -9.03336	8.84158e-05	  -9.03944	7.86501e-05	  -9.03385	9.36728e-05	  -9.03385	   2.34182	
  -9.07825	9.79285e-05	  -9.08304	7.23477e-05	  -9.08897	6.24531e-05	  -9.08342	7.75764e-05	  -9.08342	   1.93941	
  -9.12755	8.20051e-05	  -9.13201	5.62785e-05	  -9.13826	4.61962e-05	  -9.13261	6.14933e-05	  -9.13261	   1.53733	
  -9.17651	6.61719e-05	  -9.18079	4.02146e-05	  -9.18716	2.98917e-05	  -9.18149	4.54261e-05	  -9.18149	   1.13565	
  -9.22499	5.03777e-05	  -9.22908	2.41856e-05	  -9.23554	1.3568e-05	  -9.22987	2.93771e-05	  -9.22987	  0.734427	
  -9.27319	3.45461e-05	  -9.27738	8.20395e-06	  -9.28344	-2.74413e-06	    -9.278	1.33353e-05	    -9.278	  0.333382	
  -9.32111	1.86014e-05	  -9.32522	-7.74383e-06	  -9.33122	-1.90221e-05	  -9.32585	-2.72149e-06	  -9.32585	-0.0680372	
  -9.36879	2.52728e-06	  -9.37279	-2.36688e-05	  -9.37871	-3.52562e-05	  -9.37343	-1.87993e-05	  -9.37343	 -0.469981	
  -9.41608	-1.36479e-05	  -9.41948	-3.95769e-05	  -9.42579	-5.14631e-05	  -9.42045	-3.4896e-05	  -9.42045	 -0.872399	
  -9.46286	-2.98621e-05	  -9.46614	-5.54909e-05	  -9.47233	-6.7661e-05	  -9.46711	-5.10047e-05	  -9.46711	  -1.27512	
  -9.50926	-4.60303e-05	  -9.51192	-7.14196e-05	  -9.51835	-8.38782e-05	  -9.51318	-6.71094e-05	  -9.51318	  -1.67774	
  -9.55554	-6.20877e-05	  -9.55775	-8.73633e-05	  -9.56408	-0.000100125	  -9.55912	-8.31918e-05	  -9.55912	   -2.0798	
  -9.60156	-7.80221e-05	  -9.60317	-0.000103325	  -9.60955	-0.000116408	  -9.60476	-9.92517e-05	  -9.60476	  -2.48129	
  -9.64717	-9.38901e-05	  -9.64821	-0.000119296	  -9.65463	-0.000132725	     -9.65	-0.000115304	     -9.65	   -2.8826	
  -9.69227	-0.000109741	  -9.69308	-0.00013525	   -9.6992	-0.000149039	  -9.69485	-0.000131343	  -9.69485	  -3.28358	
  -9.73674	-0.000125662	  -9.73732	-0.000151193	  -9.74328	-0.000165334	  -9.73911	-0.000147396	  -9.73911	  -3.68491	
  -9.78096	-0.000141674	  -9.78147	-0.000167134	  -9.78711	-0.000181577	  -9.78318	-0.000163462	  -9.78318	  -4.08655	
  -9.82495	-0.000157774	  -9.82475	-0.000183096	  -9.83071	-0.000197761	  -9.82681	-0.000179544	  -9.82681	  -4.48859	
   -9.8686	-0.000173914	  -9.86788	-0.000199085	  -9.87397	-0.000213894	  -9.87015	-0.000195631	  -9.87015	  -4.89077	
  -9.91177	-0.000190031	  -9.91057	-0.000215098	  -9.91676	-0.000229995	  -9.91303	-0.000211708	  -9.91303	   -5.2927	
  -9.95437	-0.000206075	  -9.95287	-0.000231115	  -9.95898	-0.000246088	  -9.95541	-0.000227759	  -9.95541	  -5.69397	
   -9.9963	-0.000222031	  -9.99501	-0.000247111	  -10.0007	-0.000262205	  -9.99733	-0.000243782	  -9.99733	  -6.09455	
  -10.0381	-0.000237919	  -10.0364	-0.000263054	  -10.0421	-0.000278358	  -10.0388	-0.000259777	  -10.0388	  -6.49443	
  -10.0796	-0.00025377	  -10.0777	-0.00027894	  -10.0832	-0.000294556	  -10.0802	-0.000275755	  -10.0802	  -6.89388	
  -10.1208	-0.000269628	  -10.1183	-0.000294782	   -10.124	-0.000310782	   -10.121	-0.000291731	   -10.121	  -7.29327	
  -10.1615	-0.000285517	  -10.1586	-0.000310619	  -10.1643	-0.000327005	  -10.1615	-0.000307714	  -10.1615	  -7.69284	
  -10.2016	-0.00030144	  -10.1987	-0.000326456	  -10.2041	-0.000343195	  -10.2015	-0.000323697	  -10.2015	  -8.09243	
  -10.2413	-0.000317377	  -10.2384	-0.000342316	  -10.2433	-0.00035933	   -10.241	-0.000339674	   -10.241	  -8.49186	
  -10.2803	-0.000333306	  -10.2779	-0.000358164	  -10.2821	-0.000375395	  -10.2801	-0.000355622	  -10.2801	  -8.89054	
  -10.3189	-0.000349198	  -10.3167	-0.000373986	  -10.3207	-0.000391395	  -10.3187	-0.000371527	  -10.3187	  -9.28817	
  -10.3571	-0.000365041	  -10.3552	-0.000389739	   -10.359	-0.000407358	  -10.3571	-0.000387379	  -10.3571	  -9.68449	
   -10.395	-0.000380835	  -10.3932	-0.000405424	  -10.3968	-0.000423295	   -10.395	-0.000403184	   -10.395	  -10.0796	
  -10.4324	-0.000396586	  -10.4309	-0.00042104	  -10.4342	-0.000439242	  -10.4325	-0.000418956	  -10.4325	  -10.4739	
  -10.4694	-0.000412312	  -10.4679	-0.000436625	  -10.4712	-0.00045521	  -10.4695	-0.000434716	  -10.4695	  -10.8679	
   -10.506	-0.000428027	  -10.5044	-0.000452213	  -10.5078	-0.000471196	  -10.5061	-0.000450479	  -10.5061	   -11.262	
  -10.5423	-0.000443743	  -10.5408	-0.000467817	  -10.5442	-0.000487175	  -10.5424	-0.000466245	  -10.5424	  -11.6561	
   -10.578	-0.000459459	  -10.5766	-0.000483424	  -10.5803	-0.000503124	  -10.5783	-0.000482002	  -10.5783	  -12.0501	
  -10.6135	-0.000475171	  -10.6119	-0.000499012	  -10.6161	-0.000519007	  -10.6138	-0.00049773	  -10.6138	  -12.4433	
  -10.6486	-0.000490863	  -10.6469	-0.000514543	  -10.6514	-0.000534818	  -10.6489	-0.000513408	  -10.6489	  -12.8352	
  -10.6831	-0.000506527	  -10.6813	-0.000529999	  -10.6862	-0.000550558	  -10.6836	-0.000529028	  -10.6836	  -13.2257	
  -10.7171	-0.000522152	  -10.7154	-0.000545375	  -10.7207	-0.000566243	  -10.7177	-0.00054459	  -10.7177	  -13.6147	
  -10.7505	-0.000537729	  -10.7488	-0.000560696	  -10.7546	-0.000581891	  -10.7513	-0.000560105	  -10.7513	  -14.0026	
  -10.7835	-0.000553256	  -10.7819	-0.000575991	   -10.788	-0.000597523	  -10.7845	-0.00057559	  -10.7845	  -14.3898	
  -10.8161	-0.000568738	  -10.8146	-0.000591291	  -10.8212	-0.000613148	  -10.8173	-0.000591059	  -10.8173	  -14.7765	
  -10.8483	-0.000584173	  -10.8471	-0.000606608	  -10.8541	-0.000628772	  -10.8498	-0.000606518	  -10.8498	   -15.163	
  -10.8803	-0.000599565	  -10.8792	-0.000621959	  -10.8866	-0.000644385	   -10.882	-0.00062197	   -10.882	  -15.5492	
  -10.9118	-0.000614912	   -10.911	-0.000637321	  -10.9187	-0.000659964	  -10.9138	-0.000637399	  -10.9138	   -15.935	
  -10.9429	-0.000630243	  -10.9422	-0.000652674	  -10.9503	-0.000675479	  -10.9451	-0.000652799	  -10.9451	    -16.32	
  -10.9735	-0.000645556	  -10.9731	-0.000667976	  -10.9812	-0.000690915	   -10.976	-0.000668149	   -10.976	  -16.7037	
  -11.0035	-0.000660855	  -11.0034	-0.000683192	  -11.0116	-0.000706259	  -11.0062	-0.000683435	  -11.0062	  -17.0859	
  -11.0332	-0.000676124	  -11.0331	-0.000698285	  -11.0416	-0.000721526	  -11.0359	-0.000698645	  -11.0359	  -17.4661	
  -11.0626	-0.000691351	  -11.0626	-0.00071325	   -11.071	-0.000736737	  -11.0654	-0.000713779	  -11.0654	  -17.8445	
  -11.0913	-0.000706514	  -11.0917	-0.000728093	     -11.1	-0.000751918	  -11.0944	-0.000728841	  -11.0944	   -18.221	
  -11.1199	-0.000721585	  -11.1206	-0.000742845	  -11.1288	-0.000767095	  -11.1231	-0.000743842	  -11.1231	   -18.596	
  -11.1479	-0.000736552	  -11.1492	-0.000757554	  -11.1573	-0.000782267	  -11.1515	-0.000758791	  -11.1515	  -18.9698	
  -11.1756	-0.000751424	  -11.1774	-0.000772267	  -11.1854	-0.000797415	  -11.1795	-0.000773702	  -11.1795	  -19.3426	
  -11.2029	-0.000766227	  -11.2052	-0.000787025	   -11.213	-0.000812502	   -11.207	-0.000788585	   -11.207	  -19.7146	
  -11.2301	-0.000780998	  -11.2324	-0.000801828	  -11.2401	-0.000827502	  -11.2342	-0.000803443	  -11.2342	  -20.0861	
  -11.2571	-0.000795779	  -11.2591	-0.000816659	  -11.2667	-0.000842393	  -11.2609	-0.000818277	  -11.2609	  -20.4569	
  -11.2836	-0.000810591	  -11.2852	-0.000831473	  -11.2926	-0.000857177	  -11.2871	-0.000833081	  -11.2871	   -20.827	
  -11.3095	-0.000825428	  -11.3108	-0.000846231	  -11.3179	-0.000871877	  -11.3127	-0.000847845	  -11.3127	  -21.1961	
  -11.3346	-0.000840262	  -11.3359	-0.000860894	  -11.3427	-0.000886525	  -11.3377	-0.00086256	  -11.3377	   -21.564	
  -11.3593	-0.000855021	  -11.3605	-0.000875433	   -11.367	-0.000901152	  -11.3623	-0.000877202	  -11.3623	  -21.9301	
  -11.3832	-0.000869677	  -11.3846	-0.000889867	  -11.3908	-0.000915767	  -11.3862	-0.00089177	  -11.3862	  -22.2943	
  -11.4066	-0.000884175	  -11.4083	-0.000904206	   -11.414	-0.00093036	  -11.4096	-0.000906247	  -11.4096	  -22.6562	
  -11.4297	-0.000898549	  -11.4318	-0.000918482	  -11.4371	-0.000944903	  -11.4329	-0.000920645	  -11.4329	  -23.0161	
  -11.4523	-0.000912829	   -11.455	-0.00093272	  -11.4599	-0.000959364	  -11.4557	-0.000934971	  -11.4557	  -23.3743	
  -11.4744	-0.000927091	  -11.4778	-0.000946949	  -11.4824	-0.000973717	  -11.4782	-0.000949252	  -11.4782	  -23.7313	
   -11.496	-0.000941367	  -11.5003	-0.000961172	  -11.5045	-0.00098796	  -11.5003	-0.0009635	  -11.5003	  -24.0875	
  -11.5174	-0.0009557	  -11.5224	-0.000975385	  -11.5263	-0.00100211	   -11.522	-0.000977732	   -11.522	  -24.4433	
  -11.5377	-0.000970039	   -11.544	-0.000989556	  -11.5475	-0.0010162	  -11.5431	-0.000991931	  -11.5431	  -24.7983	
  -11.5584	-0.000984336	   -11.565	-0.00100365	  -11.5683	-0.00103025	  -11.5639	-0.00100608	  -11.5639	   -25.152	
   -11.578	-0.000998524	  -11.5856	-0.00101765	  -11.5886	-0.0010443	  -11.5841	-0.00102016	  -11.5841	   -25.504	
  -11.5981	-0.00101256	  -11.6056	-0.00103154	  -11.6084	-0.00105831	   -11.604	-0.00103414	   -11.604	  -25.8535	
  -11.6172	-0.00102643	   -11.625	-0.00104532	  -11.6275	-0.00107228	  -11.6233	-0.00104801	  -11.6233	  -26.2002	
  -11.6362	-0.00104016	  -11.6438	-0.00105903	  -11.6461	-0.00108617	  -11.6421	-0.00106179	  -11.6421	  -26.5447	
  -11.6545	-0.00105383	  -11.6621	-0.0010727	  -11.6642	-0.00109995	  -11.6602	-0.00107549	  -11.6602	  -26.8873	
  -11.6726	-0.00106748	  -11.6797	-0.00108635	  -11.6816	-0.00111362	  -11.6779	-0.00108915	  -11.6779	  -27.2288	
  -11.6903	-0.00108117	  -11.6966	-0.00109998	  -11.6984	-0.00112718	  -11.6951	-0.00110278	  -11.6951	  -27.5694	
  -11.7072	-0.00109488	   -11.713	-0.00111357	  -11.7145	-0.00114066	  -11.7116	-0.00111637	  -11.7116	  -27.9092	
  -11.7239	-0.00110856	  -11.7286	-0.00112708	  -11.7303	-0.00115408	  -11.7276	-0.00112991	  -11.7276	  -28.2477	
    -11.74	-0.00112217	  -11.7439	-0.00114048	  -11.7453	-0.00116747	  -11.7431	-0.00114337	  -11.7431	  -28.5844	
  -11.7556	-0.00113564	  -11.7584	-0.00115378	  -11.7599	-0.00118083	   -11.758	-0.00115675	   -11.758	  -28.9187	
  -11.7709	-0.00114894	  -11.7724	-0.00116699	   -11.774	-0.00119414	  -11.7724	-0.00117002	  -11.7724	  -29.2505	
  -11.7854	-0.00116209	  -11.7858	-0.00118015	  -11.7879	-0.00120738	  -11.7863	-0.00118321	  -11.7863	  -29.5802	
  -11.7997	-0.00117514	  -11.7989	-0.0011933	  -11.8012	-0.00122053	  -11.7999	-0.00119632	  -11.7999	   -29.908	
  -11.8132	-0.00118813	  -11.8115	-0.00120642	  -11.8141	-0.00123356	  -11.8129	-0.00120937	  -11.8129	  -30.2343	
  -11.8264	-0.00120112	  -11.8235	-0.00121949	  -11.8265	-0.00124649	  -11.8255	-0.00122237	  -11.8255	  -30.5591	
  -11.8388	-0.00121411	  -11.8353	-0.00123247	  -11.8387	-0.00125932	  -11.8376	-0.0012353	  -11.8376	  -30.8825	
  -11.8508	-0.00122709	  -11.8467	-0.00124533	  -11.8505	-0.00127208	  -11.8493	-0.00124816	  -11.8493	  -31.2041	
  -11.8621	  -0.00124	  -11.8578	-0.00125805	  -11.8618	-0.00128479	  -11.8606	-0.00126094	  -11.8606	  -31.5236	
  -11.8734	-0.0012528	  -11.8683	-0.00127065	  -11.8727	-0.00129746	  -11.8715	-0.00127363	  -11.8715	  -31.8409	
   -11.884	-0.00126545	  -11.8787	-0.00128317	  -11.8831	-0.00131008	  -11.8819	-0.00128623	  -11.8819	  -32.1558	
  -11.8943	-0.00127795	  -11.8885	-0.00129566	  -11.8931	-0.00132263	  -11.8919	-0.00129875	  -11.8919	  -32.4687	
   -11.904	-0.00129034	  -11.8979	-0.00130813	  -11.9023	-0.00133509	  -11.9014	-0.00131119	  -11.9014	  -32.7797	
   -11.913	-0.00130264	  -11.9067	-0.0013206	  -11.9109	-0.00134744	  -11.9102	-0.00132356	  -11.9102	   -33.089	
  -11.9216	-0.0013149	  -11.9151	-0.00133302	  -11.9191	-0.00135967	  -11.9186	-0.00133586	  -11.9186	  -33.3966	
  -11.9295	-0.00132715	  -11.9229	-0.00134535	  -11.9268	-0.00137181	  -11.9264	-0.0013481	  -11.9264	  -33.7026	
  -11.9368	-0.00133938	  -11.9304	-0.00135756	  -11.9342	-0.00138386	  -11.9338	-0.00136027	  -11.9338	  -34.0067	
  -11.9437	-0.00135156	  -11.9373	-0.00136961	  -11.9412	-0.00139586	  -11.9407	-0.00137234	  -11.9407	  -34.3086	
  -11.9502	-0.00136365	  -11.9437	-0.00138151	  -11.9476	-0.0014078	  -11.9472	-0.00138432	  -11.9472	   -34.608	
   -11.956	-0.0013756	  -11.9495	-0.0013933	  -11.9535	-0.0014197	   -11.953	-0.0013962	   -11.953	  -34.9049	
  -11.9614	-0.0013874	  -11.9549	-0.00140501	  -11.9587	-0.00143153	  -11.9583	-0.00140798	  -11.9583	  -35.1995	
  -11.9664	-0.00139908	  -11.9599	-0.00141669	  -11.9635	-0.00144327	  -11.9633	-0.00141968	  -11.9633	  -35.4919	
  -11.9709	-0.00141065	  -11.9644	-0.00142835	  -11.9677	-0.0014549	  -11.9677	-0.0014313	  -11.9677	  -35.7825	
  -11.9748	-0.00142216	  -11.9684	-0.00143999	  -11.9714	-0.00146642	  -11.9715	-0.00144285	  -11.9715	  -36.0714	
  -11.9783	-0.00143365	  -11.9719	-0.00145157	  -11.9747	-0.00147782	  -11.9749	-0.00145435	  -11.9749	  -36.3586	
  -11.9815	-0.00144513	  -11.9749	-0.00146302	  -11.9775	-0.00148913	   -11.978	-0.00146576	   -11.978	   -36.644	
  -11.9842	-0.00145659	  -11.9775	-0.0014743	  -11.9799	-0.00150036	  -11.9805	-0.00147708	  -11.9805	  -36.9271	
  -11.9865	 -0.001468	  -11.9797	-0.00148541	  -11.9819	-0.00151154	  -11.9827	-0.00148831	  -11.9827	  -37.2079	
  -11.9884	-0.0014793	  -11.9816	-0.00149637	  -11.9836	-0.00152266	  -11.9845	-0.00149944	  -11.9845	  -37.4861	
  -11.9899	-0.00149045	  -11.9831	-0.00150724	  -11.9849	-0.00153373	   -11.986	-0.00151047	   -11.986	  -37.7618	
  -11.9911	-0.00150145	  -11.9843	-0.00151808	   -11.986	-0.00154473	  -11.9871	-0.00152142	  -11.9871	  -38.0354	
   -11.992	-0.0015123	  -11.9851	-0.00152894	  -11.9867	-0.00155563	   -11.988	-0.00153229	   -11.988	  -38.3072	
  -11.9926	-0.00152303	  -11.9857	-0.00153983	   -11.987	-0.00156643	  -11.9885	-0.0015431	  -11.9885	  -38.5774	
   -11.993	-0.0015337	   -11.986	-0.00155072	  -11.9871	-0.00157711	  -11.9887	-0.00155384	  -11.9887	  -38.8461	
  -11.9929	-0.00154434	  -11.9858	-0.00156152	  -11.9869	-0.00158767	  -11.9886	-0.00156451	  -11.9886	  -39.1128	
  -11.9925	-0.00155495	  -11.9854	-0.00157217	  -11.9864	-0.00159814	  -11.9881	-0.00157509	  -11.9881	  -39.3772	
  -11.9916	-0.00156554	  -11.9844	-0.00158261	  -11.9858	-0.00160852	  -11.9873	-0.00158556	  -11.9873	   -39.639	
  -11.9903	-0.00157606	  -11.9828	-0.00159284	  -11.9846	-0.00161884	  -11.9859	-0.00159591	  -11.9859	  -39.8978	
  -11.9884	-0.00158647	  -11.9807	-0.00160289	  -11.9828	-0.00162909	  -11.9839	-0.00160615	  -11.9839	  -40.1538	
  -11.9858	-0.00159676	   -11.978	-0.00161284	  -11.9804	-0.00163927	  -11.9814	-0.00161629	  -11.9814	  -40.4073	
  -11.9826	-0.0016069	  -11.9748	-0.00162276	  -11.9774	-0.00164937	  -11.9782	-0.00162634	  -11.9782	  -40.6586	
  -11.9788	-0.00161692	   -11.971	-0.00163269	  -11.9738	-0.00165936	  -11.9745	-0.00163632	  -11.9745	  -40.9081	
  -11.9746	-0.00162685	  -11.9668	-0.00164263	  -11.9697	-0.00166924	  -11.9704	-0.00164624	  -11.9704	  -41.1561	
  -11.9699	-0.00163671	  -11.9621	-0.00165254	  -11.9652	-0.00167902	  -11.9657	-0.00165609	  -11.9657	  -41.4022	
  -11.9648	-0.00164651	  -11.9571	-0.00166236	  -11.9603	-0.00168868	  -11.9607	-0.00166585	  -11.9607	  -41.6462	
  -11.9594	-0.00165622	  -11.9517	-0.00167204	   -11.955	-0.00169823	  -11.9554	-0.00167549	  -11.9554	  -41.8874	
  -11.9537	-0.00166582	   -11.946	-0.00168155	  -11.9495	-0.00170768	  -11.9497	-0.00168502	  -11.9497	  -42.1254	
  -11.9477	-0.0016753	  -11.9399	-0.00169091	  -11.9436	-0.00171705	  -11.9438	-0.00169442	  -11.9438	  -42.3605	
  -11.9412	-0.00168465	  -11.9331	-0.00170017	  -11.9373	-0.00172637	  -11.9372	-0.00170373	  -11.9372	  -42.5932	
  -11.9345	-0.00169391	  -11.9258	-0.00170937	  -11.9303	-0.00173565	  -11.9302	-0.00171298	  -11.9302	  -42.8245	
  -11.9271	-0.00170311	  -11.9179	-0.00171855	  -11.9226	-0.00174492	  -11.9225	-0.00172219	  -11.9225	  -43.0548	
  -11.9191	-0.00171228	  -11.9094	-0.0017277	  -11.9143	-0.00175418	  -11.9143	-0.00173139	  -11.9143	  -43.2847	
  -11.9105	-0.0017214	  -11.9004	-0.00173679	  -11.9054	-0.0017634	  -11.9054	-0.00174053	  -11.9054	  -43.5133	
  -11.9014	-0.00173046	  -11.8909	-0.0017458	   -11.896	-0.00177251	  -11.8961	-0.00174959	  -11.8961	  -43.7397	
  -11.8919	-0.00173939	   -11.881	-0.00175467	  -11.8861	-0.00178146	  -11.8864	-0.00175851	  -11.8864	  -43.9627	
   -11.882	-0.00174819	  -11.8709	-0.00176341	   -11.876	-0.00179022	  -11.8763	-0.00176727	  -11.8763	  -44.1818	
  -11.8718	-0.00175681	  -11.8605	-0.00177203	  -11.8658	-0.0017988	   -11.866	-0.00177588	   -11.866	  -44.3971	
  -11.8612	-0.00176532	  -11.8497	-0.00178057	  -11.8556	-0.00180724	  -11.8555	-0.00178438	  -11.8555	  -44.6094	
  -11.8501	-0.00177375	  -11.8384	-0.00178904	  -11.8452	-0.00181561	  -11.8446	-0.0017928	  -11.8446	    -44.82	
  -11.8385	-0.00178215	  -11.8265	-0.00179745	  -11.8346	-0.00182396	  -11.8332	-0.00180119	  -11.8332	  -45.0296	
  -11.8262	-0.00179053	   -11.814	-0.00180579	  -11.8232	-0.00183233	  -11.8211	-0.00180955	  -11.8211	  -45.2388	
  -11.8133	-0.00179889	   -11.801	-0.00181404	  -11.8112	-0.0018407	  -11.8085	-0.00181788	  -11.8085	  -45.4469	
     -11.8	-0.00180718	  -11.7876	-0.00182216	  -11.7983	-0.00184903	  -11.7953	-0.00182613	  -11.7953	  -45.6532	
  -11.7864	-0.00181534	  -11.7738	-0.00183015	  -11.7845	-0.00185726	  -11.7816	-0.00183425	  -11.7816	  -45.8563	
  -11.7724	-0.00182333	  -11.7598	 -0.001838	    -11.77	-0.00186533	  -11.7674	-0.00184222	  -11.7674	  -46.0555	
  -11.7582	-0.00183115	  -11.7455	-0.00184575	  -11.7548	-0.00187321	  -11.7528	-0.00185003	  -11.7528	  -46.2509	
  -11.7434	-0.00183883	  -11.7304	-0.00185343	  -11.7394	-0.00188091	  -11.7377	-0.00185773	  -11.7377	  -46.4432	
  -11.7279	-0.00184645	  -11.7148	-0.00186108	  -11.7235	-0.00188849	  -11.7221	-0.00186534	  -11.7221	  -46.6335	
  -11.7115	-0.00185405	  -11.6987	-0.0018687	  -11.7072	 -0.001896	  -11.7058	-0.00187292	  -11.7058	  -46.8229	
  -11.6937	-0.00186166	  -11.6821	-0.00187627	  -11.6905	-0.00190349	  -11.6887	-0.00188048	  -11.6887	  -47.0119	
  -11.6753	-0.00186927	   -11.665	-0.00188377	  -11.6734	-0.00191099	  -11.6713	-0.00188801	  -11.6713	  -47.2003	
  -11.6557	-0.00187685	  -11.6477	-0.00189115	   -11.656	-0.00191847	  -11.6532	-0.00189549	  -11.6532	  -47.3872	
  -11.6366	-0.00188432	  -11.6301	-0.0018984	  -11.6381	-0.00192588	  -11.6349	-0.00190286	  -11.6349	  -47.5716	
  -11.6171	-0.00189161	   -11.612	-0.0019055	  -11.6197	-0.00193318	  -11.6163	-0.0019101	  -11.6163	  -47.7524	
  -11.5973	-0.0018987	  -11.5933	-0.00191249	  -11.6006	-0.00194033	  -11.5971	-0.00191717	  -11.5971	  -47.9292	
  -11.5782	-0.0019056	  -11.5741	-0.00191938	   -11.581	-0.0019473	  -11.5778	-0.00192409	  -11.5778	  -48.1023	
  -11.5588	-0.00191236	  -11.5545	-0.00192619	   -11.561	-0.00195414	  -11.5581	-0.00193089	  -11.5581	  -48.2724	
  -11.5395	-0.00191906	  -11.5342	-0.00193295	  -11.5407	-0.00196087	  -11.5382	-0.00193762	  -11.5382	  -48.4406	
  -11.5195	-0.00192576	  -11.5135	-0.00193966	  -11.5203	-0.00196755	  -11.5177	-0.00194432	  -11.5177	  -48.6081	
  -11.4987	-0.0019325	   -11.492	-0.00194633	  -11.4994	-0.00197421	  -11.4967	-0.00195101	  -11.4967	  -48.7753	
  -11.4774	-0.00193923	    -11.47	-0.00195294	   -11.478	-0.00198085	  -11.4751	-0.00195767	  -11.4751	  -48.9418	
  -11.4555	-0.00194589	  -11.4475	-0.00195948	   -11.456	-0.00198745	   -11.453	-0.00196427	   -11.453	  -49.1068	
  -11.4328	-0.00195241	  -11.4246	-0.00196593	  -11.4337	-0.00199394	  -11.4304	-0.00197076	  -11.4304	   -49.269	
  -11.4093	-0.00195874	  -11.4015	-0.00197227	   -11.411	-0.0020003	  -11.4073	-0.00197711	  -11.4073	  -49.4276	
  -11.3857	-0.00196489	  -11.3778	-0.00197849	  -11.3881	-0.0020065	  -11.3839	-0.0019833	  -11.3839	  -49.5824	
  -11.3614	-0.00197091	  -11.3536	-0.0019846	  -11.3645	-0.00201254	  -11.3598	-0.00198935	  -11.3598	  -49.7337	
  -11.3366	-0.00197685	  -11.3289	-0.00199059	  -11.3403	-0.00201845	  -11.3353	-0.0019953	  -11.3353	  -49.8824	
  -11.3113	-0.00198279	  -11.3038	-0.0019965	  -11.3157	-0.00202429	  -11.3103	-0.00200119	  -11.3103	  -50.0299	
  -11.2858	-0.00198874	  -11.2782	-0.00200234	  -11.2906	-0.0020301	  -11.2849	-0.00200706	  -11.2849	  -50.1765	
  -11.2602	-0.00199469	  -11.2521	-0.00200813	  -11.2652	-0.00203591	  -11.2592	-0.00201291	  -11.2592	  -50.3227	
  -11.2338	-0.00200058	  -11.2254	-0.00201386	  -11.2392	-0.00204168	  -11.2328	-0.00201871	  -11.2328	  -50.4677	
   -11.207	-0.00200636	  -11.1982	-0.00201952	  -11.2126	-0.00204739	  -11.2059	-0.00202442	  -11.2059	  -50.6106	
  -11.1798	-0.00201198	  -11.1706	-0.00202509	  -11.1855	-0.00205298	  -11.1786	-0.00203002	  -11.1786	  -50.7504	
  -11.1523	-0.00201744	  -11.1426	-0.00203055	   -11.158	-0.00205842	   -11.151	-0.00203547	   -11.151	  -50.8868	
  -11.1244	-0.00202277	  -11.1144	-0.00203591	  -11.1302	-0.00206368	   -11.123	-0.00204079	   -11.123	  -51.0197	
  -11.0959	-0.00202803	  -11.0856	-0.00204116	  -11.1016	-0.0020688	  -11.0944	 -0.002046	  -11.0944	  -51.1499	
  -11.0668	-0.00203326	  -11.0563	-0.00204631	  -11.0725	-0.00207383	  -11.0652	-0.00205114	  -11.0652	  -51.2784	
  -11.0372	-0.00203851	  -11.0267	-0.0020514	  -11.0429	-0.00207881	  -11.0356	-0.00205624	  -11.0356	   -51.406	
  -11.0074	-0.00204374	  -10.9966	-0.00205641	  -11.0131	-0.00208379	  -11.0057	-0.00206131	  -11.0057	  -51.5329	
  -10.9774	-0.00204894	  -10.9661	-0.00206137	  -10.9828	-0.00208876	  -10.9754	-0.00206635	  -10.9754	  -51.6589	
  -10.9467	-0.00205404	  -10.9351	-0.00206626	  -10.9518	-0.00209368	  -10.9445	-0.00207133	  -10.9445	  -51.7832	
  -10.9154	 -0.002059	  -10.9037	-0.00207107	  -10.9204	-0.00209853	  -10.9132	-0.0020762	  -10.9132	   -51.905	
  -10.8838	-0.00206379	   -10.872	-0.0020758	  -10.8885	-0.00210323	  -10.8814	-0.00208094	  -10.8814	  -52.0235	
  -10.8519	-0.00206845	  -10.8399	-0.00208043	  -10.8565	-0.00210778	  -10.8494	-0.00208555	  -10.8494	  -52.1388	
  -10.8195	-0.00207299	  -10.8071	-0.00208497	  -10.8238	-0.00211219	  -10.8168	-0.00209005	  -10.8168	  -52.2512	
  -10.7865	-0.00207749	  -10.7738	-0.00208941	  -10.7906	-0.0021165	  -10.7836	-0.00209447	  -10.7836	  -52.3617	
  -10.7531	-0.00208196	  -10.7402	-0.00209377	   -10.757	-0.00212078	  -10.7501	-0.00209884	  -10.7501	  -52.4709	
  -10.7194	-0.00208642	  -10.7062	-0.00209807	  -10.7229	-0.00212506	  -10.7162	-0.00210318	  -10.7162	  -52.5796	
  -10.6853	-0.00209085	  -10.6716	-0.00210232	  -10.6886	-0.00212933	  -10.6818	-0.0021075	  -10.6818	  -52.6874	
  -10.6508	-0.0020952	  -10.6367	-0.00210651	  -10.6536	-0.00213358	   -10.647	-0.00211176	   -10.647	   -52.794	
  -10.6158	-0.00209943	  -10.6014	-0.00211062	  -10.6182	-0.00213775	  -10.6118	-0.00211593	  -10.6118	  -52.8983	
  -10.5805	-0.00210353	  -10.5658	-0.00211464	  -10.5826	-0.0021418	  -10.5763	-0.00211999	  -10.5763	  -52.9998	
  -10.5448	-0.0021075	  -10.5296	-0.00211855	  -10.5464	-0.00214569	  -10.5403	-0.00212391	  -10.5403	  -53.0978	
  -10.5087	-0.00211134	  -10.4929	-0.00212234	  -10.5098	-0.00214945	  -10.5038	-0.00212771	  -10.5038	  -53.1928	
  -10.4721	-0.00211512	  -10.4558	-0.00212601	  -10.4728	-0.0021531	  -10.4669	-0.00213141	  -10.4669	  -53.2853	
  -10.4352	-0.00211886	  -10.4185	-0.00212961	  -10.4354	-0.0021567	  -10.4297	-0.00213506	  -10.4297	  -53.3764	
   -10.398	-0.00212259	  -10.3809	-0.00213316	  -10.3975	-0.00216027	  -10.3921	-0.00213867	  -10.3921	  -53.4668	
  -10.3601	-0.00212628	  -10.3427	-0.00213669	  -10.3591	-0.00216384	   -10.354	-0.00214227	   -10.354	  -53.5569	
  -10.3218	-0.00212993	  -10.3042	-0.00214022	  -10.3201	-0.00216739	  -10.3154	-0.00214585	  -10.3154	  -53.6462	
  -10.2831	-0.00213347	  -10.2654	-0.00214373	   -10.281	-0.00217089	  -10.2765	-0.00214936	  -10.2765	  -53.7341	
   -10.244	-0.0021369	  -10.2261	-0.00214718	  -10.2415	-0.00217429	  -10.2372	-0.00215279	  -10.2372	  -53.8197	
  -10.2045	-0.00214019	  -10.1864	-0.00215054	  -10.2015	-0.00217756	  -10.1974	-0.0021561	  -10.1974	  -53.9024	
  -10.1645	-0.00214338	  -10.1462	-0.00215377	  -10.1611	-0.00218069	  -10.1572	-0.00215928	  -10.1572	   -53.982	
  -10.1242	-0.00214651	  -10.1058	-0.00215685	  -10.1204	-0.00218371	  -10.1168	-0.00216236	  -10.1168	  -54.0589	
  -10.0835	-0.0021496	  -10.0651	-0.0021598	  -10.0795	-0.00218664	   -10.076	-0.00216535	   -10.076	  -54.1337	
  -10.0422	-0.00215267	  -10.0238	-0.00216266	   -10.038	-0.00218952	  -10.0347	-0.00216828	  -10.0347	  -54.2071	
  -10.0005	-0.00215573	  -9.98221	-0.00216547	  -9.99621	-0.00219237	  -9.99298	-0.00217119	  -9.99298	  -54.2798	
  -9.95863	-0.00215873	  -9.94004	-0.00216829	  -9.95406	-0.0021952	  -9.95091	-0.00217408	  -9.95091	  -54.3519	
  -9.91621	-0.00216165	  -9.89757	-0.00217112	   -9.9114	-0.00219799	  -9.90839	-0.00217692	  -9.90839	   -54.423	
  -9.87329	-0.00216446	  -9.85464	-0.00217392	  -9.86827	-0.00220072	   -9.8654	-0.0021797	   -9.8654	  -54.4926	
  -9.83005	-0.00216716	  -9.81144	-0.00217668	  -9.82484	-0.00220334	  -9.82211	-0.00218239	  -9.82211	  -54.5599	
   -9.7865	-0.00216979	  -9.76797	-0.00217933	  -9.78128	-0.00220585	  -9.77859	-0.00218499	  -9.77859	  -54.6247	
  -9.74251	-0.00217235	  -9.72394	-0.00218187	  -9.73728	-0.00220824	  -9.73458	-0.00218749	  -9.73458	  -54.6872	
  -9.69808	-0.00217487	  -9.67953	-0.00218429	  -9.69287	-0.00221053	  -9.69016	-0.0021899	  -9.69016	  -54.7474	
  -9.65342	-0.00217736	  -9.63477	-0.00218662	  -9.64806	-0.00221275	  -9.64542	-0.00219224	  -9.64542	   -54.806	
  -9.60822	-0.00217982	  -9.58953	-0.00218889	  -9.60274	-0.00221492	  -9.60016	-0.00219454	  -9.60016	  -54.8635	
  -9.56251	-0.00218223	  -9.54398	-0.00219111	  -9.55708	-0.00221705	  -9.55453	-0.0021968	  -9.55453	  -54.9199	
  -9.51649	-0.00218459	  -9.49816	-0.00219331	  -9.51112	-0.00221914	  -9.50859	-0.00219901	  -9.50859	  -54.9753	
  -9.47034	-0.00218688	  -9.45224	-0.00219545	  -9.46488	-0.00222119	  -9.46249	-0.00220117	  -9.46249	  -55.0293	
   -9.4236	-0.00218908	  -9.40575	-0.00219753	  -9.41818	-0.00222316	  -9.41584	-0.00220326	  -9.41584	  -55.0814	
  -9.37647	-0.00219119	  -9.35889	-0.00219954	  -9.37109	-0.00222503	  -9.36882	-0.00220525	  -9.36882	  -55.1313	
  -9.32897	-0.00219322	  -9.31169	-0.00220145	  -9.32381	-0.0022268	  -9.32149	-0.00220716	  -9.32149	  -55.1789	
  -9.28084	-0.00219516	  -9.26418	-0.00220327	  -9.27604	-0.00222844	  -9.27368	-0.00220896	  -9.27368	  -55.2239	
  -9.23227	-0.00219703	  -9.21639	 -0.002205	  -9.22781	-0.00222995	  -9.22549	-0.00221066	  -9.22549	  -55.2665	
  -9.18335	-0.00219883	  -9.16834	-0.00220664	  -9.17932	-0.00223134	    -9.177	-0.00221227	    -9.177	  -55.3068	
  -9.13407	-0.00220056	  -9.11989	-0.00220822	   -9.1303	-0.00223264	  -9.12809	-0.0022138	  -9.12809	  -55.3451	
  -9.08432	-0.00220219	  -9.07094	-0.00220973	  -9.08094	-0.00223391	  -9.07873	-0.00221528	  -9.07873	  -55.3819	
   -9.0343	-0.00220373	  -9.02168	-0.00221121	  -9.03127	-0.00223522	  -9.02908	-0.00221672	  -9.02908	   -55.418	
  -8.98404	-0.00220519	  -8.97199	-0.00221265	  -8.98072	-0.00223658	  -8.97891	-0.00221814	  -8.97891	  -55.4535	
  -8.93326	-0.00220658	  -8.92175	-0.00221405	  -8.92904	-0.00223798	  -8.92802	-0.00221954	  -8.92802	  -55.4884	
  -8.88217	-0.00220793	  -8.87131	-0.00221537	  -8.87701	-0.00223937	  -8.87683	-0.00222089	  -8.87683	  -55.5223	
  -8.83081	-0.00220926	  -8.82026	-0.00221659	  -8.82384	-0.00224067	  -8.82497	-0.00222217	  -8.82497	  -55.5543	
  -8.77921	-0.00221056	  -8.76896	-0.00221767	  -8.77139	-0.00224179	  -8.77319	-0.00222334	  -8.77319	  -55.5836	
  -8.72726	-0.00221182	   -8.7173	-0.00221863	  -8.71851	-0.0022427	  -8.72103	-0.00222439	  -8.72103	  -55.6096	
  -8.67516	 -0.002213	  -8.66549	-0.00221948	  -8.66557	-0.00224339	  -8.66874	-0.00222529	  -8.66874	  -55.6322	
  -8.62277	-0.00221405	  -8.61338	-0.00222025	  -8.61353	-0.00224392	  -8.61656	-0.00222607	  -8.61656	  -55.6518	
  -8.56998	-0.00221496	  -8.56086	 -0.002221	  -8.56134	-0.00224437	  -8.56406	-0.00222678	  -8.56406	  -55.6694	
    -8.517	-0.00221574	  -8.50799	-0.00222174	  -8.50955	-0.00224485	  -8.51151	-0.00222744	  -8.51151	  -55.6861	
  -8.46356	-0.00221641	   -8.4545	-0.0022225	  -8.45706	-0.00224541	  -8.45837	-0.00222811	  -8.45837	  -55.7026	
   -8.4097	-0.00221703	  -8.40062	-0.00222323	  -8.40455	-0.00224605	  -8.40496	-0.00222877	  -8.40496	  -55.7193	
  -8.35565	-0.00221766	  -8.34655	-0.00222389	   -8.3516	-0.00224671	  -8.35127	-0.00222942	  -8.35127	  -55.7356	
  -8.30128	-0.00221831	  -8.29235	-0.00222445	  -8.29809	-0.00224731	  -8.29724	-0.00223003	  -8.29724	  -55.7506	
   -8.2465	-0.00221897	  -8.23773	-0.00222486	  -8.24421	-0.00224776	  -8.24281	-0.00223053	  -8.24281	  -55.7632	
  -8.19151	-0.00221956	   -8.1829	-0.00222512	  -8.18959	 -0.002248	    -8.188	-0.00223089	    -8.188	  -55.7723	
  -8.13605	-0.00222002	  -8.12791	-0.00222524	  -8.13493	-0.00224805	  -8.13296	-0.0022311	  -8.13296	  -55.7776	
  -8.08018	-0.0022203	  -8.07249	-0.00222528	  -8.07963	-0.00224797	  -8.07743	-0.00223118	  -8.07743	  -55.7796	
  -8.02412	-0.0022204	  -8.01686	-0.00222527	  -8.02393	-0.00224783	  -8.02164	-0.00223117	  -8.02164	  -55.7792	
  -7.96783	-0.00222033	  -7.96083	-0.00222524	  -7.96796	-0.00224773	  -7.96554	-0.0022311	  -7.96554	  -55.7775	
  -7.91113	-0.00222018	  -7.90438	-0.00222522	  -7.91154	-0.00224769	  -7.90902	-0.00223103	  -7.90902	  -55.7758	
  -7.85424	-0.00222002	  -7.84774	-0.00222519	  -7.85507	-0.0022477	  -7.85235	-0.00223097	  -7.85235	  -55.7742	
  -7.79691	-0.0022199	  -7.79063	-0.0022251	  -7.79809	-0.00224769	  -7.79521	-0.0022309	  -7.79521	  -55.7724	
  -7.73919	-0.00221983	  -7.73312	-0.00222492	  -7.74085	-0.00224759	  -7.73772	-0.00223078	  -7.73772	  -55.7696	
  -7.68132	-0.00221977	  -7.67545	-0.00222462	  -7.68324	-0.00224735	     -7.68	-0.00223058	     -7.68	  -55.7646	
  -7.62312	-0.00221966	  -7.61744	-0.0022242	  -7.62514	-0.00224693	   -7.6219	-0.00223026	   -7.6219	  -55.7566	
  -7.56456	-0.00221943	  -7.55906	-0.00222366	  -7.56666	-0.00224636	  -7.56343	-0.00222982	  -7.56343	  -55.7454	
  -7.50588	-0.00221903	  -7.50053	-0.00222305	  -7.50772	-0.00224569	  -7.50471	-0.00222926	  -7.50471	  -55.7315	
  -7.44695	-0.00221846	   -7.4416	-0.00222242	  -7.44869	 -0.002245	  -7.44575	-0.00222863	  -7.44575	  -55.7157	
  -7.38768	-0.00221775	  -7.38233	-0.00222178	  -7.38932	-0.00224434	  -7.38644	-0.00222796	  -7.38644	  -55.6989	
   -7.3283	-0.00221698	   -7.3228	-0.00222115	  -7.32983	-0.00224371	  -7.32698	-0.00222728	  -7.32698	   -55.682	
  -7.26852	-0.00221621	  -7.26287	-0.00222049	  -7.27005	-0.00224308	  -7.26714	-0.00222659	  -7.26714	  -55.6649	
  -7.20843	-0.00221549	  -7.20265	-0.00221978	  -7.20995	-0.0022424	  -7.20701	-0.00222589	  -7.20701	  -55.6472	
  -7.14827	-0.00221481	  -7.14222	-0.00221896	  -7.14976	-0.00224161	  -7.14675	-0.00222512	  -7.14675	  -55.6281	
  -7.08761	-0.00221412	  -7.08131	-0.00221803	  -7.08907	-0.00224067	    -7.086	-0.00222428	    -7.086	  -55.6069	
  -7.02669	-0.00221337	  -7.02017	-0.00221699	  -7.02811	-0.0022396	  -7.02499	-0.00222332	  -7.02499	   -55.583	
  -6.96562	-0.00221251	  -6.95878	-0.00221586	  -6.96673	-0.00223842	  -6.96371	-0.00222226	  -6.96371	  -55.5566	
  -6.90411	-0.00221151	  -6.89698	-0.00221467	  -6.90508	-0.00223718	  -6.90205	-0.00222112	  -6.90205	  -55.5279	
   -6.8424	-0.00221037	  -6.83501	-0.00221343	  -6.84323	-0.00223593	  -6.84021	-0.00221991	  -6.84021	  -55.4978	
  -6.78039	-0.00220916	  -6.77294	-0.00221215	  -6.78108	-0.00223469	  -6.77814	-0.00221867	  -6.77814	  -55.4667	
  -6.71801	-0.00220792	   -6.7105	-0.00221082	  -6.71872	-0.00223346	  -6.71574	-0.0022174	  -6.71574	   -55.435	
   -6.6555	-0.0022067	  -6.64794	-0.00220945	  -6.65605	-0.00223219	  -6.65316	-0.00221611	  -6.65316	  -55.4028	
  -6.59257	-0.00220552	  -6.58523	-0.00220803	  -6.59321	-0.00223084	  -6.59033	-0.00221479	  -6.59033	  -55.3699	
  -6.52933	-0.00220434	  -6.52221	-0.00220655	  -6.53005	-0.00222937	   -6.5272	-0.00221342	   -6.5272	  -55.3354	
  -6.46603	-0.0022031	  -6.45895	-0.00220502	  -6.46681	-0.00222776	  -6.46393	-0.00221196	  -6.46393	   -55.299	
  -6.40241	-0.00220175	  -6.39538	-0.00220343	  -6.40354	-0.00222605	  -6.40044	-0.00221041	  -6.40044	  -55.2602	
  -6.33855	-0.00220026	  -6.33157	-0.00220177	  -6.33999	-0.00222425	   -6.3367	-0.00220876	   -6.3367	   -55.219	
  -6.27437	-0.00219863	   -6.2676	-0.00220003	  -6.27639	-0.00222242	  -6.27279	-0.00220703	  -6.27279	  -55.1757	
  -6.20992	-0.0021969	  -6.20336	-0.0021982	  -6.21234	-0.00222059	  -6.20854	-0.00220523	  -6.20854	  -55.1307	
  -6.14532	-0.00219512	  -6.13894	-0.00219627	  -6.14808	-0.00221875	  -6.14411	-0.00220338	  -6.14411	  -55.0845	
  -6.08063	-0.00219335	  -6.07428	-0.00219428	  -6.08338	-0.00221688	  -6.07943	-0.0022015	  -6.07943	  -55.0376	
   -6.0156	-0.0021916	  -6.00928	-0.00219223	  -6.01832	-0.00221494	   -6.0144	-0.00219959	   -6.0144	  -54.9898	
  -5.95049	-0.00218984	  -5.94404	-0.00219017	  -5.95285	-0.00221291	  -5.94913	-0.00219764	  -5.94913	  -54.9409	
  -5.88501	-0.00218802	  -5.87845	-0.00218809	  -5.88727	-0.00221075	  -5.88358	-0.00219562	  -5.88358	  -54.8906	
  -5.81929	-0.00218613	  -5.81263	-0.00218601	  -5.82144	-0.00220848	  -5.81779	-0.00219354	  -5.81779	  -54.8384	
   -5.7534	-0.00218411	  -5.74666	-0.00218388	  -5.75543	-0.0022061	  -5.75183	-0.00219136	  -5.75183	  -54.7841	
  -5.68711	-0.00218196	   -5.6803	-0.00218167	  -5.68902	-0.00220367	  -5.68548	-0.0021891	  -5.68548	  -54.7275	
  -5.62067	-0.0021797	  -5.61381	-0.00217936	  -5.62245	-0.00220123	  -5.61898	-0.00218676	  -5.61898	   -54.669	
   -5.5537	-0.00217738	  -5.54726	-0.00217693	   -5.5555	-0.00219879	  -5.55215	-0.00218437	  -5.55215	  -54.6091	
  -5.48645	-0.00217503	   -5.4804	-0.00217441	  -5.48826	-0.00219634	  -5.48504	-0.00218193	  -5.48504	  -54.5482	
  -5.41902	-0.0021727	  -5.41334	-0.00217183	  -5.42097	-0.00219385	  -5.41778	-0.00217946	  -5.41778	  -54.4865	
  -5.35133	-0.00217038	  -5.34583	-0.00216921	   -5.3534	-0.00219126	  -5.35019	-0.00217695	  -5.35019	  -54.4237	
  -5.28347	-0.00216804	  -5.27815	-0.00216657	  -5.28564	-0.00218852	  -5.28242	-0.00217438	  -5.28242	  -54.3594	
  -5.21553	-0.00216563	  -5.21036	-0.00216391	  -5.21792	-0.00218564	   -5.2146	-0.00217173	   -5.2146	  -54.2932	
  -5.14726	-0.0021631	  -5.14224	-0.00216121	  -5.15032	-0.00218263	  -5.14661	-0.00216898	  -5.14661	  -54.2244	
  -5.07893	-0.0021604	  -5.07405	-0.00215841	  -5.08257	-0.00217955	  -5.07851	-0.00216612	  -5.07851	   -54.153	
  -5.01028	-0.00215755	  -5.00553	-0.0021555	   -5.0146	-0.00217646	  -5.01014	-0.00216317	  -5.01014	  -54.0793	
  -4.94143	-0.00215457	   -4.9368	-0.00215249	  -4.94634	-0.0021734	  -4.94153	-0.00216015	  -4.94153	  -54.0038	
  -4.87247	-0.00215151	  -4.86778	-0.00214936	  -4.87789	-0.00217035	  -4.87271	-0.00215708	  -4.87271	  -53.9269	
  -4.80315	-0.00214845	  -4.79841	-0.00214616	  -4.80887	-0.00216729	  -4.80348	-0.00215397	  -4.80348	  -53.8491	
  -4.73374	-0.0021454	  -4.72896	-0.00214292	   -4.7397	-0.00216411	  -4.73413	-0.00215081	  -4.73413	  -53.7703	
   -4.6641	-0.00214237	  -4.65916	-0.00213966	  -4.67038	-0.00216081	  -4.66455	-0.00214761	  -4.66455	  -53.6903	
  -4.59424	-0.00213933	  -4.58915	-0.00213639	  -4.60078	-0.00215735	  -4.59472	-0.00214435	  -4.59472	  -53.6089	
  -4.52393	-0.00213621	  -4.51902	-0.00213309	  -4.53114	-0.00215377	   -4.5247	-0.00214102	   -4.5247	  -53.5256	
  -4.45344	-0.00213295	  -4.44869	-0.00212974	  -4.46109	-0.00215012	   -4.4544	-0.0021376	   -4.4544	  -53.4401	
  -4.38286	-0.00212953	  -4.37826	-0.0021263	  -4.39119	-0.00214647	  -4.38411	-0.0021341	  -4.38411	  -53.3525	
   -4.3122	-0.00212594	  -4.30761	-0.00212275	  -4.32073	-0.00214283	  -4.31351	-0.00213051	  -4.31351	  -53.2627	
  -4.24146	-0.00212226	  -4.23672	-0.00211908	  -4.25045	-0.0021392	  -4.24288	-0.00212685	  -4.24288	  -53.1712	
  -4.17027	-0.00211855	  -4.16586	-0.00211531	  -4.17918	-0.00213554	  -4.17177	-0.00212313	  -4.17177	  -53.0783	
  -4.09905	-0.00211487	  -4.09479	-0.00211146	  -4.10847	-0.00213179	  -4.10077	-0.00211937	  -4.10077	  -52.9843	
  -4.02773	-0.00211127	  -4.02361	-0.00210757	  -4.03742	-0.0021279	  -4.02959	-0.00211558	  -4.02959	  -52.8895	
  -3.95641	-0.00210771	  -3.95257	-0.00210366	   -3.9663	-0.00212387	  -3.95842	-0.00211174	  -3.95842	  -52.7936	
  -3.88484	-0.0021041	  -3.88125	-0.00209972	    -3.895	-0.00211969	  -3.88703	-0.00210784	  -3.88703	  -52.6959	
  -3.81329	-0.00210036	  -3.80993	-0.00209573	   -3.8235	-0.00211542	  -3.81557	-0.00210384	  -3.81557	  -52.5959	
  -3.74168	-0.0020964	  -3.73868	-0.00209166	  -3.75204	-0.00211111	  -3.74414	-0.00209972	  -3.74414	  -52.4931	
  -3.67057	-0.00209222	  -3.66727	-0.00208748	  -3.67993	-0.00210679	  -3.67259	-0.00209549	  -3.67259	  -52.3874	
  -3.59967	-0.0020879	  -3.59563	-0.00208317	  -3.60792	-0.00210244	  -3.60107	-0.00209117	  -3.60107	  -52.2793	
  -3.52859	-0.00208352	   -3.5237	-0.00207877	  -3.53562	-0.00209807	   -3.5293	-0.00208678	   -3.5293	  -52.1696	
  -3.45742	-0.0020792	  -3.45175	-0.00207429	  -3.46304	-0.00209361	   -3.4574	-0.00208237	   -3.4574	  -52.0591	
  -3.38546	-0.00207496	   -3.3797	-0.00206977	  -3.39039	-0.00208907	  -3.38519	-0.00207793	  -3.38519	  -51.9484	
  -3.31318	-0.00207081	   -3.3075	-0.00206523	  -3.31714	-0.00208442	   -3.3126	-0.00207349	   -3.3126	  -51.8372	
  -3.24083	-0.00206662	  -3.23539	-0.00206068	  -3.24403	-0.00207968	  -3.24009	-0.00206899	  -3.24009	  -51.7248	
  -3.16804	-0.00206232	  -3.16314	-0.00205608	  -3.17069	-0.00207487	  -3.16729	-0.00206442	  -3.16729	  -51.6106	
  -3.09525	-0.00205782	  -3.09085	-0.00205142	  -3.09737	-0.00207001	  -3.09449	-0.00205975	  -3.09449	  -51.4937	
  -3.02223	-0.00205312	  -3.01827	-0.00204665	  -3.02384	-0.0020651	  -3.02145	-0.00205496	  -3.02145	  -51.3739	
  -2.94939	-0.00204826	  -2.94553	-0.00204175	  -2.95021	-0.00206014	  -2.94838	-0.00205005	  -2.94838	  -51.2513	
  -2.87571	-0.00204335	  -2.87288	-0.00203675	  -2.87642	-0.00205509	    -2.875	-0.00204506	    -2.875	  -51.1265	
  -2.80197	-0.00203844	  -2.79993	-0.00203165	  -2.80241	-0.00204993	  -2.80144	-0.00204001	  -2.80144	  -51.0002	
  -2.72796	-0.00203359	  -2.72694	-0.0020265	  -2.72845	-0.00204465	  -2.72778	-0.00203491	  -2.72778	  -50.8728	
  -2.65388	-0.00202877	  -2.65366	-0.00202133	  -2.65428	-0.00203927	  -2.65394	-0.00202979	  -2.65394	  -50.7447	
  -2.58051	-0.00202391	  -2.58023	-0.00201615	  -2.58004	-0.00203383	  -2.58026	-0.00202463	  -2.58026	  -50.6158	
  -2.50601	-0.00201894	  -2.50692	-0.00201096	  -2.50582	-0.00202837	  -2.50625	-0.00201942	  -2.50625	  -50.4856	
  -2.43275	-0.00201381	  -2.43331	-0.00200571	  -2.43141	-0.00202292	  -2.43249	-0.00201415	  -2.43249	  -50.3537	
  -2.35852	-0.00200852	   -2.3597	-0.00200038	  -2.35705	-0.00201745	  -2.35842	-0.00200878	  -2.35842	  -50.2196	
  -2.28443	-0.00200309	  -2.28569	-0.00199493	  -2.28254	-0.00201194	  -2.28422	-0.00200332	  -2.28422	  -50.0829	
  -2.20988	-0.00199759	  -2.21156	-0.00198935	  -2.20796	-0.00200633	   -2.2098	-0.00199776	   -2.2098	  -49.9439	
   -2.1352	 -0.001992	  -2.13741	-0.00198362	  -2.13326	-0.00200049	  -2.13529	-0.00199204	  -2.13529	   -49.801	
  -2.06114	-0.00198644	  -2.06302	-0.00197787	  -2.05839	-0.00199447	  -2.06085	-0.00198626	  -2.06085	  -49.6565	
  -1.98632	-0.0019809	   -1.9885	-0.00197215	   -1.9836	-0.00198836	  -1.98614	-0.00198047	  -1.98614	  -49.5118	
  -1.91214	-0.00197534	  -1.91396	-0.00196652	  -1.90868	-0.00198224	  -1.91159	-0.0019747	  -1.91159	  -49.3675	
  -1.83755	-0.00196968	  -1.83932	-0.00196091	  -1.83372	-0.00197617	  -1.83686	-0.00196892	  -1.83686	   -49.223	
