# User: ACHyster
# File name: C:/ACHYSTER/ACHyster SENS/SHAMS/CoFe2O4-1gl-water-Zero Glycerol- Sens-07-03-2023/CoFe2O4-1gl-water-100-300kHz- 2kAm -Advance-14-03-20230003#1.txt
# Saved at: ma. mar. 14 18:42:57 2023
# Hyster Loop (3 iterations). Intensity: 12.0 kA/m; Tuned frequency: 297.0 kHz
# Units x axis: H (kA/m)
# Units y axis: "Repeats y" & "Average y" M (10^(-3)Am^2); "Mass avg y" normalized mass M (Am^2/kg)
# Magnetic mass: 4e-05 g
# Parameter      	Repeat   1	Repeat   2	Repeat   3	Average   	Sigma     
# H_C (kA/m)     	      11.2	      11.7	      11.2	      11.3	       0.2
# M_R (Am^2/kg)  	      13.9	      13.7	      13.7	      13.8	       0.1
# M_max (Am^2/kg)	      14.7	      14.0	      14.5	      14.4	       0.3
# Area (mJ/kg)   	     646.8	     641.2	     639.8	     642.6	       3.0
# SAR (W/g)      	     192.1	     190.5	     190.0	     190.9	       0.9
#Repeat 1 x	Repeat 1 y	Repeat 2 x	Repeat 2 y	Repeat 3 x	Repeat 3 y	Average x 	Average y 	Mass avg x 	Mass avg y 
   -2.0922	-0.000578561	  -2.06442	-0.000560384	  -2.11459	-0.000568768	  -2.09041	-0.000569237	  -2.09041	  -14.2309	
  -1.93859	-0.000577411	  -1.90898	-0.000560328	  -1.96059	-0.000567098	  -1.93605	-0.000568279	  -1.93605	   -14.207	
  -1.78396	-0.000575928	  -1.75311	-0.000560224	  -1.80547	-0.000565383	  -1.78085	-0.000567179	  -1.78085	  -14.1795	
  -1.62915	-0.000574126	  -1.59665	-0.000559996	  -1.65011	-0.000563673	   -1.6253	-0.000565932	   -1.6253	  -14.1483	
  -1.47396	-0.000572092	  -1.44043	-0.000559613	  -1.49432	-0.000561984	  -1.46957	-0.000564563	  -1.46957	  -14.1141	
  -1.31916	-0.000569907	  -1.28418	-0.000559049	  -1.33793	-0.000560353	  -1.31376	-0.000563103	  -1.31376	  -14.0776	
  -1.16447	-0.000567702	  -1.12769	-0.000558291	  -1.18178	-0.000558752	  -1.15798	-0.000561582	  -1.15798	  -14.0395	
  -1.00869	-0.000565562	 -0.970793	-0.000557393	  -1.02465	-0.000557151	  -1.00138	-0.000560035	  -1.00138	  -14.0009	
 -0.853641	-0.000563562	 -0.813328	-0.000556414	 -0.866485	-0.000555496	 -0.844484	-0.000558491	 -0.844484	  -13.9623	
 -0.698994	-0.00056164	 -0.656126	-0.00055537	  -0.70913	-0.000553788	 -0.688083	-0.000556933	 -0.688083	  -13.9233	
 -0.544453	-0.000559736	  -0.49894	-0.000554323	 -0.552258	-0.000551993	 -0.531884	-0.000555351	 -0.531884	  -13.8838	
 -0.388823	-0.000557826	 -0.341557	-0.000553279	 -0.394644	-0.000550077	 -0.375008	-0.000553727	 -0.375008	  -13.8432	
 -0.232986	-0.000555854	 -0.184748	-0.000552194	 -0.237142	-0.000548043	 -0.218292	-0.00055203	 -0.218292	  -13.8008	
 -0.076749	-0.000553731	-0.0282175	-0.000550971	-0.0804774	-0.000545893	-0.0618146	-0.000550198	-0.0618146	   -13.755	
 0.0800499	-0.00055143	  0.128293	-0.000549582	 0.0766357	-0.000543596	 0.0949929	-0.000548202	 0.0949929	  -13.7051	
  0.236592	-0.000548951	  0.284996	-0.000547952	  0.234335	-0.000541068	  0.251974	-0.000545991	  0.251974	  -13.6498	
  0.392182	-0.000546255	  0.440185	-0.000545957	  0.392739	-0.000538229	  0.408368	-0.00054348	  0.408368	   -13.587	
  0.548127	-0.000543232	  0.595254	-0.000543534	  0.550991	-0.000534991	   0.56479	-0.000540585	   0.56479	  -13.5146	
  0.703655	-0.000539832	  0.750453	-0.000540674	  0.708369	-0.000531328	  0.720826	-0.000537278	  0.720826	  -13.4319	
  0.859049	-0.000536011	  0.905987	-0.000537456	    0.8652	-0.000527301	  0.876745	-0.00053359	  0.876745	  -13.3397	
   1.01455	-0.000531811	   1.06109	-0.000534062	   1.02178	-0.000523047	   1.03247	-0.00052964	   1.03247	   -13.241	
   1.17038	-0.000527372	   1.21606	-0.000530721	   1.17836	-0.000518761	   1.18827	-0.000525618	   1.18827	  -13.1404	
   1.32577	-0.000522912	   1.37114	-0.000527645	   1.33514	-0.000514679	   1.34402	-0.000521746	   1.34402	  -13.0436	
   1.48098	-0.000518672	   1.52654	-0.000525047	   1.49232	-0.000511058	   1.49995	-0.000518259	   1.49995	  -12.9565	
   1.63535	-0.000514845	   1.68246	-0.00052308	   1.64815	-0.00050803	   1.65532	-0.000515319	   1.65532	   -12.883	
   1.78923	-0.000511535	   1.83713	-0.000521717	   1.80305	-0.000505595	   1.80981	-0.000512949	   1.80981	  -12.8237	
   1.94199	-0.000508696	   1.99193	-0.000520774	   1.95739	-0.000503619	   1.96377	-0.00051103	   1.96377	  -12.7757	
   2.09499	-0.000506118	   2.14611	-0.000519967	   2.11148	-0.000501838	   2.11753	-0.000509308	   2.11753	  -12.7327	
   2.24751	-0.000503506	   2.30002	-0.000519005	   2.26466	-0.000499914	   2.27073	-0.000507475	   2.27073	  -12.6869	
   2.39986	-0.000500595	   2.45298	-0.000517597	   2.41731	-0.000497485	   2.42338	-0.000505226	   2.42338	  -12.6306	
   2.55139	-0.000497182	   2.60538	-0.000515515	   2.56975	-0.000494371	   2.57551	-0.000502356	   2.57551	  -12.5589	
   2.70249	-0.000493197	   2.75663	-0.000512724	   2.72135	-0.000490554	   2.72682	-0.000498825	   2.72682	  -12.4706	
   2.85255	-0.000488714	   2.90716	-0.000509327	   2.87248	-0.000486099	    2.8774	-0.000494713	    2.8774	  -12.3678	
   3.00199	-0.000483942	   3.05736	-0.000505507	    3.0235	-0.000481137	   3.02762	-0.000490195	   3.02762	  -12.2549	
   3.15121	-0.000479042	   3.20755	-0.000501406	   3.17468	-0.000475876	   3.17781	-0.000485442	   3.17781	   -12.136	
   3.29958	-0.000474104	   3.35613	-0.000497136	   3.32438	-0.000470489	    3.3267	-0.000480576	    3.3267	  -12.0144	
   3.44754	-0.000469151	   3.50364	-0.000492727	   3.47312	-0.000465036	   3.47476	-0.000475638	   3.47476	   -11.891	
   3.59544	-0.00046413	   3.65054	-0.000488163	   3.62132	-0.000459488	   3.62243	-0.000470594	   3.62243	  -11.7648	
   3.74359	-0.000458935	   3.79723	-0.000483423	   3.76937	-0.000453787	   3.77007	-0.000465382	   3.77007	  -11.6345	
   3.89039	-0.000453443	   3.94407	-0.00047851	    3.9176	-0.00044789	   3.91735	-0.000459948	   3.91735	  -11.4987	
   4.03633	-0.000447669	   4.09041	-0.000473418	   4.06439	-0.000441801	   4.06371	-0.000454296	   4.06371	  -11.3574	
   4.18189	-0.000441762	   4.23569	-0.000468303	   4.21027	-0.00043563	   4.20929	-0.000448565	   4.20929	  -11.2141	
   4.32649	-0.000435925	   4.38042	-0.000463428	   4.35571	-0.000429551	    4.3542	-0.000442968	    4.3542	  -11.0742	
   4.46968	-0.000430327	     4.525	-0.00045896	    4.4992	-0.000423747	   4.49796	-0.000437678	   4.49796	  -10.9419	
   4.61201	-0.000425073	   4.66792	-0.000454993	   4.64233	-0.000418425	   4.64075	-0.000432831	   4.64075	  -10.8208	
   4.75398	-0.000420201	   4.80977	-0.000451555	   4.78457	-0.000413609	   4.78277	-0.000428455	   4.78277	  -10.7114	
   4.89602	-0.000415622	   4.95108	-0.000448589	   4.92641	-0.000409177	    4.9245	-0.000424463	    4.9245	  -10.6116	
   5.03658	-0.000411167	   5.09231	-0.000445844	   5.06828	-0.000404932	   5.06572	-0.000420648	   5.06572	  -10.5162	
   5.17627	-0.00040661	   5.23196	-0.000443014	   5.20867	-0.000400669	   5.20563	-0.000416764	   5.20563	  -10.4191	
   5.31562	-0.000401786	    5.3716	-0.000439884	   5.34817	-0.000396165	   5.34513	-0.000412611	   5.34513	  -10.3153	
   5.45413	-0.000396605	   5.51067	-0.00043636	   5.48731	-0.000391209	   5.48404	-0.000408058	   5.48404	  -10.2015	
   5.59137	-0.000391052	   5.64778	-0.000432385	   5.62654	-0.000385741	   5.62189	-0.000403059	   5.62189	  -10.0765	
   5.72796	-0.000385175	   5.78362	-0.000427929	   5.76436	-0.000379818	   5.75865	-0.000397641	   5.75865	  -9.94102	
   5.86442	-0.000379055	   5.91883	-0.00042307	   5.90139	-0.000373501	   5.89488	-0.000391875	   5.89488	  -9.79688	
   6.00025	-0.000372794	   6.05394	-0.000417889	   6.03722	-0.000366847	   6.03047	-0.000385843	   6.03047	  -9.64608	
   6.13503	-0.000366423	   6.18751	-0.000412434	   6.17152	-0.00035997	   6.16469	-0.000379609	   6.16469	  -9.49023	
   6.26842	-0.000359977	   6.32022	-0.000406731	   6.30496	-0.000352945	   6.29787	-0.000373218	   6.29787	  -9.33044	
   6.40108	-0.000353398	   6.45174	-0.000400786	   6.43719	-0.000345797	      6.43	-0.00036666	      6.43	  -9.16651	
   6.53264	-0.000346663	   6.58271	-0.000394605	   6.56885	-0.000338541	    6.5614	-0.000359936	    6.5614	  -8.99841	
   6.66375	-0.000339801	   6.71275	-0.000388204	   6.69956	-0.000331145	   6.69202	-0.00035305	   6.69202	  -8.82626	
   6.79401	-0.000332873	   6.84155	-0.00038168	     6.829	-0.000323658	   6.82152	-0.00034607	   6.82152	  -8.65175	
    6.9231	-0.000325902	   6.96887	-0.000375148	   6.95693	-0.000316196	   6.94963	-0.000339082	   6.94963	  -8.47705	
   7.05169	-0.000318939	    7.0945	-0.000368665	   7.08408	-0.000308886	   7.07676	-0.000332163	   7.07676	  -8.30408	
    7.1785	-0.000312066	   7.22017	-0.000362304	   7.20921	-0.000301769	   7.20263	-0.00032538	   7.20263	   -8.1345	
   7.30429	-0.000305333	   7.34453	-0.000356139	   7.33316	-0.000294895	   7.32733	-0.000318789	   7.32733	  -7.96973	
   7.42882	-0.000298714	   7.46739	-0.000350215	   7.45667	-0.000288318	   7.45096	-0.000312415	   7.45096	  -7.81039	
   7.55283	-0.000292163	    7.5886	-0.000344483	   7.57847	-0.000282045	    7.5733	-0.00030623	    7.5733	  -7.65575	
   7.67602	-0.000285635	   7.70899	-0.00033893	   7.69941	-0.000275979	   7.69481	-0.000300181	   7.69481	  -7.50453	
   7.79719	-0.000279111	    7.8274	-0.000333558	   7.81832	-0.000269998	    7.8143	-0.000294222	    7.8143	  -7.35556	
   7.91723	-0.000272564	   7.94473	-0.0003283	   7.93611	-0.000264048	   7.93269	-0.000288304	   7.93269	   -7.2076	
   8.03596	-0.000265958	   8.06178	-0.000323022	   8.05168	-0.000258058	   8.04981	-0.000282346	   8.04981	  -7.05864	
   8.15324	-0.00025927	   8.17734	-0.000317602	   8.16601	-0.00025193	   8.16553	-0.000276267	   8.16553	  -6.90669	
   8.26803	-0.00025251	   8.29132	-0.000311941	   8.27994	-0.000245586	   8.27976	-0.000270012	   8.27976	  -6.75031	
   8.38136	-0.000245665	   8.40368	-0.000305994	   8.39232	-0.000239047	   8.39245	-0.000263569	   8.39245	  -6.58921	
   8.49411	-0.000238694	   8.51536	-0.000299761	   8.50405	-0.000232341	   8.50451	-0.000256932	   8.50451	   -6.4233	
   8.60518	-0.000231554	   8.62525	-0.000293251	   8.61405	-0.000225426	   8.61482	-0.000250077	   8.61482	  -6.25193	
   8.71548	-0.000224266	   8.73338	-0.000286519	   8.72232	-0.000218285	   8.72373	-0.000243024	   8.72373	  -6.07559	
   8.82397	-0.00021683	    8.8398	-0.000279648	    8.8289	-0.000210995	   8.83089	-0.000235824	   8.83089	  -5.89561	
   8.93163	-0.000209278	   8.94455	-0.000272717	   8.93384	-0.000203633	   8.93667	-0.000228543	   8.93667	  -5.71358	
   9.03743	-0.000201639	   9.04771	-0.000265753	    9.0372	-0.000196232	   9.04078	-0.000221208	   9.04078	   -5.5302	
   9.14146	-0.000193959	   9.14841	-0.000258763	   9.13811	-0.000188837	   9.14266	-0.000213853	   9.14266	  -5.34632	
    9.2438	-0.000186327	   9.24876	-0.000251754	   9.23774	-0.000181485	   9.24343	-0.000206522	   9.24343	  -5.16304	
   9.34361	-0.000178789	   9.34868	-0.000244703	   9.33521	-0.000174183	    9.3425	-0.000199225	    9.3425	  -4.98062	
   9.44207	-0.000171313	   9.44717	-0.000237585	   9.43167	-0.000166915	    9.4403	-0.000191938	    9.4403	  -4.79844	
   9.53833	-0.000163872	   9.54431	-0.000230425	   9.52624	-0.00015967	    9.5363	-0.000184656	    9.5363	  -4.61639	
   9.63357	-0.000156489	   9.63927	-0.000223296	   9.62008	-0.00015245	   9.63098	-0.000177412	   9.63098	  -4.43529	
   9.72692	-0.000149122	   9.73231	-0.000216284	   9.71228	-0.000145287	   9.72384	-0.000170231	   9.72384	  -4.25578	
   9.81955	-0.000141743	   9.82269	-0.000209444	   9.80211	-0.000138256	   9.81478	-0.000163148	   9.81478	   -4.0787	
   9.91056	-0.000134363	   9.91174	-0.000202815	   9.89082	-0.000131396	   9.90438	-0.000156191	   9.90438	  -3.90478	
   10.0002	-0.000127049	    9.9987	-0.000196378	   9.97765	-0.000124687	   9.99218	-0.000149371	   9.99218	  -3.73428	
   10.0886	-0.000119815	   10.0839	-0.000190046	   10.0638	-0.000118111	   10.0788	-0.000142657	   10.0788	  -3.56643	
    10.175	-0.000112614	   10.1676	-0.000183704	   10.1485	-0.000111629	   10.1637	-0.000135982	   10.1637	  -3.39956	
   10.2588	-0.000105387	   10.2491	-0.00017725	    10.231	-0.000105091	   10.2463	-0.000129243	   10.2463	  -3.23106	
   10.3404	-9.8094e-05	   10.3298	-0.000170639	   10.3117	-9.84007e-05	   10.3273	-0.000122378	   10.3273	  -3.05945	
   10.4202	-9.0674e-05	   10.4089	-0.000163866	    10.391	-9.14754e-05	   10.4067	-0.000115338	   10.4067	  -2.88346	
   10.4976	-8.30824e-05	   10.4859	-0.000156915	   10.4681	-8.42796e-05	   10.4838	-0.000108092	   10.4838	  -2.70231	
    10.573	-7.52872e-05	   10.5601	-0.0001498	   10.5427	-7.67825e-05	   10.5586	-0.000100623	   10.5586	  -2.51558	
    10.647	-6.72962e-05	   10.6331	-0.000142607	   10.6161	-6.90864e-05	   10.6321	-9.29965e-05	   10.6321	  -2.32491	
   10.7199	-5.91748e-05	   10.7044	-0.000135398	   10.6878	-6.12857e-05	    10.704	-8.52862e-05	    10.704	  -2.13215	
     10.79	-5.09968e-05	   10.7733	-0.000128133	   10.7591	-5.34596e-05	   10.7741	-7.75298e-05	   10.7741	  -1.93824	
   10.8581	-4.27925e-05	   10.8414	-0.000120767	   10.8283	-4.56907e-05	   10.8426	-6.97502e-05	   10.8426	  -1.74376	
   10.9245	-3.466e-05	   10.9071	-0.000113286	    10.896	-3.79679e-05	   10.9092	-6.19715e-05	   10.9092	  -1.54929	
   10.9889	-2.66789e-05	    10.971	-0.000105697	   10.9617	-3.02537e-05	   10.9739	-5.42099e-05	   10.9739	  -1.35525	
   11.0518	-1.88107e-05	   11.0327	-9.80171e-05	    11.025	-2.24796e-05	   11.0365	-4.64358e-05	   11.0365	   -1.1609	
   11.1118	-1.09971e-05	   11.0928	-9.03139e-05	   11.0854	-1.46879e-05	   11.0967	-3.86663e-05	   11.0967	 -0.966658	
   11.1696	-3.19744e-06	   11.1509	-8.26679e-05	   11.1439	-6.87898e-06	   11.1548	-3.09148e-05	   11.1548	 -0.772869	
   11.2258	4.57979e-06	   11.2076	-7.51241e-05	   11.2008	9.25309e-07	   11.2114	-2.32063e-05	   11.2114	 -0.580159	
   11.2802	1.23239e-05	   11.2625	-6.76708e-05	    11.256	8.62048e-06	   11.2662	-1.55755e-05	   11.2662	 -0.389388	
   11.3323	1.99706e-05	   11.3153	-6.02969e-05	    11.309	1.6121e-05	   11.3189	-8.0684e-06	   11.3189	  -0.20171	
    11.382	2.74832e-05	   11.3657	-5.29809e-05	   11.3595	2.34078e-05	   11.3691	-6.9664e-07	   11.3691	 -0.017416	
   11.4291	3.48387e-05	   11.4135	-4.5638e-05	   11.4075	3.05451e-05	   11.4167	6.58192e-06	   11.4167	  0.164548	
   11.4743	4.20506e-05	   11.4596	-3.82211e-05	   11.4546	3.7593e-05	   11.4628	1.38075e-05	   11.4628	  0.345188	
   11.5185	4.91526e-05	   11.5046	-3.07427e-05	   11.4996	4.46112e-05	   11.5075	2.1007e-05	   11.5075	  0.525176	
   11.5613	5.62299e-05	   11.5472	-2.32345e-05	   11.5431	5.17254e-05	   11.5506	2.82403e-05	   11.5506	  0.706007	
   11.6025	6.33774e-05	   11.5884	-1.57203e-05	    11.585	5.90146e-05	    11.592	3.55572e-05	    11.592	  0.888931	
   11.6418	7.06573e-05	   11.6279	-8.25433e-06	   11.6251	6.64332e-05	   11.6316	4.29454e-05	   11.6316	   1.07363	
   11.6791	7.81211e-05	   11.6654	-9.1962e-07	   11.6631	7.3947e-05	   11.6692	5.03828e-05	   11.6692	   1.25957	
   11.7143	8.57579e-05	    11.701	6.28887e-06	    11.699	8.15728e-05	   11.7048	5.78732e-05	   11.7048	   1.44683	
   11.7473	9.35338e-05	   11.7344	1.3436e-05	   11.7327	8.92768e-05	   11.7382	6.54155e-05	   11.7382	   1.63539	
   11.7781	0.000101372	   11.7657	2.06019e-05	   11.7642	9.70013e-05	   11.7693	7.29918e-05	   11.7693	    1.8248	
   11.8067	0.000109207	   11.7949	2.78367e-05	   11.7934	0.00010479	   11.7983	8.06114e-05	   11.7983	   2.01528	
   11.8341	0.000116988	   11.8218	3.51631e-05	   11.8203	0.000112676	   11.8254	8.82755e-05	   11.8254	   2.20689	
   11.8591	0.000124753	   11.8466	4.25561e-05	   11.8451	0.000120631	   11.8503	9.59802e-05	   11.8503	   2.39951	
   11.8819	0.00013248	   11.8693	4.99482e-05	   11.8677	0.000128622	    11.873	0.000103684	    11.873	   2.59209	
   11.9025	0.000140182	     11.89	5.73619e-05	   11.8883	0.00013664	   11.8936	0.000111394	   11.8936	   2.78486	
   11.9211	0.000147861	   11.9087	6.47505e-05	   11.9068	0.000144627	   11.9122	0.000119079	   11.9122	   2.97698	
   11.9377	0.000155526	   11.9256	7.20546e-05	   11.9235	0.000152531	   11.9289	0.000126704	   11.9289	    3.1676	
   11.9525	0.000163111	   11.9407	7.92573e-05	   11.9384	0.000160329	   11.9438	0.000134232	   11.9438	    3.3558	
   11.9655	0.000170547	   11.9541	8.64028e-05	   11.9515	0.000168031	    11.957	0.00014166	    11.957	   3.54151	
   11.9769	0.000177845	   11.9659	9.34995e-05	   11.9631	0.000175626	   11.9686	0.00014899	   11.9686	   3.72476	
   11.9867	0.000184998	   11.9762	0.000100568	   11.9732	0.000183117	   11.9787	0.000156228	   11.9787	   3.90569	
   11.9952	0.000191998	   11.9833	0.00010762	   11.9819	0.000190507	   11.9868	0.000163375	   11.9868	   4.08437	
   12.0005	0.000198873	   11.9885	0.000114671	   11.9875	0.000197784	   11.9922	0.000170443	   11.9922	   4.26107	
   12.0031	0.000205714	    11.991	0.00012172	   11.9912	0.00020496	   11.9951	0.000177464	   11.9951	   4.43661	
   12.0032	0.000212558	   11.9931	0.000128723	   11.9924	0.000212055	   11.9963	0.000184445	   11.9963	   4.61113	
   12.0013	0.000219429	    11.993	0.000135664	   11.9915	0.000219096	   11.9953	0.000191397	   11.9953	   4.78492	
   11.9977	0.000226323	    11.991	0.000142568	   11.9887	0.00022613	   11.9924	0.00019834	   11.9924	   4.95851	
   11.9926	0.000233241	   11.9864	0.000149466	   11.9843	0.000233173	   11.9878	0.000205293	   11.9878	   5.13233	
   11.9864	0.000240208	   11.9806	0.000156338	   11.9787	0.00024024	   11.9819	0.000212262	   11.9819	   5.30655	
   11.9773	0.000247225	   11.9729	0.000163182	   11.9701	0.000247285	   11.9735	0.000219231	   11.9735	   5.48076	
   11.9669	0.000254295	   11.9627	0.000169994	   11.9592	0.000254268	   11.9629	0.000226186	   11.9629	   5.65465	
   11.9545	0.000261417	   11.9505	0.000176772	   11.9463	0.00026117	   11.9504	0.00023312	   11.9504	   5.82799	
   11.9404	0.000268587	   11.9348	0.000183527	   11.9319	0.000267983	   11.9357	0.000240032	   11.9357	   6.00081	
   11.9243	0.000275759	   11.9173	0.00019026	   11.9154	0.000274709	    11.919	0.000246909	    11.919	   6.17273	
   11.9055	0.000282866	   11.8974	0.000196997	   11.8964	0.00028137	   11.8998	0.000253745	   11.8998	   6.34361	
   11.8848	0.00028985	   11.8758	0.000203743	   11.8754	0.000287995	   11.8786	0.000260529	   11.8786	   6.51323	
   11.8606	0.000296673	   11.8528	0.000210496	   11.8529	0.000294632	   11.8554	0.000267267	   11.8554	   6.68167	
   11.8347	0.000303355	   11.8271	0.00021721	   11.8275	0.000301258	   11.8298	0.000273941	   11.8298	   6.84852	
   11.8068	0.000309905	   11.7993	0.000223856	      11.8	0.000307854	    11.802	0.000280539	    11.802	   7.01346	
   11.7773	0.000316311	   11.7691	0.000230408	   11.7708	0.000314383	   11.7724	0.000287034	   11.7724	   7.17585	
   11.7449	0.00032261	   11.7381	0.000236893	   11.7406	0.000320785	   11.7412	0.000293429	   11.7412	   7.33573	
   11.7105	0.000328895	   11.7049	0.000243285	    11.708	0.000327016	   11.7078	0.000299732	   11.7078	    7.4933	
   11.6746	0.000335171	   11.6701	0.000249538	   11.6736	0.000333049	   11.6728	0.000305919	   11.6728	   7.64799	
    11.637	0.000341393	   11.6324	0.000255665	   11.6362	0.000338921	   11.6352	0.000311993	   11.6352	   7.79983	
   11.5973	0.000347507	   11.5927	0.00026174	   11.5966	0.000344661	   11.5955	0.00031797	   11.5955	   7.94924	
   11.5562	0.000353503	   11.5508	0.00026782	   11.5556	0.000350419	   11.5542	0.000323914	   11.5542	   8.09784	
   11.5135	0.000359394	   11.5065	0.000273907	   11.5119	0.000356166	   11.5106	0.000329822	   11.5106	   8.24556	
    11.469	0.000365194	   11.4605	0.00027999	   11.4664	0.000361908	   11.4653	0.000335697	   11.4653	   8.39243	
   11.4233	0.000370898	   11.4118	0.00028608	   11.4198	0.000367649	   11.4183	0.000341543	   11.4183	   8.53856	
   11.3752	0.000376549	   11.3613	0.000292141	   11.3719	0.000373427	   11.3695	0.000347372	   11.3695	   8.68431	
   11.3256	0.000382218	   11.3088	0.000298154	   11.3224	0.000379159	   11.3189	0.000353177	   11.3189	   8.82943	
   11.2733	0.000387936	   11.2542	0.000304084	   11.2711	0.000384792	   11.2662	0.000358937	   11.2662	   8.97343	
   11.2175	0.000393664	   11.1985	0.000309927	   11.2179	0.000390353	   11.2113	0.000364648	   11.2113	    9.1162	
   11.1601	0.000399381	   11.1404	0.000315688	   11.1627	0.000395868	   11.1544	0.000370312	   11.1544	   9.25781	
   11.1011	0.000405095	    11.081	0.000321357	   11.1054	0.000401346	   11.0958	0.000375933	   11.0958	   9.39832	
   11.0404	0.00041077	   11.0192	0.000326929	    11.046	0.000406769	   11.0352	0.000381489	   11.0352	   9.53723	
   10.9779	0.00041633	    10.956	0.000332427	   10.9845	0.000412215	   10.9728	0.000386991	   10.9728	   9.67477	
   10.9137	0.000421751	   10.8905	0.000337875	   10.9219	0.000417707	   10.9087	0.000392444	   10.9087	   9.81111	
   10.8477	0.000427077	   10.8235	0.000343264	   10.8571	0.000423226	   10.8428	0.000397856	   10.8428	   9.94639	
    10.779	0.000432355	   10.7552	0.000348591	   10.7893	0.000428732	   10.7745	0.000403226	   10.7745	   10.0807	
   10.7087	0.000437572	   10.6855	0.000353883	   10.7195	0.000434162	   10.7046	0.000408539	   10.7046	   10.2135	
   10.6359	0.000442724	   10.6144	0.000359131	   10.6479	0.000439502	   10.6328	0.000413786	   10.6328	   10.3446	
   10.5618	0.000447832	   10.5401	0.000364326	   10.5746	0.000444694	   10.5588	0.000418951	   10.5588	   10.4738	
   10.4855	0.000452868	   10.4638	0.000369501	   10.4997	0.000449711	    10.483	0.000424027	    10.483	   10.6007	
   10.4081	 0.0004578	   10.3847	0.000374671	   10.4232	0.00045451	   10.4053	0.000428994	   10.4053	   10.7248	
   10.3287	0.000462625	    10.304	0.00037981	   10.3453	0.000459114	    10.326	0.00043385	    10.326	   10.8462	
   10.2475	0.000467425	    10.222	0.000384909	    10.266	0.000463533	   10.2452	0.000438622	   10.2452	   10.9656	
   10.1646	0.00047218	   10.1388	0.000390016	   10.1855	0.000467785	    10.163	0.000443327	    10.163	   11.0832	
   10.0794	0.000476865	   10.0535	0.000395098	    10.102	0.000471887	   10.0783	0.00044795	   10.0783	   11.1988	
   9.99306	0.000481497	   9.96729	0.00040014	   10.0167	0.000475884	   9.99236	0.000452507	   9.99236	   11.3127	
    9.9048	0.000486102	   9.88038	0.000405155	      9.93	0.000479845	   9.90506	0.000457034	   9.90506	   11.4258	
   9.81584	0.000490693	   9.79092	0.000410163	   9.84199	0.000483761	   9.81625	0.000461539	   9.81625	   11.5385	
   9.72535	0.000495248	   9.70026	0.000415127	   9.75289	0.000487578	   9.72617	0.000465984	   9.72617	   11.6496	
   9.63263	0.000499729	   9.60763	0.00041999	   9.66191	0.000491315	   9.63406	0.000470344	   9.63406	   11.7586	
   9.53805	0.000504153	   9.51432	0.000424819	   9.56935	0.000494986	   9.54058	0.000474653	   9.54058	   11.8663	
   9.44196	0.000508528	   9.41955	0.000429576	   9.47456	0.000498552	   9.44536	0.000478886	   9.44536	   11.9721	
   9.34465	0.000512842	   9.32359	0.000434199	   9.37887	0.000502001	   9.34904	0.000483014	   9.34904	   12.0754	
   9.24545	0.000517058	   9.22575	0.000438622	   9.28155	0.000505365	   9.25092	0.000487015	   9.25092	   12.1754	
   9.14475	0.000521175	   9.12641	0.000442867	   9.18199	0.000508678	   9.15105	0.000490907	   9.15105	   12.2727	
   9.04198	0.000525124	   9.02496	0.000446948	   9.07969	0.000511937	   9.04888	0.00049467	   9.04888	   12.3667	
   8.93852	0.00052888	   8.92186	0.000450866	   8.97615	0.000515141	   8.94551	0.000498295	   8.94551	   12.4574	
   8.83276	0.000532458	    8.8175	0.000454732	    8.8717	0.000518321	   8.84065	0.000501837	   8.84065	   12.5459	
   8.72614	0.000535874	   8.71129	0.000458654	   8.76571	0.000521476	   8.73438	0.000505335	   8.73438	   12.6334	
   8.61901	0.000539115	   8.60275	0.000462646	    8.6586	0.000524576	   8.62679	0.000508779	   8.62679	   12.7195	
   8.51069	0.000542235	   8.49339	0.000466674	   8.54978	0.000527571	   8.51796	0.00051216	   8.51796	    12.804	
   8.40063	0.000545307	   8.38261	0.000470735	   8.43973	0.000530461	   8.40766	0.000515501	   8.40766	   12.8875	
   8.28837	0.000548309	    8.2699	0.000474791	    8.3279	0.000533232	   8.29539	0.000518777	   8.29539	   12.9694	
   8.17543	0.000551175	   8.15487	0.000478753	   8.21482	0.000535854	   8.18171	0.000521927	   8.18171	   13.0482	
   8.06028	0.000553893	   8.03909	0.000482606	   8.09999	0.000538269	   8.06645	0.000524923	   8.06645	   13.1231	
   7.94353	0.000556488	   7.92201	0.00048635	     7.983	0.000540475	   7.94952	0.000527771	   7.94952	   13.1943	
   7.82479	0.000558945	   7.80319	0.000489958	   7.86448	0.000542477	   7.83082	0.00053046	   7.83082	   13.2615	
    7.7056	0.000561286	   7.68227	0.000493463	   7.74497	0.000544312	   7.71095	0.00053302	   7.71095	   13.3255	
   7.58543	0.000563547	   7.56085	0.000496891	     7.624	0.000545981	   7.59009	0.000535473	   7.59009	   13.3868	
   7.46381	0.000565785	    7.4384	0.000500291	   7.50121	0.000547512	   7.46781	0.000537863	   7.46781	   13.4466	
   7.34036	0.000568012	   7.31451	0.000503588	   7.37721	0.000548966	   7.34403	0.000540188	   7.34403	   13.5047	
    7.2148	0.000570279	   7.19069	0.000506767	   7.25257	0.000550403	   7.21935	0.000542483	   7.21935	   13.5621	
   7.08876	0.000572546	   7.06545	0.000509816	   7.12683	0.000551863	   7.09368	0.000544742	   7.09368	   13.6185	
   6.96178	0.000574733	   6.93937	0.00051266	    6.9996	0.000553361	   6.96692	0.000546918	   6.96692	    13.673	
   6.83347	0.000576782	   6.81205	0.000515239	   6.87058	0.000554902	    6.8387	0.000548974	    6.8387	   13.7244	
   6.70349	0.000578655	   6.68313	0.000517575	   6.74141	0.000556501	   6.70934	0.00055091	   6.70934	   13.7728	
   6.57255	0.000580343	   6.55329	0.00051975	    6.6116	0.000558149	   6.57915	0.000552748	   6.57915	   13.8187	
   6.44029	0.000581849	   6.42215	0.000521826	   6.48074	0.000559826	   6.44773	 0.0005545	   6.44773	   13.8625	
   6.30642	0.000583225	   6.28943	0.000523867	   6.34851	0.00056144	   6.31478	0.000556177	   6.31478	   13.9044	
   6.17168	0.000584512	   6.15581	 0.0005259	   6.21461	0.000562977	    6.1807	0.000557796	    6.1807	   13.9449	
   6.03574	0.000585732	     6.021	0.000527961	   6.07979	0.000564512	   6.04551	0.000559402	   6.04551	    13.985	
   5.89834	0.000586899	    5.8847	0.000530073	   5.94373	0.000566098	   5.90892	0.000561023	   5.90892	   14.0256	
   5.76023	0.000588001	   5.74764	0.000532211	   5.80618	0.000567658	   5.77135	0.000562623	   5.77135	   14.0656	
   5.62203	0.000589001	   5.61046	0.000534312	   5.66789	0.000569121	   5.63346	0.000564145	   5.63346	   14.1036	
   5.48336	0.000589873	   5.47182	0.000536338	   5.52855	0.000570505	   5.49458	0.000565572	   5.49458	   14.1393	
   5.34388	0.000590597	   5.33246	0.000538276	   5.38792	0.000571808	   5.35475	0.000566893	   5.35475	   14.1723	
    5.2033	0.000591181	    5.1921	0.000540141	    5.2458	 0.0005729	   5.21373	0.000568074	   5.21373	   14.2018	
   5.06141	0.000591655	   5.05049	0.000541921	   5.10205	0.00057371	   5.07132	0.000569095	   5.07132	   14.2274	
   4.91897	0.000592084	   4.90838	0.000543621	    4.9575	0.000574292	   4.92828	0.000569999	   4.92828	     14.25	
   4.77569	0.000592514	   4.76548	0.000545252	   4.81191	0.000574726	   4.78436	0.000570831	   4.78436	   14.2708	
   4.63134	0.000592973	   4.62155	0.00054683	   4.66605	0.000575021	   4.63964	0.000571608	   4.63964	   14.2902	
   4.48668	0.000593443	   4.47733	0.000548322	   4.51964	0.000575264	   4.49455	0.000572343	   4.49455	   14.3086	
   4.34141	0.000593888	   4.33252	0.000549668	   4.37338	0.000575613	    4.3491	0.000573056	    4.3491	   14.3264	
   4.19529	0.000594241	   4.18686	0.000550859	   4.22597	0.000576039	   4.20271	0.000573713	   4.20271	   14.3428	
   4.04811	0.000594459	   4.04016	0.000551934	   4.07729	0.000576487	   4.05519	0.000574293	   4.05519	   14.3573	
   3.90162	0.000594503	   3.89224	0.000552842	    3.9272	0.000576943	   3.90702	0.000574763	   3.90702	   14.3691	
   3.75443	0.000594372	   3.74391	0.00055354	   3.77753	0.000577422	   3.75862	0.000575111	   3.75862	   14.3778	
   3.60633	0.000594058	   3.59494	0.000554085	   3.62698	0.000577868	   3.60942	0.000575337	   3.60942	   14.3834	
   3.45716	0.000593604	   3.44512	0.000554589	    3.4754	0.000578253	   3.45923	0.000575482	   3.45923	    14.387	
   3.30773	0.000593032	   3.29524	0.000555077	   3.32362	0.000578691	   3.30886	 0.0005756	   3.30886	     14.39	
   3.15777	0.000592386	   3.14501	0.000555547	    3.1714	0.000579217	   3.15806	0.000575717	   3.15806	   14.3929	
   3.00709	0.000591672	   2.99422	0.000556054	   3.01855	0.000579799	   3.00662	0.000575841	   3.00662	    14.396	
   2.85645	0.000590878	   2.84267	0.000556619	   2.86491	0.000580366	   2.85468	0.000575954	   2.85468	   14.3989	
   2.70464	0.000589962	    2.6902	0.000557178	   2.71035	0.000580857	   2.70173	0.000575999	   2.70173	      14.4	
   2.55249	0.000588888	   2.53763	0.000557665	    2.5557	0.000581164	   2.54861	0.000575905	   2.54861	   14.3976	
    2.3998	0.000587652	   2.38472	0.000558075	   2.40075	0.000581147	   2.39509	0.000575625	   2.39509	   14.3906	
   2.24639	0.000586287	   2.23126	0.000558418	   2.24531	0.000580747	   2.24099	0.00057515	   2.24099	   14.3788	
   2.09307	0.000584843	   2.07615	0.000558645	   2.09017	0.000579955	   2.08646	0.000574481	   2.08646	    14.362	
   1.93957	0.000583346	   1.92129	0.000558772	   1.93507	0.000578849	   1.93198	0.000573656	   1.93198	   14.3414	
   1.78568	 0.0005818	   1.76642	0.00055883	   1.78071	0.000577533	    1.7776	0.000572721	    1.7776	    14.318	
   1.63122	0.000580202	    1.6113	0.000558827	    1.6258	0.000576075	   1.62277	0.000571701	   1.62277	   14.2925	
   1.47603	0.000578532	   1.45574	0.000558697	    1.4702	0.000574498	   1.46732	0.000570576	   1.46732	   14.2644	
   1.32093	0.000576773	   1.29958	0.000558407	   1.31472	0.000572828	   1.31174	0.000569336	   1.31174	   14.2334	
   1.16473	0.000574899	   1.14269	0.00055791	   1.15913	0.000571092	   1.15552	0.000567967	   1.15552	   14.1992	
   1.00834	0.000572928	   0.98592	0.000557138	   1.00322	0.000569249	   0.99916	0.000566438	   0.99916	    14.161	
  0.852491	0.000570868	  0.828087	0.000556064	  0.847754	0.000567279	  0.842777	0.000564737	  0.842777	   14.1184	
  0.696898	0.000568725	  0.670098	0.000554716	  0.692445	0.000565186	   0.68648	0.000562876	   0.68648	   14.0719	
  0.541295	0.000566488	  0.511773	0.000553193	  0.537041	0.000563009	  0.530036	0.000560897	  0.530036	   14.0224	
  0.385458	0.000564132	  0.353906	0.000551557	  0.381329	0.000560785	  0.373564	0.000558824	  0.373564	   13.9706	
  0.229203	0.000561631	  0.196238	0.000549862	  0.225135	0.000558527	  0.216858	0.000556673	  0.216858	   13.9168	
 0.0733223	0.000558891	 0.0385327	0.000548108	 0.0692589	0.000556214	 0.0603713	0.000554404	 0.0603713	   13.8601	
-0.0824623	0.000555835	 -0.119407	0.000546252	-0.0865685	0.000553795	-0.0961459	0.00055196	-0.0961459	    13.799	
 -0.237447	0.000552405	 -0.275856	0.000544273	 -0.241636	0.000551186	 -0.251646	0.000549288	 -0.251646	   13.7322	
 -0.391974	0.000548639	 -0.431241	0.000542145	 -0.396279	0.000548348	 -0.406498	0.000546377	 -0.406498	   13.6594	
 -0.546348	0.00054461	  -0.58689	0.000539848	 -0.550797	0.000545219	 -0.561345	0.000543225	 -0.561345	   13.5806	
 -0.700831	0.000540467	 -0.742048	0.000537362	 -0.705446	0.000541785	 -0.716108	0.000539871	 -0.716108	   13.4968	
 -0.855638	0.000536374	 -0.897009	0.000534807	 -0.860435	0.000538121	 -0.871027	0.000536434	 -0.871027	   13.4108	
  -1.01001	0.000532449	  -1.05109	0.000532363	    -1.015	0.000534394	  -1.02536	0.000533069	  -1.02536	   13.3267	
  -1.16424	0.000528759	  -1.20465	0.000530168	  -1.16944	0.000530744	  -1.17944	0.00052989	  -1.17944	   13.2473	
   -1.3186	0.000525319	  -1.35803	0.000528271	  -1.32401	0.000527234	  -1.33354	0.000526941	  -1.33354	   13.1735	
  -1.47236	0.000522112	  -1.51054	0.000526651	  -1.47798	0.000523923	  -1.48696	0.000524229	  -1.48696	   13.1057	
  -1.62585	0.000519054	  -1.66258	0.000525222	  -1.63168	0.000520779	  -1.64003	0.000521685	  -1.64003	   13.0421	
  -1.77936	0.000516023	  -1.81447	0.00052382	  -1.78539	0.000517623	  -1.79308	0.000519155	  -1.79308	   12.9789	
  -1.93313	0.000512905	  -1.96651	0.000522225	  -1.93936	0.000514337	  -1.94633	0.000516489	  -1.94633	   12.9122	
  -2.08736	0.000509645	  -2.11892	0.000520264	   -2.0919	0.000510885	   -2.0994	0.000513598	   -2.0994	   12.8399	
  -2.24129	0.000506207	  -2.27098	0.000517831	  -2.24442	0.000507125	  -2.25223	0.000510387	  -2.25223	   12.7597	
  -2.39519	0.00050251	  -2.42298	0.000514964	  -2.39718	0.000502961	  -2.40512	0.000506811	  -2.40512	   12.6703	
  -2.54837	0.000498545	  -2.57427	0.00051174	  -2.54946	0.000498472	  -2.55737	0.000502919	  -2.55737	    12.573	
  -2.70119	0.000494367	   -2.7252	0.000508251	  -2.70158	0.000493806	  -2.70932	0.000498808	  -2.70932	   12.4702	
    -2.853	0.000490012	  -2.87612	0.00050462	  -2.85383	0.000488983	  -2.86098	0.000494538	  -2.86098	   12.3635	
  -3.00422	0.000485428	  -3.02635	0.00050091	  -3.00646	0.000483996	  -3.01234	0.000490111	  -3.01234	   12.2528	
  -3.15521	0.000480602	  -3.17722	0.000497124	  -3.15872	0.000478996	  -3.16371	0.000485574	  -3.16371	   12.1393	
  -3.30532	0.000475566	  -3.32701	0.000493245	  -3.30997	0.000474052	   -3.3141	0.000480955	   -3.3141	   12.0239	
  -3.45498	0.000470346	  -3.47619	0.000489265	  -3.45969	0.00046916	  -3.46362	0.000476257	  -3.46362	   11.9064	
  -3.60453	0.000464965	  -3.62512	0.00048516	  -3.60838	0.000464278	  -3.61268	0.000471468	  -3.61268	   11.7867	
  -3.75334	0.000459443	  -3.77413	0.000480935	  -3.75745	0.000459382	  -3.76164	0.000466587	  -3.76164	   11.6647	
  -3.90086	0.000453841	  -3.92352	0.000476679	  -3.90713	0.000454418	   -3.9105	0.000461646	   -3.9105	   11.5412	
  -4.04759	0.000448248	  -4.07163	0.000472484	  -4.05667	0.000449364	  -4.05863	0.000456699	  -4.05863	   11.4175	
  -4.19397	0.000442754	  -4.21894	0.000468417	  -4.20356	0.00044421	  -4.20549	0.000451794	  -4.20549	   11.2948	
  -4.33943	0.00043738	  -4.36589	0.000464508	  -4.34849	0.000438951	  -4.35127	0.000446947	  -4.35127	   11.1737	
  -4.48348	0.000432148	  -4.51096	0.000460771	  -4.49208	0.000433632	  -4.49551	0.000442184	  -4.49551	   11.0546	
  -4.62669	0.000427059	  -4.65475	0.000457163	  -4.63584	0.000428307	  -4.63909	0.00043751	  -4.63909	   10.9377	
  -4.76857	0.000422085	  -4.79781	0.000453583	  -4.77914	0.000423002	  -4.78184	0.00043289	  -4.78184	   10.8223	
  -4.91065	0.000417173	   -4.9406	0.000449968	   -4.9224	0.000417683	  -4.92455	0.000428275	  -4.92455	   10.7069	
  -5.05137	0.000412238	  -5.08351	0.000446223	    -5.066	0.000412286	  -5.06696	0.000423582	  -5.06696	   10.5896	
  -5.19132	0.000407233	  -5.22501	0.000442265	  -5.20927	0.000406766	  -5.20853	0.000418755	  -5.20853	   10.4689	
  -5.33005	0.000402108	  -5.36568	0.000438051	  -5.35074	0.000401051	  -5.34882	0.000413737	  -5.34882	   10.3434	
   -5.4691	0.000396828	  -5.50601	0.000433597	  -5.49105	0.00039503	  -5.48872	0.000408485	  -5.48872	   10.2121	
  -5.60692	0.000391332	  -5.64644	0.000428896	   -5.6317	0.000388679	  -5.62835	0.000402969	  -5.62835	   10.0742	
  -5.74411	0.000385619	  -5.78547	0.000423961	  -5.77207	0.000382079	  -5.76722	0.000397219	  -5.76722	   9.93049	
  -5.88119	0.000379698	  -5.92369	0.000418857	  -5.91166	0.000375377	  -5.90551	0.000391311	  -5.90551	   9.78276	
  -6.01764	0.000373565	  -6.06162	0.000413619	  -6.04908	0.000368716	  -6.04278	 0.0003853	  -6.04278	    9.6325	
  -6.15305	0.000367213	  -6.19785	0.000408261	  -6.18507	0.000362156	  -6.17866	0.00037921	  -6.17866	   9.48026	
  -6.28705	0.00036062	  -6.33304	0.000402799	  -6.31837	0.000355801	  -6.31282	0.000373073	  -6.31282	   9.32683	
  -6.42032	0.000353806	  -6.46684	0.000397287	  -6.45079	0.000349657	  -6.44598	0.000366917	  -6.44598	   9.17292	
  -6.55247	0.000346817	  -6.59992	0.000391773	  -6.58199	0.000343594	  -6.57813	0.000360728	  -6.57813	    9.0182	
  -6.68415	0.000339692	  -6.73189	0.000386247	  -6.71262	0.000337429	  -6.70955	0.000354456	  -6.70955	    8.8614	
    -6.814	0.000332502	  -6.86246	0.00038068	  -6.84232	0.000331064	  -6.83959	0.000348082	  -6.83959	   8.70205	
  -6.94281	0.000325335	  -6.99137	0.000375102	  -6.96983	0.000324474	    -6.968	0.000341637	    -6.968	   8.54093	
  -7.07029	0.000318256	  -7.11939	0.000369534	  -7.09505	 0.0003177	  -7.09491	0.000335163	  -7.09491	   8.37909	
  -7.19621	0.000311277	  -7.24526	0.00036397	  -7.21887	0.000310836	  -7.22011	0.000328694	  -7.22011	   8.21735	
  -7.32134	0.000304429	  -7.36985	0.00035842	  -7.34111	0.000304022	   -7.3441	0.00032229	   -7.3441	   8.05725	
  -7.44445	0.000297699	  -7.49389	0.000352905	  -7.46258	0.00029737	  -7.46698	0.000315991	  -7.46698	   7.89978	
  -7.56642	0.000291078	  -7.61614	0.000347474	  -7.58399	0.000290913	  -7.58885	0.000309821	  -7.58885	   7.74554	
  -7.68611	0.000284535	  -7.73744	0.000342094	  -7.70498	0.000284573	  -7.70951	0.000303734	  -7.70951	   7.59335	
  -7.80445	0.00027802	  -7.85664	0.000336739	  -7.82434	0.000278199	  -7.82848	0.000297653	  -7.82848	   7.44131	
  -7.92227	0.000271524	  -7.97466	0.00033135	  -7.94195	0.00027156	  -7.94629	0.000291478	  -7.94629	   7.28695	
  -8.03933	0.000265021	  -8.09134	0.000325858	  -8.05871	0.000264567	  -8.06313	0.000285149	  -8.06313	   7.12871	
  -8.15543	0.000258479	  -8.20657	0.000320177	  -8.17443	0.000257206	  -8.17881	0.000278621	  -8.17881	   6.96552	
  -8.26947	0.000251829	  -8.32029	0.000314305	  -8.28804	0.000249545	   -8.2926	0.000271893	   -8.2926	   6.79732	
  -8.38241	0.000245052	  -8.43243	0.000308189	   -8.4005	0.000241706	  -8.40511	0.000264982	  -8.40511	   6.62456	
  -8.49415	0.000238085	  -8.54393	0.000301792	  -8.51268	0.00023389	  -8.51692	0.000257922	  -8.51692	   6.44806	
  -8.60462	 0.0002309	  -8.65367	0.000295162	  -8.62342	0.000226268	  -8.62724	0.000250777	  -8.62724	   6.26942	
  -8.71283	0.000223489	  -8.76169	0.000288402	  -8.73269	0.000218838	  -8.73573	0.000243576	  -8.73573	   6.08941	
  -8.81982	0.000215912	  -8.86803	0.000281553	  -8.83952	0.000211567	  -8.84245	0.000236344	  -8.84245	   5.90861	
  -8.92463	0.000208213	  -8.97367	0.000274603	  -8.94502	0.000204365	  -8.94777	0.000229061	  -8.94777	   5.72652	
  -9.02836	0.000200425	   -9.0776	0.000267633	   -9.0492	0.000197195	  -9.05172	0.000221751	  -9.05172	   5.54377	
  -9.13098	0.000192602	  -9.17895	0.000260717	  -9.15208	0.000189953	    -9.154	0.000214424	    -9.154	    5.3606	
  -9.23251	0.000184757	   -9.2789	0.000253864	  -9.25275	0.000182554	  -9.25472	0.000207058	  -9.25472	   5.17646	
  -9.33203	0.00017692	  -9.37659	0.000247049	  -9.35045	0.000175018	  -9.35302	0.000199662	  -9.35302	   4.99155	
  -9.42876	0.00016908	  -9.47318	0.000240246	  -9.44741	0.000167457	  -9.44978	0.000192261	  -9.44978	   4.80653	
  -9.52396	0.000161256	  -9.56781	0.000233477	   -9.5427	0.000160031	  -9.54482	0.000184921	  -9.54482	   4.62303	
  -9.61777	0.000153439	  -9.66069	0.00022672	  -9.63742	0.000152739	  -9.63863	0.000177633	  -9.63863	   4.44082	
  -9.71035	0.000145696	  -9.75202	0.000219951	  -9.73066	0.000145562	  -9.73101	0.000170403	  -9.73101	   4.26007	
  -9.80277	0.000138026	  -9.84106	0.000213145	  -9.82162	0.00013851	  -9.82182	0.000163227	  -9.82182	   4.08067	
  -9.89312	0.000130423	  -9.92909	0.000206304	  -9.91062	0.000131569	  -9.91094	0.000156099	  -9.91094	   3.90247	
  -9.98168	0.000122871	  -10.0153	0.000199463	  -9.99793	0.000124639	   -9.9983	0.000148991	   -9.9983	   3.72478	
  -10.0678	0.000115379	   -10.099	0.000192603	  -10.0829	0.000117587	  -10.0832	0.000141856	  -10.0832	    3.5464	
  -10.1518	 0.0001079	  -10.1816	0.000185708	  -10.1658	0.000110411	  -10.1664	0.000134673	  -10.1664	   3.36682	
   -10.234	0.000100366	  -10.2634	0.000178742	  -10.2471	0.000103075	  -10.2482	0.000127394	  -10.2482	   3.18485	
  -10.3148	9.27141e-05	  -10.3444	0.00017169	   -10.327	9.55822e-05	  -10.3288	0.000119996	  -10.3288	   2.99989	
  -10.3945	 8.498e-05	  -10.4239	0.000164541	  -10.4059	8.79566e-05	  -10.4081	0.000112492	  -10.4081	   2.81231	
  -10.4724	7.71708e-05	  -10.5014	0.000157257	  -10.4831	8.02679e-05	  -10.4856	0.000104898	  -10.4856	   2.62246	
  -10.5479	6.93009e-05	  -10.5762	0.000149837	   -10.558	7.25283e-05	  -10.5607	9.72222e-05	  -10.5607	   2.43056	
  -10.6214	6.14098e-05	   -10.649	0.000142287	   -10.631	6.47354e-05	  -10.6338	8.94772e-05	  -10.6338	   2.23693	
  -10.6935	5.35157e-05	  -10.7201	0.000134672	  -10.7026	5.69169e-05	  -10.7054	8.17015e-05	  -10.7054	   2.04254	
  -10.7636	4.55923e-05	  -10.7891	0.000127055	  -10.7723	4.91096e-05	   -10.775	7.3919e-05	   -10.775	   1.84797	
  -10.8312	3.75953e-05	  -10.8564	0.000119491	  -10.8395	4.12584e-05	  -10.8424	6.61147e-05	  -10.8424	   1.65287	
  -10.8979	2.95434e-05	  -10.9217	0.000112031	  -10.9058	3.33538e-05	  -10.9085	5.83093e-05	  -10.9085	   1.45773	
   -10.963	2.14387e-05	  -10.9853	0.00010471	  -10.9707	2.54353e-05	   -10.973	5.05281e-05	   -10.973	    1.2632	
  -11.0261	1.32941e-05	   -11.047	9.75391e-05	  -11.0336	1.75104e-05	  -11.0356	4.27812e-05	  -11.0356	   1.06953	
  -11.0868	5.13471e-06	  -11.1072	9.04059e-05	  -11.0941	9.57827e-06	  -11.0961	3.50396e-05	  -11.0961	  0.875991	
  -11.1467	-2.95428e-06	  -11.1656	8.32654e-05	  -11.1539	1.62609e-06	  -11.1554	2.73124e-05	  -11.1554	   0.68281	
  -11.2053	-1.09296e-05	  -11.2226	7.61269e-05	  -11.2124	-6.28673e-06	  -11.2135	1.96368e-05	  -11.2135	  0.490921	
  -11.2622	-1.87774e-05	   -11.278	6.90226e-05	  -11.2692	-1.41172e-05	  -11.2698	1.20427e-05	  -11.2698	  0.301067	
  -11.3169	-2.65243e-05	  -11.3313	6.19494e-05	  -11.3239	-2.18632e-05	  -11.3241	4.52063e-06	  -11.3241	  0.113016	
  -11.3693	-3.41931e-05	  -11.3824	5.49527e-05	  -11.3762	-2.953e-05	   -11.376	-2.92346e-06	   -11.376	-0.0730865	
   -11.419	-4.18452e-05	  -11.4309	4.80546e-05	   -11.426	-3.70889e-05	  -11.4253	-1.02932e-05	  -11.4253	 -0.257329	
   -11.466	-4.95209e-05	  -11.4776	4.1244e-05	  -11.4739	-4.45506e-05	  -11.4725	-1.76092e-05	  -11.4725	 -0.440229	
  -11.5121	-5.72088e-05	  -11.5214	3.44215e-05	  -11.5199	-5.19697e-05	  -11.5178	-2.4919e-05	  -11.5178	 -0.622975	
  -11.5568	-6.48711e-05	  -11.5642	2.75129e-05	  -11.5635	-5.9374e-05	  -11.5615	-3.22441e-05	  -11.5615	 -0.806102	
  -11.5999	-7.24942e-05	  -11.6037	2.04414e-05	  -11.6058	-6.682e-05	  -11.6031	-3.96243e-05	  -11.6031	 -0.990607	
  -11.6412	-8.00702e-05	  -11.6419	1.31613e-05	  -11.6463	-7.43699e-05	  -11.6431	-4.70929e-05	  -11.6431	  -1.17732	
  -11.6805	-8.75748e-05	  -11.6785	5.67419e-06	  -11.6841	-8.20337e-05	   -11.681	-5.46448e-05	   -11.681	  -1.36612	
  -11.7176	-9.50088e-05	  -11.7134	-1.98479e-06	    -11.72	-8.98101e-05	   -11.717	-6.22679e-05	   -11.717	   -1.5567	
  -11.7526	-0.000102407	  -11.7465	-9.72126e-06	  -11.7539	-9.76571e-05	   -11.751	-6.99285e-05	   -11.751	  -1.74821	
  -11.7853	-0.000109829	  -11.7777	-1.73995e-05	  -11.7858	-0.000105518	  -11.7829	-7.7582e-05	  -11.7829	  -1.93955	
  -11.8156	-0.000117322	  -11.8069	-2.49561e-05	  -11.8156	-0.000113303	  -11.8127	-8.51936e-05	  -11.8127	  -2.12984	
  -11.8437	-0.000124865	  -11.8342	-3.23959e-05	  -11.8433	-0.000120991	  -11.8404	-9.27507e-05	  -11.8404	  -2.31877	
  -11.8696	-0.000132454	  -11.8594	-3.97463e-05	  -11.8689	-0.000128578	  -11.8659	-0.00010026	  -11.8659	  -2.50649	
  -11.8932	-0.000140097	  -11.8826	-4.70361e-05	  -11.8924	-0.000136101	  -11.8894	-0.000107745	  -11.8894	  -2.69362	
  -11.9148	-0.000147764	  -11.9039	-5.43136e-05	  -11.9139	-0.000143587	  -11.9109	-0.000115222	  -11.9109	  -2.88054	
  -11.9342	-0.000155412	  -11.9234	-6.16252e-05	  -11.9335	-0.000151082	  -11.9304	-0.000122707	  -11.9304	  -3.06767	
  -11.9518	-0.000162999	   -11.941	-6.89906e-05	  -11.9512	-0.000158601	   -11.948	-0.000130197	   -11.948	  -3.25492	
  -11.9674	-0.000170542	  -11.9568	-7.63296e-05	  -11.9671	-0.000166138	  -11.9638	-0.00013767	  -11.9638	  -3.44175	
  -11.9813	-0.000178075	  -11.9711	-8.35391e-05	  -11.9813	-0.000173677	  -11.9779	-0.000145097	  -11.9779	  -3.62743	
  -11.9936	-0.00018559	  -11.9837	-9.05989e-05	   -11.994	-0.000181174	  -11.9904	-0.000152454	  -11.9904	  -3.81135	
  -12.0043	-0.000193102	   -11.993	-9.75655e-05	  -12.0032	-0.000188577	  -12.0002	-0.000159748	  -12.0002	  -3.99371	
  -12.0126	-0.000200606	  -11.9993	-0.000104478	  -12.0113	-0.000195832	  -12.0077	-0.000166972	  -12.0077	   -4.1743	
  -12.0179	-0.000208041	   -12.003	-0.000111329	  -12.0164	-0.000202934	  -12.0125	-0.000174101	  -12.0125	  -4.35253	
  -12.0215	-0.000215351	  -12.0045	-0.00011817	  -12.0191	-0.000209904	   -12.015	-0.000181141	   -12.015	  -4.52854	
  -12.0225	-0.000222495	   -12.004	-0.000125077	  -12.0195	-0.000216837	  -12.0153	-0.000188136	  -12.0153	  -4.70341	
  -12.0215	-0.00022951	  -12.0018	-0.000132046	   -12.018	-0.000223752	  -12.0138	-0.000195103	  -12.0138	  -4.87757	
  -12.0187	-0.000236354	  -11.9982	 -0.000139	  -12.0149	-0.000230698	  -12.0106	-0.000202017	  -12.0106	  -5.05044	
  -12.0134	-0.000243142	  -11.9926	-0.000145886	  -12.0105	-0.000237699	  -12.0055	-0.000208909	  -12.0055	  -5.22273	
  -12.0052	-0.000249909	  -11.9861	-0.000152726	   -12.005	-0.000244729	  -11.9988	-0.000215788	  -11.9988	  -5.39469	
  -11.9945	-0.000256729	  -11.9772	-0.000159551	  -11.9968	-0.000251715	  -11.9895	-0.000222665	  -11.9895	  -5.56663	
  -11.9818	-0.000263662	  -11.9662	-0.000166385	  -11.9862	-0.000258606	  -11.9781	-0.000229551	  -11.9781	  -5.73878	
  -11.9675	-0.000270701	  -11.9536	-0.000173282	  -11.9729	-0.00026539	  -11.9647	-0.000236458	  -11.9647	  -5.91144	
  -11.9521	-0.000277755	  -11.9397	-0.000180246	  -11.9583	-0.000272066	  -11.9501	-0.000243356	  -11.9501	   -6.0839	
   -11.934	-0.000284749	   -11.924	-0.000187263	  -11.9419	-0.000278639	  -11.9333	-0.000250217	  -11.9333	  -6.25543	
  -11.9137	-0.000291701	  -11.9059	-0.000194242	   -11.923	-0.000285112	  -11.9142	-0.000257018	  -11.9142	  -6.42546	
  -11.8918	-0.000298614	   -11.886	-0.000201073	  -11.9024	-0.000291508	  -11.8934	-0.000263732	  -11.8934	   -6.5933	
  -11.8688	-0.000305462	  -11.8648	-0.000207675	  -11.8785	-0.000297842	  -11.8707	-0.000270326	  -11.8707	  -6.75815	
  -11.8431	-0.000312246	  -11.8407	-0.000214057	  -11.8521	-0.000304131	  -11.8453	-0.000276811	  -11.8453	  -6.92028	
  -11.8155	-0.000319043	  -11.8145	-0.000220257	  -11.8238	-0.000310393	  -11.8179	-0.000283231	  -11.8179	  -7.08077	
  -11.7856	-0.000325864	  -11.7858	-0.000226307	  -11.7943	-0.000316603	  -11.7886	-0.000289591	  -11.7886	  -7.23978	
   -11.753	-0.000332653	  -11.7543	-0.000232288	  -11.7621	-0.000322758	  -11.7565	-0.0002959	  -11.7565	   -7.3975	
  -11.7186	-0.000339308	  -11.7208	-0.000238274	  -11.7279	-0.000328862	  -11.7225	-0.000302148	  -11.7225	   -7.5537	
   -11.682	-0.000345774	   -11.685	-0.000244334	  -11.6925	-0.000334922	  -11.6865	-0.000308343	  -11.6865	  -7.70858	
   -11.643	-0.000352021	  -11.6466	-0.000250449	  -11.6544	-0.00034092	   -11.648	-0.000314463	   -11.648	  -7.86158	
  -11.6023	-0.000358003	  -11.6065	-0.000256575	  -11.6146	-0.000346872	  -11.6078	-0.000320483	  -11.6078	  -8.01208	
  -11.5607	-0.000363735	  -11.5644	-0.000262638	  -11.5736	-0.000352786	  -11.5662	-0.000326386	  -11.5662	  -8.15966	
  -11.5168	-0.000369261	    -11.52	-0.000268621	  -11.5302	-0.000358661	  -11.5223	-0.000332181	  -11.5223	  -8.30452	
  -11.4714	-0.000374668	  -11.4733	-0.000274513	  -11.4852	-0.000364472	  -11.4766	-0.000337884	  -11.4766	   -8.4471	
  -11.4234	-0.000380008	  -11.4241	-0.00028033	  -11.4393	-0.000370232	  -11.4289	-0.000343523	  -11.4289	  -8.58808	
  -11.3736	-0.000385314	  -11.3733	-0.000286174	  -11.3913	-0.000375995	  -11.3794	-0.000349161	  -11.3794	  -8.72902	
  -11.3228	-0.000390608	  -11.3198	-0.000292139	  -11.3401	-0.000381752	  -11.3276	-0.000354833	  -11.3276	  -8.87082	
  -11.2699	-0.000395872	  -11.2646	-0.000298269	  -11.2866	-0.000387503	  -11.2737	-0.000360548	  -11.2737	   -9.0137	
  -11.2157	-0.000401118	  -11.2067	-0.000304512	  -11.2319	-0.000393212	  -11.2181	-0.000366281	  -11.2181	  -9.15702	
    -11.16	-0.000406338	   -11.147	-0.000310795	  -11.1757	-0.000398891	  -11.1609	-0.000372008	  -11.1609	   -9.3002	
  -11.1027	-0.000411506	  -11.0854	-0.000317053	  -11.1178	-0.000404491	   -11.102	-0.000377683	   -11.102	  -9.44209	
  -11.0447	-0.000416626	  -11.0221	-0.000323199	  -11.0574	-0.00040995	  -11.0414	-0.000383258	  -11.0414	  -9.58146	
  -10.9847	-0.000421731	  -10.9579	-0.000329144	  -10.9953	-0.000415253	  -10.9793	-0.000388709	  -10.9793	  -9.71774	
  -10.9228	-0.000426817	  -10.8917	-0.000334862	  -10.9307	-0.000420424	  -10.9151	-0.000394034	  -10.9151	  -9.85086	
   -10.858	-0.000431868	  -10.8236	-0.000340442	  -10.8645	-0.000425484	  -10.8487	-0.000399264	  -10.8487	  -9.98161	
  -10.7905	-0.000436868	  -10.7537	-0.000345919	  -10.7958	-0.000430456	    -10.78	-0.000404414	    -10.78	  -10.1104	
  -10.7214	-0.000441802	   -10.683	-0.000351344	  -10.7258	-0.000435395	  -10.7101	-0.000409514	  -10.7101	  -10.2378	
  -10.6499	-0.000446687	  -10.6104	-0.000356796	  -10.6534	-0.000440323	  -10.6379	-0.000414602	  -10.6379	   -10.365	
  -10.5759	-0.00045147	  -10.5361	-0.000362318	  -10.5788	-0.000445256	  -10.5636	-0.000419681	  -10.5636	   -10.492	
  -10.4999	-0.000456131	  -10.4601	-0.000367812	  -10.5023	-0.00045015	  -10.4874	-0.000424698	  -10.4874	  -10.6174	
  -10.4228	-0.000460638	  -10.3826	-0.000373222	  -10.4249	-0.000454943	  -10.4101	-0.000429601	  -10.4101	    -10.74	
  -10.3438	-0.000465005	  -10.3037	-0.000378557	  -10.3457	-0.000459581	  -10.3311	-0.000434381	  -10.3311	  -10.8595	
  -10.2631	-0.000469253	  -10.2226	-0.000383825	  -10.2639	-0.000464088	  -10.2499	-0.000439055	  -10.2499	  -10.9764	
  -10.1808	-0.000473347	  -10.1404	-0.000388993	  -10.1808	-0.000468499	  -10.1673	-0.000443613	  -10.1673	  -11.0903	
  -10.0961	-0.000477314	  -10.0562	-0.000394124	  -10.0955	-0.000472831	  -10.0826	-0.00044809	  -10.0826	  -11.2022	
  -10.0094	-0.0004812	  -9.97042	-0.000399289	  -10.0083	-0.000477141	  -9.99605	-0.000452543	  -9.99605	  -11.3136	
  -9.92091	-0.000485017	   -9.8822	-0.000404506	   -9.9196	-0.0004814	  -9.90757	-0.000456974	  -9.90757	  -11.4244	
  -9.83187	-0.000488767	  -9.79193	-0.000409749	  -9.83044	-0.000485638	  -9.81808	-0.000461385	  -9.81808	  -11.5346	
  -9.74141	-0.000492499	  -9.70086	-0.000414993	  -9.73999	-0.000489834	  -9.72742	-0.000465775	  -9.72742	  -11.6444	
  -9.64882	-0.000496266	  -9.60821	-0.000420233	  -9.64751	-0.000493971	  -9.63485	-0.000470157	  -9.63485	  -11.7539	
  -9.55352	-0.000500067	   -9.5133	-0.000425402	  -9.55334	-0.000497999	  -9.54005	-0.00047449	  -9.54005	  -11.8622	
  -9.45692	-0.000503915	  -9.41749	-0.000430483	  -9.45781	-0.000501904	  -9.44407	-0.000478767	  -9.44407	  -11.9692	
  -9.35929	-0.000507811	  -9.32003	-0.000435446	  -9.36023	-0.000505703	  -9.34652	-0.000482987	  -9.34652	  -12.0747	
  -9.25994	-0.000511739	  -9.22033	-0.000440287	    -9.261	-0.000509409	  -9.24709	-0.000487145	  -9.24709	  -12.1786	
   -9.1583	-0.000515641	  -9.11883	-0.000445033	  -9.16048	-0.000513042	  -9.14587	-0.000491239	  -9.14587	   -12.281	
  -9.05484	-0.0005195	  -9.01594	-0.000449699	  -9.05806	-0.000516588	  -9.04294	-0.000495262	  -9.04294	  -12.3816	
     -8.95	-0.000523246	  -8.91201	-0.000454287	  -8.95415	-0.000520106	  -8.93872	-0.000499213	  -8.93872	  -12.4803	
  -8.84414	-0.000526827	  -8.80641	-0.000458775	  -8.84914	-0.000523566	  -8.83323	-0.000503056	  -8.83323	  -12.5764	
  -8.73667	-0.000530202	  -8.69959	-0.000463156	  -8.74243	-0.000526919	  -8.72623	-0.000506759	  -8.72623	   -12.669	
  -8.62708	-0.000533401	  -8.59097	-0.000467448	  -8.63352	-0.000530122	  -8.61719	-0.000510324	  -8.61719	  -12.7581	
  -8.51686	-0.000536459	  -8.48103	-0.000471634	  -8.52389	-0.000533213	  -8.50726	-0.000513769	  -8.50726	  -12.8442	
  -8.40443	-0.000539364	  -8.37019	-0.000475673	  -8.41294	-0.00053622	  -8.39586	-0.000517086	  -8.39586	  -12.9271	
  -8.29038	-0.000542152	  -8.25789	-0.000479597	  -8.30015	-0.000539122	  -8.28281	-0.00052029	  -8.28281	  -13.0073	
  -8.17429	-0.000544859	  -8.14365	-0.000483443	  -8.18512	-0.000541913	  -8.16768	-0.000523405	  -8.16768	  -13.0851	
  -8.05768	-0.000547519	  -8.02803	-0.000487209	  -8.06844	-0.000544608	  -8.05139	-0.000526446	  -8.05139	  -13.1611	
     -7.94	-0.000550073	  -7.91153	-0.000490876	  -7.95068	-0.000547177	  -7.93407	-0.000529375	  -7.93407	  -13.2344	
  -7.82077	-0.000552484	  -7.79363	-0.000494468	  -7.83135	-0.0005496	  -7.81525	-0.000532184	  -7.81525	  -13.3046	
   -7.6996	-0.0005547	  -7.67391	-0.000498019	  -7.71008	-0.000551891	  -7.69453	-0.00053487	  -7.69453	  -13.3718	
  -7.57713	-0.000556711	  -7.55297	-0.000501527	  -7.58845	-0.000554072	  -7.57285	-0.000537437	  -7.57285	  -13.4359	
  -7.45391	-0.00055852	  -7.43038	-0.00050494	  -7.46591	-0.000556172	  -7.45007	-0.000539877	  -7.45007	  -13.4969	
  -7.32854	-0.000560199	  -7.30583	-0.000508223	  -7.34204	-0.000558191	  -7.32547	-0.000542205	  -7.32547	  -13.5551	
  -7.20173	-0.000561798	  -7.17998	-0.000511376	  -7.21645	-0.000560174	  -7.19938	-0.000544449	  -7.19938	  -13.6112	
   -7.0741	-0.000563382	  -7.05342	-0.000514378	  -7.08979	-0.000562161	  -7.07244	-0.00054664	  -7.07244	   -13.666	
  -6.94525	-0.000564991	  -6.92572	-0.000517217	  -6.96169	-0.000564123	  -6.94422	-0.000548777	  -6.94422	  -13.7194	
  -6.81578	-0.0005666	  -6.79653	-0.000519909	  -6.83184	-0.00056598	  -6.81472	-0.00055083	  -6.81472	  -13.7707	
  -6.68529	-0.000568223	   -6.6665	-0.000522476	  -6.70095	-0.000567677	  -6.68425	-0.000552792	  -6.68425	  -13.8198	
  -6.55438	-0.00056982	  -6.53526	-0.00052495	  -6.56867	-0.000569203	  -6.55277	-0.000554657	  -6.55277	  -13.8664	
  -6.42262	-0.000571337	  -6.40343	-0.000527351	  -6.43567	-0.000570504	  -6.42057	-0.000556398	  -6.42057	  -13.9099	
  -6.28964	-0.000572712	  -6.27064	-0.000529683	  -6.30065	-0.000571605	  -6.28698	 -0.000558	  -6.28698	    -13.95	
  -6.15612	-0.000573961	  -6.13748	-0.00053194	  -6.16535	-0.00057255	  -6.15298	-0.000559484	  -6.15298	  -13.9871	
  -6.02166	-0.000575127	  -6.00357	-0.000534099	  -6.02937	-0.000573417	   -6.0182	-0.000560881	   -6.0182	   -14.022	
  -5.88596	-0.000576185	  -5.86854	-0.000536109	  -5.89238	-0.000574232	   -5.8823	-0.000562175	   -5.8823	  -14.0544	
  -5.74876	-0.000577128	  -5.73212	-0.000537944	   -5.7541	-0.00057498	  -5.74499	-0.000563351	  -5.74499	  -14.0838	
  -5.60986	-0.000577998	  -5.59597	-0.000539639	  -5.61619	-0.000575639	  -5.60734	-0.000564425	  -5.60734	  -14.1106	
    -5.471	-0.000578846	  -5.45867	-0.000541282	  -5.47725	-0.000576205	  -5.46897	-0.000565445	  -5.46897	  -14.1361	
  -5.33081	-0.000579606	  -5.31997	-0.000542866	  -5.33701	-0.000576637	  -5.32926	-0.00056637	  -5.32926	  -14.1593	
   -5.1891	-0.000580188	  -5.17967	-0.000544414	  -5.19624	-0.000576886	  -5.18833	-0.000567163	  -5.18833	  -14.1791	
  -5.04667	-0.000580593	  -5.03856	-0.000545912	  -5.05462	-0.00057692	  -5.04662	-0.000567808	  -5.04662	  -14.1952	
  -4.90327	-0.000580837	  -4.89639	-0.000547371	  -4.91191	-0.000576837	  -4.90385	-0.000568348	  -4.90385	  -14.2087	
  -4.75866	-0.000580888	  -4.75294	-0.000548767	  -4.76884	-0.000576727	  -4.76014	-0.000568794	  -4.76014	  -14.2199	
  -4.61364	-0.000580744	  -4.60803	-0.000550047	  -4.62511	-0.000576648	   -4.6156	-0.000569146	   -4.6156	  -14.2287	
  -4.46888	-0.000580535	  -4.46156	-0.000551212	  -4.48142	-0.000576644	  -4.47062	-0.000569464	  -4.47062	  -14.2366	
  -4.32399	-0.000580378	  -4.31436	-0.000552304	   -4.3374	-0.000576753	  -4.32525	-0.000569812	  -4.32525	  -14.2453	
  -4.17771	-0.000580268	  -4.16622	-0.000553385	  -4.19181	-0.000576942	  -4.17858	-0.000570198	  -4.17858	   -14.255	
  -4.03087	-0.000580195	  -4.01699	-0.000554502	  -4.04455	-0.000577106	   -4.0308	-0.000570601	   -4.0308	   -14.265	
  -3.88322	-0.000580218	  -3.86747	-0.000555673	  -3.89649	-0.000577167	  -3.88239	-0.000571019	  -3.88239	  -14.2755	
  -3.73552	-0.000580382	  -3.71742	-0.00055646	  -3.74838	-0.000577239	  -3.73378	-0.00057136	  -3.73378	   -14.284	
  -3.58748	-0.000580591	  -3.56663	-0.00055721	    -3.599	-0.000577148	  -3.58437	-0.000571649	  -3.58437	  -14.2912	
  -3.43788	-0.000580779	  -3.41494	-0.000557973	  -3.44823	-0.000576844	  -3.43368	-0.000571865	  -3.43368	  -14.2966	
  -3.28856	-0.000580937	  -3.26221	-0.000558713	    -3.296	-0.000576409	  -3.28225	-0.00057202	  -3.28225	  -14.3005	
  -3.13919	-0.000581038	  -3.10927	-0.000559354	  -3.14415	-0.000575876	  -3.13087	-0.000572089	  -3.13087	  -14.3022	
  -2.98949	-0.000581042	  -2.95592	-0.000559885	  -2.99141	-0.000575256	  -2.97894	-0.000572061	  -2.97894	  -14.3015	
  -2.83921	-0.000580921	  -2.80195	-0.000560256	  -2.83861	-0.000574534	  -2.82659	-0.000571904	  -2.82659	  -14.2976	
  -2.68816	-0.000580695	  -2.64817	-0.000560459	  -2.68551	-0.00057373	  -2.67394	-0.000571628	  -2.67394	  -14.2907	
  -2.53618	-0.000580403	   -2.4943	-0.000560522	  -2.53189	-0.000572797	  -2.52079	-0.000571241	  -2.52079	   -14.281	
  -2.38314	-0.000580004	  -2.34012	-0.000560507	  -2.37854	-0.000571664	  -2.36726	-0.000570725	  -2.36726	  -14.2681	
  -2.22894	-0.000579414	  -2.18542	-0.000560452	  -2.22421	-0.000570309	  -2.21286	-0.000570059	  -2.21286	  -14.2515	
