# User: ACHyster
# File name: C:/ACHYSTER/ACHyster SENS/SHAMS/CoFe2O4-1gl-water-Zero Glycerol- Sens-07-03-2023/CoFe2O4-1gl-water-Zero Glycerol- 10_100F- 12kAm -Sens-07-03-20230000#1
# Saved at: ma. mar. 7 14:08:58 2023
# Hyster Loop (3 iterations). Intensity: 12.0 kA/m; Tuned frequency: 9.4 kHz
# Units x axis: (kA/m)
# Units y axis: "Repeats y" & "Average y" (10^(-3)Am^2); "Mass avg y" (Am^2/kg)
# Magnetic mass: 4e-05 g
# Parameter      	Repeat   1	Repeat   2	Repeat   3	Average   	Sigma     
# H_C (kA/m)     	       2.9	       2.8	       2.7	       2.8	       0.1
# M_R (Am^2/kg)  	      26.4	      25.8	      24.6	      25.6	       0.7
# M_max (Am^2/kg)	      70.6	      69.8	      71.4	      70.6	       0.7
# Area (mJ/kg)   	     790.8	     762.2	     728.5	     760.5	      25.4
# SAR (W/g)      	       7.4	       7.1	       6.8	       7.1	       0.2
#Repeat 1 x	Repeat 1 y	Repeat 2 x	Repeat 2 y	Repeat 3 x	Repeat 3 y	Average x 	Average y 	Mass avg x 	Mass avg y 
   -1.6747	-0.00152241	  -1.68577	-0.00151827	  -1.68189	-0.0014707	  -1.68079	-0.00150379	  -1.68079	  -37.5948	
  -1.59993	-0.00150428	  -1.61053	-0.00149974	  -1.60682	-0.0014513	  -1.60576	-0.00148511	  -1.60576	  -37.1277	
   -1.5252	-0.00148597	  -1.53537	-0.0014809	  -1.53167	-0.00143166	  -1.53074	-0.00146618	  -1.53074	  -36.6544	
  -1.45026	-0.00146748	  -1.46008	-0.00146186	  -1.45641	-0.00141183	  -1.45558	-0.00144706	  -1.45558	  -36.1764	
   -1.3754	-0.00144875	   -1.3848	-0.00144262	  -1.38119	-0.00139182	  -1.38046	-0.00142773	  -1.38046	  -35.6933	
  -1.30046	-0.00142982	  -1.30943	-0.00142312	  -1.30579	-0.00137158	  -1.30523	-0.00140817	  -1.30523	  -35.2043	
  -1.22548	-0.00141067	  -1.23401	-0.00140338	  -1.23033	-0.00135114	  -1.22994	-0.0013884	  -1.22994	  -34.7099	
  -1.15051	-0.00139135	  -1.15861	-0.00138343	  -1.15484	-0.00133054	  -1.15465	-0.00136844	  -1.15465	  -34.2109	
  -1.07538	-0.00137174	  -1.08307	-0.00136323	  -1.07924	-0.00130965	  -1.07923	-0.00134821	  -1.07923	  -33.7052	
   -1.0003	-0.00135191	  -1.00757	-0.00134278	  -1.00373	-0.00128862	  -1.00386	-0.00132777	  -1.00386	  -33.1943	
 -0.925103	-0.00133196	 -0.931854	-0.00132214	 -0.928068	-0.00126743	 -0.928341	-0.00130717	 -0.928341	  -32.6794	
 -0.849921	-0.00131164	 -0.856153	-0.00130127	 -0.852418	-0.00124599	  -0.85283	-0.0012863	  -0.85283	  -32.1575	
 -0.774776	-0.00129105	 -0.780425	-0.00128014	 -0.776755	-0.00122441	 -0.777319	-0.0012652	 -0.777319	  -31.6301	
 -0.699522	-0.00127035	 -0.704626	-0.00125873	 -0.701011	-0.00120269	  -0.70172	-0.00124392	  -0.70172	  -31.0981	
 -0.624412	-0.00124936	 -0.628912	-0.00123718	 -0.625341	-0.00118065	 -0.626222	-0.0012224	 -0.626222	  -30.5599	
 -0.549122	-0.0012281	 -0.553037	-0.00121537	 -0.549599	-0.00115852	 -0.550586	-0.00120066	 -0.550586	  -30.0166	
 -0.473863	-0.00120671	 -0.477214	-0.00119328	 -0.473914	-0.00113628	 -0.474997	-0.00117876	 -0.474997	  -29.4689	
 -0.398535	-0.00118504	 -0.401272	-0.00117105	 -0.398286	-0.0011137	 -0.399364	-0.0011566	 -0.399364	   -28.915	
 -0.323173	-0.0011631	 -0.325296	-0.00114858	  -0.32259	-0.00109098	 -0.323686	-0.00113422	 -0.323686	  -28.3555	
 -0.247871	 -0.001141	 -0.249336	-0.00112581	 -0.247003	-0.00106815	  -0.24807	-0.00111165	  -0.24807	  -27.7913	
 -0.172417	-0.00111862	 -0.173235	-0.00110286	 -0.171308	-0.0010451	  -0.17232	-0.00108886	  -0.17232	  -27.2214	
-0.0970452	-0.00109599	-0.0972752	-0.00107969	-0.0957082	-0.0010218	-0.0966762	-0.00106583	-0.0966762	  -26.6457	
-0.0216125	-0.00107317	-0.0211638	-0.00105629	-0.0201154	-0.00099847	-0.0209639	-0.00104264	-0.0209639	   -26.066	
 0.0538334	-0.0010501	 0.0549167	-0.00103266	 0.0555047	-0.000974885	 0.0547516	-0.00101921	 0.0547516	  -25.4804	
  0.129216	-0.00102681	  0.130988	-0.00100881	  0.131073	-0.00095105	  0.130426	-0.000995557	  0.130426	  -24.8889	
  0.204732	-0.00100335	  0.207118	-0.000984729	  0.206735	-0.000927184	  0.206195	-0.000971753	  0.206195	  -24.2938	
  0.280101	-0.00097962	  0.283126	-0.000960432	  0.282264	-0.000903047	   0.28183	-0.0009477	   0.28183	  -23.6925	
  0.355524	-0.000955649	  0.359188	-0.000935848	   0.35781	-0.000878682	  0.357507	-0.000923393	  0.357507	  -23.0848	
  0.430925	-0.000931494	  0.435175	-0.000911096	  0.433348	-0.000854221	  0.433149	-0.000898937	  0.433149	  -22.4734	
  0.506226	-0.000907079	  0.511135	-0.000886122	  0.508799	-0.000829505	   0.50872	-0.000874235	   0.50872	  -21.8559	
  0.581484	-0.000882425	  0.587138	-0.000860881	  0.584363	-0.00080456	  0.584328	-0.000849289	  0.584328	  -21.2322	
  0.656703	-0.000857668	  0.662983	-0.00083545	  0.659834	-0.000779504	   0.65984	-0.000824207	   0.65984	  -20.6052	
  0.731855	-0.000832552	   0.73892	-0.000809808	  0.735361	-0.000754186	  0.735379	-0.000798848	  0.735379	  -19.9712	
  0.807042	-0.000807233	  0.814767	-0.000783944	   0.81084	-0.000728661	  0.810883	-0.000773279	  0.810883	   -19.332	
   0.88217	-0.000781809	  0.890665	-0.000757912	  0.886255	-0.000703017	  0.886363	-0.00074758	  0.886363	  -18.6895	
  0.957382	-0.000756067	  0.966566	-0.000731697	  0.961747	-0.000677117	  0.961898	-0.000721627	  0.961898	  -18.0407	
   1.03247	-0.000730136	   1.04225	-0.000705264	   1.03706	-0.000651016	   1.03726	-0.000695472	   1.03726	  -17.3868	
   1.10756	-0.000704116	   1.11804	-0.000678594	   1.11243	-0.000624766	   1.11268	-0.000669159	   1.11268	   -16.729	
   1.18259	-0.000677822	   1.19373	-0.000651779	   1.18773	-0.000598306	   1.18802	-0.000642636	   1.18802	  -16.0659	
   1.25753	-0.000651326	   1.26935	-0.00062475	    1.2629	-0.000571637	   1.26326	-0.000615904	   1.26326	  -15.3976	
   1.33254	-0.000624723	   1.34495	-0.000597529	   1.33812	-0.000544778	   1.33854	-0.00058901	   1.33854	  -14.7253	
   1.40737	-0.000597863	   1.42036	-0.000570155	   1.41314	-0.000517727	   1.41362	-0.000561915	   1.41362	  -14.0479	
   1.48221	-0.000570906	   1.49582	-0.000542579	   1.48821	-0.000490457	   1.48875	-0.000534647	   1.48875	  -13.3662	
   1.55699	-0.00054371	   1.57113	-0.000514819	   1.56319	-0.000463012	   1.56377	-0.00050718	   1.56377	  -12.6795	
   1.63167	-0.000516333	   1.64633	-0.000486911	   1.63803	-0.000435396	   1.63868	-0.000479547	   1.63868	  -11.9887	
   1.70639	-0.000488854	    1.7215	-0.000458821	    1.7129	-0.000407676	    1.7136	-0.000451783	    1.7136	  -11.2946	
   1.78092	-0.000461156	   1.79656	-0.00043054	   1.78764	-0.000379698	   1.78837	-0.000423798	   1.78837	  -10.5949	
   1.85543	-0.000433295	   1.87168	-0.000402148	   1.86241	-0.000351607	   1.86318	-0.000395683	   1.86318	  -9.89208	
   1.92988	-0.000405285	   1.94664	-0.000373562	    1.9371	-0.000323353	   1.93787	-0.0003674	   1.93787	  -9.18499	
   2.00416	-0.000377139	   2.02159	-0.000344845	   2.01165	-0.000294867	   2.01247	-0.00033895	   2.01247	  -8.47376	
    2.0785	-0.000348836	    2.0965	-0.000315993	   2.08623	-0.000266328	   2.08708	-0.000310386	   2.08708	  -7.75965	
   2.15268	-0.000320382	   2.17126	-0.000286953	    2.1606	-0.000237646	   2.16151	-0.00028166	   2.16151	   -7.0415	
   2.22677	-0.000291786	   2.24605	-0.000257794	   2.23496	-0.000208745	   2.23593	-0.000252775	   2.23593	  -6.31937	
   2.30085	-0.000263063	    2.3207	-0.000228495	   2.30924	-0.000179782	   2.31027	-0.00022378	   2.31027	  -5.59451	
   2.37496	-0.000234161	   2.39534	-0.000199042	   2.38335	-0.000150707	   2.38455	-0.000194637	   2.38455	  -4.86591	
   2.44892	-0.00020517	   2.46995	-0.000169449	   2.45745	-0.000121455	   2.45877	-0.000165358	   2.45877	  -4.13395	
   2.52284	-0.000176084	   2.54439	-0.000139724	   2.53136	-9.21519e-05	   2.53286	-0.000135987	   2.53286	  -3.39966	
   2.59668	-0.000146806	   2.61888	-0.000109889	    2.6052	-6.27621e-05	   2.60692	-0.000106486	   2.60692	  -2.66215	
   2.67043	-0.000117433	   2.69322	-7.99399e-05	     2.679	-3.32323e-05	   2.68088	-7.68683e-05	   2.68088	  -1.92171	
   2.74396	-8.80442e-05	   2.76738	-4.98846e-05	   2.75255	-3.65265e-06	   2.75463	-4.71938e-05	   2.75463	  -1.17984	
   2.81745	-5.84927e-05	   2.84153	-1.97355e-05	   2.82609	2.60126e-05	   2.82835	-1.74052e-05	   2.82835	  -0.43513	
   2.89079	-2.88015e-05	    2.9154	1.05263e-05	   2.89948	5.57847e-05	   2.90189	1.25032e-05	   2.90189	  0.312579	
   2.96391	8.49933e-07	    2.9893	4.08721e-05	   2.97273	8.56474e-05	   2.97531	4.24565e-05	   2.97531	   1.06141	
   3.03704	3.06528e-05	   3.06277	7.13105e-05	   3.04599	0.000115509	    3.0486	7.24908e-05	    3.0486	   1.81227	
   3.10994	6.05953e-05	   3.13629	0.000101698	   3.11907	0.000145484	   3.12177	0.000102593	   3.12177	   2.56481	
   3.18289	9.04971e-05	   3.20966	0.00013226	   3.19208	0.000175514	   3.19487	0.000132757	   3.19487	   3.31893	
   3.25575	0.000120492	   3.28283	0.000162875	   3.26498	0.000205548	   3.26785	0.000162971	   3.26785	   4.07429	
   3.32835	0.000150535	   3.35584	0.00019341	   3.33771	0.000235654	   3.34063	0.000193199	   3.34063	   4.82999	
   3.40099	0.000180664	   3.42881	0.000224103	   3.41042	0.000265783	   3.41341	0.000223517	   3.41341	   5.58792	
   3.47344	0.000210833	   3.50154	0.000254778	   3.48317	0.000295866	   3.48605	0.000253826	   3.48605	   6.34564	
   3.54601	0.000240893	   3.57419	0.000285379	   3.55558	0.000326133	   3.55859	0.000284135	   3.55859	   7.10338	
   3.61825	0.000271154	   3.64671	0.000316061	   3.62795	0.000356313	   3.63097	0.000314509	   3.63097	   7.86273	
   3.69037	 0.0003013	   3.71901	0.000346742	   3.70009	0.000386413	   3.70316	0.000344818	   3.70316	   8.62046	
   3.76229	0.000331425	   3.79132	0.000377368	    3.7722	0.000416638	   3.77527	0.000375144	   3.77527	    9.3786	
   3.83409	0.000361654	   3.86338	0.000408043	   3.84417	0.00044683	   3.84721	0.000405509	   3.84721	   10.1377	
   3.90569	0.000391789	   3.93531	0.000438686	    3.9159	0.000476959	   3.91897	0.000435811	   3.91897	   10.8953	
   3.97727	0.000421884	   4.00717	0.000469247	   3.98765	0.00050716	    3.9907	0.000466097	    3.9907	   11.6524	
   4.04865	0.000452012	   4.07872	0.00049983	   4.05918	0.000537328	   4.06218	0.00049639	   4.06218	   12.4098	
   4.11976	0.000482082	   4.15025	0.000530369	   4.13049	0.000567412	    4.1335	0.000526621	    4.1335	   13.1655	
   4.19075	0.000512089	   4.22163	0.000560804	   4.20174	0.000597512	   4.20471	0.000556802	   4.20471	     13.92	
   4.26148	0.00054209	   4.29275	0.000591219	   4.27272	0.000627618	   4.27565	0.000586976	   4.27565	   14.6744	
   4.33203	0.000572025	   4.36381	0.000621577	   4.34362	0.000657552	   4.34649	0.000617051	   4.34649	   15.4263	
   4.40251	0.000601887	    4.4348	0.000651873	   4.41441	0.000687472	   4.41724	0.000647077	   4.41724	   16.1769	
    4.4727	0.000631693	   4.50568	0.000682049	   4.48489	0.000717356	   4.48776	0.000677033	   4.48776	   16.9258	
   4.54277	0.00066145	    4.5763	0.000712144	    4.5553	0.00074707	   4.55812	0.000706888	   4.55812	   17.6722	
   4.61271	0.000691135	   4.64676	0.000742189	   4.62553	0.000776748	   4.62833	0.000736691	   4.62833	   18.4173	
   4.68231	0.000720713	   4.71711	0.000772088	   4.69546	0.000806352	   4.69829	0.000766384	   4.69829	   19.1596	
   4.75182	0.000750228	    4.7873	0.000801914	   4.76535	0.000835735	   4.76816	0.000795959	   4.76816	    19.899	
   4.82116	0.00077964	   4.85734	0.000831673	   4.83503	0.000865098	   4.83784	0.00082547	   4.83784	   20.6368	
   4.89021	0.000808897	   4.92719	0.000861113	   4.90449	0.000894352	    4.9073	0.000854787	    4.9073	   21.3697	
   4.95923	0.000838071	   4.99678	0.000890544	   4.97387	0.000923404	   4.97663	0.000884006	   4.97663	   22.1002	
   5.02805	0.00086716	   5.06624	0.000919887	   5.04298	0.00095237	   5.04576	0.000913139	   5.04576	   22.8285	
   5.09652	0.000896052	   5.13548	0.000948898	   5.11187	0.000981174	   5.11462	0.000942041	   5.11462	    23.551	
   5.16493	0.000924845	   5.20451	0.00097784	   5.18063	0.00100982	   5.18336	0.000970834	   5.18336	   24.2708	
   5.23311	0.000953551	   5.27325	0.00100669	   5.24912	0.00103831	   5.25183	0.000999517	   5.25183	   24.9879	
   5.30113	0.000982027	   5.34182	0.00103527	   5.31744	0.00106662	   5.32013	0.00102797	   5.32013	   25.6993	
   5.36879	0.00101036	   5.41016	0.00106371	   5.38552	0.00109473	   5.38816	0.00105626	   5.38816	   26.4066	
   5.43633	0.00103854	   5.47817	0.00109202	   5.45345	0.00112273	   5.45599	0.00108443	   5.45599	   27.1107	
   5.50375	0.00106652	   5.54611	0.00112003	   5.52116	0.00115055	   5.52367	0.00111237	   5.52367	   27.8091	
   5.57083	0.00109432	   5.61379	0.00114785	   5.58863	0.00117813	   5.59108	 0.0011401	   5.59108	   28.5025	
   5.63768	0.00112197	   5.68121	0.00117554	   5.65579	0.00120556	   5.65823	0.00116769	   5.65823	   29.1922	
    5.7043	0.00114937	   5.74854	0.00120295	   5.72272	0.00123281	   5.72519	0.00119504	   5.72519	    29.876	
   5.77064	0.00117656	   5.81562	0.00123014	   5.78954	0.00125982	   5.79193	0.00122217	   5.79193	   30.5543	
   5.83668	0.00120358	   5.88236	0.00125718	   5.85603	0.00128668	   5.85836	0.00124914	   5.85836	   31.2286	
   5.90241	0.00123039	   5.94901	0.00128392	   5.92232	0.00131334	   5.92458	0.00127589	   5.92458	   31.8971	
   5.96801	0.00125691	   6.01539	0.00131043	   5.98847	0.00133974	   5.99062	0.00130236	   5.99062	    32.559	
   6.03336	0.00128329	   6.08144	0.00133678	   6.05426	0.00136593	   6.05635	0.00132867	   6.05635	   33.2167	
   6.09837	0.00130943	   6.14735	0.00136287	   6.11978	0.00139194	   6.12184	0.00135475	   6.12184	   33.8687	
   6.16329	0.00133529	   6.21298	0.00138873	   6.18517	0.00141766	   6.18715	0.00138056	   6.18715	    34.514	
   6.22795	0.00136096	    6.2782	0.00141445	   6.25023	0.00144315	   6.25213	0.00140619	   6.25213	   35.1546	
   6.29226	0.00138639	    6.3432	0.00143988	   6.31491	0.00146842	   6.31679	0.00143157	   6.31679	   35.7891	
   6.35646	0.00141152	   6.40786	0.00146506	   6.37952	0.00149345	   6.38128	0.00145668	   6.38128	    36.417	
   6.42044	0.00143646	    6.4725	0.00149004	   6.44381	0.00151813	   6.44558	0.00148154	   6.44558	   37.0386	
   6.48401	0.00146115	   6.53686	0.00151488	   6.50774	0.00154265	   6.50954	0.00150623	   6.50954	   37.6556	
   6.54743	0.00148554	    6.6009	0.00153942	   6.57174	0.00156695	   6.57336	0.00153064	   6.57336	   38.2659	
   6.61068	0.00150971	   6.66479	0.00156363	   6.63535	0.00159091	   6.63694	0.00155475	   6.63694	   38.8688	
   6.67352	0.00153365	   6.72838	0.00158772	   6.69879	0.00161457	   6.70023	0.00157864	   6.70023	   39.4661	
   6.73602	 0.0015573	   6.79177	0.00161145	   6.76185	0.00163807	   6.76322	0.00160227	   6.76322	   40.0568	
   6.79835	0.00158069	   6.85478	0.00163491	   6.82468	0.00166122	   6.82593	0.00162561	   6.82593	   40.6401	
   6.86033	0.00160382	   6.91747	0.00165814	   6.88711	  0.001684	    6.8883	0.00164865	    6.8883	   41.2163	
   6.92196	0.00162682	   6.97998	0.00168107	   6.94938	0.00170666	   6.95044	0.00167152	   6.95044	   41.7879	
   6.98342	0.00164941	   7.04219	0.00170371	   7.01146	  0.001729	   7.01236	0.00169404	   7.01236	    42.351	
   7.04461	0.00167175	   7.10394	0.00172608	   7.07315	  0.001751	    7.0739	0.00171628	    7.0739	   42.9069	
   7.10539	0.00169398	   7.16552	0.00174815	   7.13451	0.00177283	   7.13514	0.00173832	   7.13514	   43.4579	
   7.16595	0.00171581	   7.22684	 0.0017699	   7.19571	0.00179435	   7.19616	0.00176002	   7.19616	   44.0005	
   7.22629	0.00173739	   7.28775	0.00179137	   7.25664	0.00181552	   7.25689	0.00178143	   7.25689	   44.5357	
   7.28629	0.00175887	   7.34823	0.00181254	   7.31723	0.00183648	   7.31725	0.00180263	   7.31725	   45.0657	
     7.346	0.00177993	   7.40853	0.00183339	   7.37757	0.00185715	   7.37737	0.00182349	   7.37737	   45.5873	
   7.40558	0.00180074	   7.46846	0.00185392	   7.43762	 0.0018775	   7.43722	0.00184405	   7.43722	   46.1013	
   7.46485	0.00182143	   7.52802	 0.0018742	   7.49724	0.00189763	    7.4967	0.00186442	    7.4967	   46.6104	
   7.52365	0.00184173	   7.58737	0.00189413	   7.55658	0.00191748	   7.55587	0.00188445	   7.55587	   47.1112	
   7.58234	0.00186177	   7.64645	0.00191375	   7.61573	  0.001937	   7.61484	0.00190417	   7.61484	   47.6043	
   7.64077	0.00188162	    7.7051	0.00193311	   7.67454	0.00195633	   7.67347	0.00192369	   7.67347	   48.0921	
   7.69881	0.00190115	   7.76349	0.00195213	   7.73289	 0.0019754	   7.73173	0.00194289	   7.73173	   48.5723	
   7.75653	0.00192039	   7.82169	0.00197086	   7.79096	0.00199405	   7.78973	0.00196177	   7.78973	   49.0442	
   7.81409	0.00193945	   7.87954	0.00198928	   7.84881	0.00201252	   7.84748	0.00198042	   7.84748	   49.5104	
   7.87136	 0.0019582	   7.93691	0.00200741	   7.90628	0.00203074	   7.90485	0.00199878	   7.90485	   49.9696	
   7.92818	0.00197667	   7.99404	0.00202522	   7.96337	0.00204854	   7.96186	0.00201681	   7.96186	   50.4203	
   7.98476	0.00199494	   8.05089	0.00204279	   8.02019	0.00206613	   8.01861	0.00203462	   8.01861	   50.8655	
   8.04115	0.00201292	   8.10734	0.00206007	   8.07666	0.00208341	   8.07505	0.00205213	   8.07505	   51.3033	
   8.09719	0.00203062	   8.16338	  0.002077	   8.13283	0.00210032	   8.13113	0.00206931	   8.13113	   51.7328	
   8.15277	0.00204811	   8.21922	0.00209372	    8.1887	0.00211711	   8.18689	0.00208631	   8.18689	   52.1578	
    8.2081	0.00206529	   8.27479	0.00211017	   8.24421	0.00213355	   8.24237	  0.002103	   8.24237	    52.575	
   8.26323	0.00208222	   8.32995	0.00212624	   8.29947	0.00214958	   8.29755	0.00211935	   8.29755	   52.9837	
   8.31798	0.00209894	   8.38469	0.00214207	   8.35433	0.00216541	   8.35234	0.00213547	   8.35234	   53.3868	
   8.37225	0.00211524	   8.43927	0.00215764	   8.40883	0.00218099	   8.40678	0.00215129	   8.40678	   53.7822	
   8.42622	0.00213139	   8.49356	0.00217288	   8.46302	0.00219615	   8.46093	0.00216681	   8.46093	   54.1701	
   8.47997	0.00214736	   8.54741	0.00218793	   8.51685	0.00221113	   8.51474	0.00218214	   8.51474	   54.5536	
   8.53333	0.00216292	   8.60084	0.00220263	    8.5703	0.00222588	   8.56816	0.00219714	   8.56816	   54.9286	
   8.58622	0.00217828	   8.65404	0.00221703	   8.62342	0.00224023	   8.62123	0.00221185	   8.62123	   55.2961	
   8.63886	0.00219346	   8.70692	0.00223121	   8.67621	0.00225438	     8.674	0.00222635	     8.674	   55.6588	
   8.69127	0.00220831	   8.75935	0.00224507	   8.72869	 0.0022683	   8.72644	0.00224056	   8.72644	    56.014	
   8.74331	0.00222291	   8.81138	0.00225863	   8.78071	0.00228184	   8.77847	0.00225446	   8.77847	   56.3615	
   8.79488	 0.0022373	   8.86316	0.00227195	    8.8324	0.00229518	   8.83015	0.00226814	   8.83015	   56.7036	
   8.84613	0.00225136	   8.91468	0.00228495	   8.88392	0.00230827	   8.88158	0.00228153	   8.88158	   57.0382	
   8.89714	0.00226518	   8.96578	0.00229767	   8.93509	0.00232109	   8.93267	0.00229465	   8.93267	   57.3662	
   8.94782	0.00227878	   9.01646	0.00231017	   8.98582	0.00233363	   8.98337	0.00230753	   8.98337	   57.6881	
   8.99801	0.00229207	   9.06678	0.00232239	   9.03607	0.00234605	   9.03362	0.00232017	   9.03362	   58.0042	
    9.0478	 0.0023051	   9.11681	0.00233432	   9.08594	0.00235816	   9.08352	0.00233253	   9.08352	   58.3132	
   9.09733	0.00231793	   9.16648	0.00234597	   9.13559	0.00237005	   9.13313	0.00234465	   9.13313	   58.6162	
   9.14664	0.00233041	   9.21569	 0.0023574	   9.18485	0.00238179	   9.18239	0.00235653	   9.18239	   58.9133	
   9.19529	0.00234277	   9.26449	0.00236856	    9.2336	0.00239318	   9.23112	0.00236817	   9.23112	   59.2043	
    9.2437	0.00235485	   9.31298	0.00237947	   9.28195	0.00240445	   9.27955	0.00237959	   9.27955	   59.4897	
   9.29167	0.00236662	    9.3612	0.00239013	   9.33004	0.00241551	   9.32764	0.00239076	   9.32764	   59.7689	
   9.33925	0.00237827	   9.40898	0.00240053	   9.37784	0.00242625	   9.37536	0.00240168	   9.37536	   60.0421	
   9.38646	0.00238965	   9.45627	0.00241073	    9.4252	0.00243687	   9.42264	0.00241242	   9.42264	   60.3104	
   9.43323	0.00240076	   9.50322	 0.0024207	   9.47209	0.00244725	   9.46951	 0.0024229	   9.46951	   60.5725	
   9.47958	0.00241172	   9.54993	 0.0024304	   9.51874	0.00245734	   9.51608	0.00243315	   9.51608	   60.8288	
   9.52556	0.00242244	   9.59628	 0.0024399	   9.56518	0.00246734	   9.56234	0.00244323	   9.56234	   61.0807	
   9.57128	0.00243291	   9.64218	0.00244919	   9.61129	0.00247709	   9.60825	0.00245306	   9.60825	   61.3266	
   9.61667	0.00244321	   9.68759	0.00245826	   9.65695	0.00248656	   9.65373	0.00246267	   9.65373	   61.5668	
   9.66159	0.00245325	   9.73269	 0.0024672	   9.70213	0.00249596	    9.6988	0.00247214	    9.6988	   61.8034	
   9.70603	 0.0024631	   9.77755	0.00247589	   9.74704	0.00250511	   9.74354	0.00248137	   9.74354	   62.0341	
   9.75018	0.00247279	   9.82206	0.00248432	   9.79165	0.00251398	   9.78796	0.00249036	   9.78796	    62.259	
   9.79409	0.00248223	   9.86612	0.00249262	   9.83593	0.00252277	   9.83204	0.00249921	   9.83204	   62.4802	
   9.83769	 0.0024915	    9.9097	 0.0025007	   9.87974	0.00253139	   9.87571	0.00250786	   9.87571	   62.6966	
   9.88084	0.00250054	   9.95289	0.00250857	   9.92299	0.00253975	   9.91891	0.00251629	   9.91891	   62.9072	
   9.92347	0.00250945	   9.99583	 0.0025163	   9.96577	0.00254801	   9.96169	0.00252459	   9.96169	   63.1147	
   9.96564	0.00251812	   10.0385	0.00252385	   10.0083	0.00255608	   10.0041	0.00253268	   10.0041	   63.3171	
   10.0075	0.00252663	   10.0807	 0.0025312	   10.0505	0.00256396	   10.0462	 0.0025406	   10.0462	   63.5149	
   10.0492	0.00253507	   10.1224	0.00253838	   10.0923	0.00257172	    10.088	0.00254839	    10.088	   63.7097	
   10.0904	0.00254322	   10.1636	0.00254541	   10.1337	 0.0025793	   10.1292	0.00255598	   10.1292	   63.8994	
   10.1312	 0.0025512	   10.2044	0.00255226	   10.1744	0.00258669	     10.17	0.00256338	     10.17	   64.0845	
   10.1714	0.00255917	   10.2449	0.00255897	   10.2149	0.00259394	   10.2104	 0.0025707	   10.2104	   64.2674	
   10.2112	0.00256683	    10.285	0.00256549	    10.255	0.00260102	   10.2504	0.00257778	   10.2504	   64.4445	
   10.2507	0.00257436	   10.3248	0.00257184	   10.2948	0.00260798	   10.2901	0.00258472	   10.2901	   64.6181	
   10.2898	 0.0025818	    10.364	0.00257802	   10.3343	0.00261482	   10.3294	0.00259155	   10.3294	   64.7887	
   10.3284	0.00258902	   10.4027	0.00258408	   10.3732	0.00262146	   10.3681	0.00259819	   10.3681	   64.9547	
   10.3667	0.00259606	    10.441	0.00258998	   10.4115	0.00262801	   10.4064	0.00260469	   10.4064	   65.1171	
   10.4046	0.00260299	   10.4789	0.00259573	   10.4493	0.00263445	   10.4443	0.00261106	   10.4443	   65.2764	
    10.442	0.00260973	   10.5166	0.00260135	   10.4868	0.00264069	   10.4818	0.00261726	   10.4818	   65.4314	
    10.479	0.00261629	   10.5538	0.00260684	   10.5241	0.00264684	    10.519	0.00262332	    10.519	   65.5831	
   10.5158	0.00262269	   10.5906	0.00261219	   10.5609	 0.0026529	   10.5558	0.00262926	   10.5558	   65.7314	
   10.5523	0.00262897	   10.6268	0.00261745	   10.5973	0.00265874	   10.5921	0.00263505	   10.5921	   65.8763	
   10.5883	0.00263505	   10.6626	0.00262259	   10.6331	 0.0026646	    10.628	0.00264075	    10.628	   66.0187	
   10.6238	0.00264097	    10.698	0.00262759	   10.6684	0.00267034	   10.6634	 0.0026463	   10.6634	   66.1575	
   10.6587	0.00264679	   10.7332	 0.0026325	   10.7032	0.00267591	   10.6984	0.00265173	   10.6984	   66.2933	
   10.6932	0.00265239	    10.768	 0.0026373	   10.7377	0.00268141	    10.733	0.00265703	    10.733	   66.4258	
   10.7273	0.00265787	   10.8025	0.00264198	    10.772	0.00268681	   10.7673	0.00266222	   10.7673	   66.5555	
   10.7611	0.00266325	   10.8365	0.00264658	   10.8059	0.00269207	   10.8012	 0.0026673	   10.8012	   66.6825	
   10.7946	0.00266843	   10.8699	0.00265104	   10.8394	0.00269727	   10.8346	0.00267224	   10.8346	   66.8061	
   10.8278	 0.0026735	   10.9027	0.00265546	   10.8723	0.00270237	   10.8676	0.00267711	   10.8676	   66.9277	
   10.8604	0.00267851	   10.9352	0.00265976	   10.9047	0.00270735	   10.9001	0.00268187	   10.9001	   67.0468	
   10.8926	0.00268334	   10.9673	0.00266399	   10.9366	0.00271225	   10.9322	0.00268653	   10.9322	   67.1632	
   10.9241	0.00268805	   10.9989	0.00266813	   10.9679	0.00271707	   10.9636	0.00269108	   10.9636	   67.2771	
   10.9551	0.00269275	   11.0302	0.00267214	    10.999	0.00272178	   10.9947	0.00269556	   10.9947	   67.3889	
   10.9857	0.00269719	   11.0611	0.00267613	   11.0297	 0.0027264	   11.0255	0.00269991	   11.0255	   67.4977	
   11.0159	0.00270153	   11.0915	0.00267999	   11.0601	0.00273093	   11.0558	0.00270415	   11.0558	   67.6037	
   11.0459	0.00270589	   11.1215	0.00268378	   11.0901	0.00273535	   11.0858	0.00270834	   11.0858	   67.7085	
   11.0755	0.00271004	   11.1508	0.00268754	   11.1196	0.00273969	   11.1153	0.00271242	   11.1153	   67.8106	
   11.1047	0.00271407	   11.1796	0.00269116	   11.1487	  0.002744	   11.1443	0.00271641	   11.1443	   67.9102	
   11.1334	0.00271815	    11.208	 0.0026947	   11.1772	0.00274809	   11.1729	0.00272032	   11.1729	   68.0079	
   11.1616	0.00272209	    11.236	0.00269823	   11.2053	0.00275211	    11.201	0.00272414	    11.201	   68.1036	
   11.1892	0.00272582	   11.2637	0.00270161	   11.2329	0.00275618	   11.2286	0.00272787	   11.2286	   68.1968	
   11.2163	0.00272958	   11.2911	0.00270492	     11.26	0.00276007	   11.2558	0.00273152	   11.2558	   68.2881	
   11.2428	0.00273326	   11.3182	0.00270817	   11.2868	0.00276381	   11.2826	0.00273508	   11.2826	   68.3771	
   11.2689	0.00273671	   11.3449	0.00271133	   11.3133	0.00276761	    11.309	0.00273855	    11.309	   68.4638	
   11.2947	 0.0027402	   11.3711	0.00271441	   11.3394	0.00277125	   11.3351	0.00274195	   11.3351	   68.5488	
   11.3203	0.00274355	   11.3968	0.00271744	   11.3652	0.00277478	   11.3608	0.00274526	   11.3608	   68.6314	
   11.3452	0.00274676	    11.422	0.00272038	   11.3905	0.00277836	   11.3859	 0.0027485	   11.3859	   68.7125	
   11.3699	0.00274996	   11.4466	0.00272324	   11.4153	0.00278176	   11.4106	0.00275165	   11.4106	   68.7913	
   11.3939	0.00275306	   11.4707	0.00272605	   11.4396	0.00278503	   11.4347	0.00275471	   11.4347	   68.8678	
   11.4176	0.00275603	   11.4942	0.00272881	   11.4633	0.00278834	   11.4584	0.00275772	   11.4584	   68.9431	
   11.4408	0.00275895	   11.5173	0.00273145	   11.4864	0.00279154	   11.4815	0.00276065	   11.4815	   69.0161	
   11.4634	0.00276178	     11.54	0.00273407	   11.5089	0.00279461	   11.5041	0.00276349	   11.5041	   69.0872	
   11.4856	0.00276448	   11.5624	0.00273663	   11.5307	0.00279769	   11.5262	0.00276627	   11.5262	   69.1567	
   11.5071	0.00276713	   11.5844	 0.0027391	    11.552	0.00280069	   11.5479	0.00276897	   11.5479	   69.2244	
    11.528	 0.0027697	   11.6061	 0.0027416	    11.573	0.00280353	    11.569	0.00277161	    11.569	   69.2903	
   11.5484	0.00277216	   11.6273	0.00274398	   11.5935	0.00280634	   11.5897	0.00277416	   11.5897	    69.354	
   11.5682	 0.0027746	   11.6481	0.00274626	   11.6137	0.00280913	     11.61	0.00277666	     11.61	   69.4165	
   11.5874	0.00277696	   11.6687	0.00274859	   11.6335	0.00281174	   11.6299	 0.0027791	   11.6299	   69.4774	
   11.6063	 0.0027792	   11.6888	0.00275075	   11.6531	0.00281431	   11.6494	0.00278142	   11.6494	   69.5355	
   11.6248	0.00278141	   11.7082	 0.0027529	   11.6723	0.00281685	   11.6685	0.00278372	   11.6685	   69.5929	
    11.643	0.00278356	   11.7273	0.00275507	   11.6912	0.00281923	   11.6871	0.00278595	   11.6871	   69.6488	
   11.6609	0.00278561	   11.7458	0.00275708	   11.7096	0.00282157	   11.7055	0.00278809	   11.7055	   69.7022	
   11.6785	0.00278763	   11.7638	0.00275907	   11.7277	0.00282387	   11.7233	0.00279019	   11.7233	   69.7547	
   11.6959	0.00278959	   11.7813	0.00276107	   11.7452	0.00282601	   11.7408	0.00279223	   11.7408	   69.8057	
   11.7129	0.00279149	   11.7981	0.00276297	   11.7623	0.00282822	   11.7578	0.00279423	   11.7578	   69.8556	
   11.7296	 0.0027934	   11.8144	0.00276485	    11.779	0.00283041	   11.7743	0.00279622	   11.7743	   69.9054	
   11.7459	0.00279527	   11.8301	0.00276672	   11.7951	0.00283236	   11.7904	0.00279812	   11.7904	   69.9529	
   11.7619	0.00279708	   11.8452	0.00276848	   11.8107	0.00283431	   11.8059	0.00279996	   11.8059	   69.9989	
   11.7774	0.00279881	   11.8597	0.00277023	   11.8258	0.00283631	    11.821	0.00280178	    11.821	   70.0446	
   11.7925	0.00280054	   11.8736	0.00277197	   11.8404	 0.0028381	   11.8355	0.00280354	   11.8355	   70.0884	
   11.8071	0.00280223	   11.8871	0.00277362	   11.8545	0.00283987	   11.8495	0.00280524	   11.8495	    70.131	
   11.8209	0.00280387	   11.9001	0.00277525	    11.868	0.00284169	    11.863	0.00280694	    11.863	   70.1734	
   11.8344	0.00280546	   11.9126	0.00277685	   11.8809	0.00284335	    11.876	0.00280855	    11.876	   70.2139	
   11.8474	0.00280701	   11.9247	 0.0027784	   11.8933	0.00284497	   11.8885	0.00281013	   11.8885	   70.2531	
   11.8599	0.00280854	   11.9362	0.00277992	   11.9052	0.00284662	   11.9004	0.00281169	   11.9004	   70.2923	
   11.8718	0.00281007	   11.9472	0.00278139	   11.9166	0.00284813	   11.9119	 0.0028132	   11.9119	   70.3299	
   11.8832	0.00281153	   11.9579	0.00278281	   11.9274	0.00284957	   11.9228	0.00281464	   11.9228	   70.3659	
   11.8942	  0.002813	    11.968	0.00278428	   11.9377	0.00285103	   11.9333	 0.0028161	   11.9333	   70.4026	
   11.9047	0.00281443	   11.9778	0.00278557	   11.9475	 0.0028524	   11.9433	0.00281747	   11.9433	   70.4367	
   11.9147	0.00281581	   11.9872	0.00278684	   11.9568	0.00285369	   11.9529	0.00281878	   11.9529	   70.4694	
   11.9243	0.00281716	    11.996	0.00278816	   11.9656	0.00285496	    11.962	0.00282009	    11.962	   70.5023	
   11.9335	0.00281849	   12.0044	0.00278937	   11.9739	 0.0028562	   11.9706	0.00282135	   11.9706	   70.5338	
   11.9422	0.00281987	   12.0123	0.00279048	   11.9817	0.00285734	   11.9787	0.00282256	   11.9787	   70.5641	
   11.9505	0.00282115	   12.0197	0.00279162	    11.989	0.00285841	   11.9864	0.00282373	   11.9864	   70.5932	
   11.9583	0.00282237	   12.0266	0.00279271	   11.9963	0.00285958	   11.9937	0.00282489	   11.9937	   70.6222	
   11.9658	0.00282366	   12.0332	0.00279371	   12.0027	0.00286063	   12.0005	  0.002826	   12.0005	   70.6501	
   11.9728	0.00282484	   12.0394	0.00279472	   12.0088	0.00286151	    12.007	0.00282702	    12.007	   70.6755	
   11.9794	0.00282593	   12.0454	0.00279563	   12.0145	 0.0028625	   12.0131	0.00282802	   12.0131	   70.7006	
   11.9856	0.00282707	   12.0508	0.00279651	   12.0199	0.00286338	   12.0187	0.00282899	   12.0187	   70.7247	
   11.9914	0.00282806	   12.0558	0.00279737	   12.0248	0.00286412	    12.024	0.00282985	    12.024	   70.7463	
   11.9968	0.00282903	   12.0604	0.00279812	   12.0293	0.00286491	   12.0288	0.00283069	   12.0288	   70.7672	
   12.0017	0.00282996	   12.0646	0.00279881	   12.0334	0.00286562	   12.0333	0.00283146	   12.0333	   70.7866	
   12.0062	0.00283082	   12.0683	0.00279949	   12.0372	 0.0028662	   12.0373	0.00283217	   12.0373	   70.8042	
   12.0103	0.00283165	   12.0716	0.00280006	   12.0406	0.00286682	   12.0408	0.00283285	   12.0408	   70.8211	
   12.0138	0.00283242	   12.0745	0.00280058	   12.0436	 0.0028674	    12.044	0.00283346	    12.044	   70.8366	
   12.0168	 0.0028331	    12.077	0.00280107	   12.0462	0.00286785	   12.0467	  0.002834	   12.0467	   70.8501	
    12.019	0.00283374	   12.0791	0.00280147	   12.0485	 0.0028683	   12.0489	 0.0028345	   12.0489	   70.8625	
   12.0205	0.00283427	   12.0809	 0.0028018	   12.0504	0.00286875	   12.0506	0.00283494	   12.0506	   70.8735	
   12.0214	0.00283481	   12.0823	 0.0028021	   12.0519	0.00286898	   12.0519	 0.0028353	   12.0519	   70.8825	
   12.0215	0.00283532	   12.0834	0.00280232	   12.0528	0.00286933	   12.0526	0.00283565	   12.0526	   70.8914	
    12.021	0.00283571	   12.0841	0.00280247	   12.0531	 0.0028696	   12.0527	0.00283593	   12.0527	   70.8982	
   12.0199	 0.0028361	   12.0844	0.00280263	   12.0528	 0.0028697	   12.0524	0.00283614	   12.0524	   70.9035	
   12.0183	0.00283646	   12.0843	0.00280266	    12.052	0.00286986	   12.0515	0.00283633	   12.0515	   70.9081	
   12.0162	0.00283673	   12.0836	0.00280269	   12.0505	0.00286996	   12.0501	0.00283646	   12.0501	   70.9115	
   12.0136	0.00283695	   12.0822	0.00280276	   12.0485	0.00286992	   12.0481	0.00283654	   12.0481	   70.9136	
   12.0107	0.00283723	   12.0803	0.00280263	   12.0459	0.00286991	   12.0456	0.00283659	   12.0456	   70.9148	
   12.0073	0.00283743	   12.0776	0.00280263	   12.0429	0.00286985	   12.0426	0.00283664	   12.0426	   70.9159	
   12.0037	0.00283749	   12.0744	0.00280251	   12.0394	0.00286968	   12.0392	0.00283656	   12.0392	    70.914	
   11.9997	0.00283756	   12.0707	0.00280232	   12.0356	0.00286944	   12.0353	0.00283644	   12.0353	    70.911	
   11.9953	0.00283762	   12.0665	0.00280213	   12.0311	0.00286921	    12.031	0.00283632	    12.031	    70.908	
   11.9904	0.00283759	   12.0619	 0.0028019	   12.0264	0.00286888	   12.0262	0.00283612	   12.0262	   70.9031	
   11.9848	0.00283751	   12.0568	0.00280162	   12.0212	0.00286858	   12.0209	 0.0028359	   12.0209	   70.8976	
   11.9786	0.00283748	   12.0514	0.00280129	   12.0155	0.00286822	   12.0152	0.00283566	   12.0152	   70.8916	
   11.9718	0.00283733	   12.0457	0.00280096	   12.0093	0.00286776	   12.0089	0.00283535	   12.0089	   70.8838	
   11.9644	0.00283716	   12.0396	0.00280055	   12.0027	0.00286724	   12.0022	0.00283498	   12.0022	   70.8746	
   11.9565	0.00283697	    12.033	 0.0028001	   11.9955	 0.0028667	    11.995	0.00283459	    11.995	   70.8647	
   11.9483	 0.0028367	   12.0258	0.00279963	   11.9878	0.00286604	   11.9873	0.00283413	   11.9873	   70.8531	
   11.9397	0.00283639	    12.018	0.00279912	   11.9797	0.00286537	   11.9791	0.00283363	   11.9791	   70.8407	
   11.9309	0.00283602	   12.0096	0.00279856	   11.9711	0.00286467	   11.9705	0.00283309	   11.9705	   70.8271	
   11.9213	0.00283566	   12.0006	0.00279797	   11.9622	0.00286387	   11.9614	 0.0028325	   11.9614	   70.8126	
   11.9114	0.00283527	   11.9913	0.00279736	   11.9529	0.00286304	   11.9518	0.00283189	   11.9518	   70.7972	
    11.901	0.00283477	   11.9815	0.00279674	   11.9432	 0.0028622	   11.9419	0.00283124	   11.9419	   70.7809	
   11.8903	0.00283431	   11.9714	0.00279604	    11.933	0.00286118	   11.9316	0.00283051	   11.9316	   70.7627	
   11.8789	0.00283383	   11.9609	0.00279536	   11.9222	0.00286015	   11.9207	0.00282978	   11.9207	   70.7444	
   11.8671	0.00283329	   11.9499	0.00279466	   11.9108	0.00285916	   11.9093	0.00282904	   11.9093	    70.726	
   11.8549	0.00283277	   11.9383	0.00279389	   11.8989	0.00285805	   11.8973	0.00282824	   11.8973	    70.706	
   11.8423	 0.0028322	   11.9261	0.00279312	   11.8864	0.00285683	    11.885	0.00282738	    11.885	   70.6846	
   11.8295	0.00283156	   11.9134	0.00279236	   11.8736	0.00285565	   11.8722	0.00282652	   11.8722	   70.6631	
   11.8162	0.00283094	   11.9002	0.00279158	   11.8605	0.00285435	   11.8589	0.00282563	   11.8589	   70.6406	
   11.8025	0.00283028	   11.8866	 0.0027908	   11.8469	0.00285298	   11.8453	0.00282469	   11.8453	   70.6172	
   11.7881	0.00282956	   11.8726	   0.00279	    11.833	0.00285165	   11.8312	0.00282374	   11.8312	   70.5934	
   11.7732	0.00282883	   11.8582	0.00278918	   11.8183	 0.0028502	   11.8166	0.00282273	   11.8166	   70.5683	
   11.7578	0.00282809	   11.8433	0.00278836	   11.8031	0.00284866	   11.8014	 0.0028217	   11.8014	   70.5426	
    11.742	0.00282725	   11.8278	0.00278757	   11.7874	0.00284722	   11.7857	0.00282068	   11.7857	    70.517	
    11.726	0.00282643	   11.8117	0.00278677	   11.7713	0.00284564	   11.7697	0.00281961	   11.7697	   70.4903	
   11.7096	0.00282561	   11.7951	  0.002786	   11.7548	0.00284405	   11.7532	0.00281855	   11.7532	   70.4638	
   11.6927	0.00282462	   11.7782	0.00278511	    11.738	0.00284249	   11.7363	0.00281741	   11.7363	   70.4352	
   11.6752	0.00282369	   11.7609	0.00278424	   11.7209	0.00284089	    11.719	0.00281627	    11.719	   70.4068	
   11.6571	0.00282277	   11.7432	 0.0027834	    11.703	0.00283919	   11.7011	0.00281512	   11.7011	   70.3781	
   11.6386	0.00282172	   11.7249	0.00278249	   11.6846	0.00283754	   11.6827	0.00281392	   11.6827	    70.348	
   11.6198	0.00282069	    11.706	0.00278157	   11.6657	0.00283586	   11.6639	0.00281271	   11.6639	   70.3177	
   11.6005	0.00281969	   11.6866	0.00278065	   11.6465	0.00283406	   11.6445	0.00281146	   11.6445	   70.2866	
   11.5807	0.00281854	   11.6668	0.00277969	   11.6269	0.00283231	   11.6248	0.00281018	   11.6248	   70.2545	
   11.5605	0.00281743	   11.6466	 0.0027787	   11.6069	 0.0028306	   11.6047	0.00280891	   11.6047	   70.2228	
   11.5399	0.00281634	    11.626	 0.0027777	   11.5862	0.00282875	   11.5841	 0.0028076	   11.5841	     70.19	
   11.5188	0.00281516	   11.6049	0.00277664	    11.565	0.00282696	   11.5629	0.00280625	   11.5629	   70.1563	
   11.4972	0.00281388	   11.5833	0.00277556	   11.5434	0.00282514	   11.5413	0.00280486	   11.5413	   70.1216	
   11.4752	0.00281269	   11.5611	0.00277451	   11.5214	0.00282325	   11.5192	0.00280349	   11.5192	   70.0872	
   11.4528	0.00281142	   11.5386	0.00277335	    11.499	0.00282146	   11.4968	0.00280208	   11.4968	   70.0519	
   11.4297	0.00281007	   11.5157	0.00277219	   11.4763	0.00281964	   11.4739	0.00280063	   11.4739	   70.0158	
   11.4062	0.00280877	   11.4924	0.00277106	   11.4529	0.00281772	   11.4505	0.00279918	   11.4505	   69.9796	
   11.3823	0.00280739	   11.4685	0.00276983	    11.429	0.00281588	   11.4266	 0.0027977	   11.4266	   69.9425	
   11.3581	 0.0028059	    11.444	 0.0027686	   11.4047	0.00281402	   11.4023	0.00279617	   11.4023	   69.9043	
   11.3336	0.00280448	   11.4192	0.00276739	   11.3801	0.00281209	   11.3776	0.00279465	   11.3776	   69.8664	
   11.3086	  0.002803	   11.3939	0.00276601	    11.355	0.00281019	   11.3525	0.00279307	   11.3525	   69.8267	
    11.283	0.00280139	   11.3682	0.00276471	   11.3293	0.00280829	   11.3268	0.00279146	   11.3268	   69.7866	
    11.257	0.00279986	    11.342	0.00276339	   11.3031	0.00280635	   11.3007	0.00278987	   11.3007	   69.7467	
   11.2306	0.00279826	   11.3152	0.00276193	   11.2764	0.00280441	   11.2741	 0.0027882	   11.2741	   69.7051	
   11.2039	0.00279657	    11.288	0.00276049	   11.2495	0.00280242	   11.2471	0.00278649	   11.2471	   69.6623	
   11.1766	0.00279489	   11.2604	0.00275903	   11.2222	 0.0028004	   11.2197	0.00278477	   11.2197	   69.6193	
   11.1487	0.00279315	   11.2324	0.00275744	   11.1944	0.00279838	   11.1919	0.00278299	   11.1919	   69.5748	
   11.1205	0.00279134	    11.204	0.00275584	    11.166	 0.0027963	   11.1635	0.00278116	   11.1635	    69.529	
   11.0919	0.00278954	   11.1749	0.00275426	   11.1373	0.00279421	   11.1347	0.00277934	   11.1347	   69.4835	
    11.063	0.00278769	   11.1455	0.00275259	   11.1081	0.00279216	   11.1056	0.00277748	   11.1056	    69.437	
   11.0335	0.00278576	   11.1158	0.00275087	   11.0787	0.00279005	    11.076	0.00277556	    11.076	    69.389	
   11.0035	0.00278383	   11.0856	0.00274917	   11.0486	 0.0027879	   11.0459	0.00277364	   11.0459	   69.3409	
   10.9731	0.00278185	   11.0548	0.00274733	   11.0181	0.00278578	   11.0153	0.00277166	   11.0153	   69.2914	
   10.9424	 0.0027798	   11.0236	0.00274552	   10.9872	0.00278359	   10.9844	0.00276963	   10.9844	   69.2409	
   10.9111	0.00277776	    10.992	0.00274369	    10.956	0.00278145	    10.953	0.00276763	    10.953	   69.1908	
   10.8792	0.00277562	   10.9601	0.00274175	   10.9243	0.00277923	   10.9212	0.00276553	   10.9212	   69.1384	
    10.847	0.00277333	   10.9275	0.00273981	   10.8919	0.00277692	   10.8888	0.00276335	   10.8888	   69.0838	
   10.8144	0.00277117	   10.8945	0.00273786	   10.8593	0.00277463	   10.8561	0.00276122	   10.8561	   69.0305	
   10.7814	0.00276897	   10.8611	0.00273575	   10.8263	 0.0027723	   10.8229	0.00275901	   10.8229	   68.9752	
   10.7479	 0.0027666	   10.8271	0.00273377	   10.7928	0.00276992	   10.7893	0.00275676	   10.7893	   68.9191	
   10.7139	0.00276427	   10.7927	0.00273168	   10.7588	0.00276755	   10.7551	 0.0027545	   10.7551	   68.8626	
   10.6796	0.00276193	   10.7579	0.00272947	   10.7243	0.00276511	   10.7206	0.00275217	   10.7206	   68.8041	
    10.645	0.00275941	   10.7227	0.00272733	   10.6896	0.00276257	   10.6858	0.00274977	   10.6858	   68.7443	
   10.6099	0.00275694	   10.6872	0.00272515	   10.6546	 0.0027601	   10.6505	 0.0027474	   10.6505	   68.6849	
   10.5743	0.00275448	   10.6513	0.00272284	   10.6189	0.00275752	   10.6148	0.00274495	   10.6148	   68.6237	
   10.5383	0.00275189	   10.6149	0.00272058	   10.5829	0.00275489	   10.5787	0.00274245	   10.5787	   68.5614	
   10.5021	0.00274932	   10.5781	0.00271833	   10.5463	0.00275226	   10.5422	0.00273997	   10.5422	   68.4992	
   10.4653	0.00274669	    10.541	0.00271596	   10.5094	0.00274947	   10.5052	0.00273737	   10.5052	   68.4343	
   10.4281	0.00274399	   10.5035	0.00271358	    10.472	0.00274673	   10.4678	0.00273477	   10.4678	   68.3692	
   10.3905	0.00274129	   10.4655	0.00271119	   10.4341	0.00274395	     10.43	0.00273214	     10.43	   68.3036	
   10.3526	0.00273857	   10.4271	 0.0027087	    10.396	0.00274104	   10.3919	0.00272944	   10.3919	   68.2359	
    10.314	0.00273578	   10.3885	0.00270622	   10.3575	0.00273822	   10.3533	0.00272674	   10.3533	   68.1684	
   10.2751	0.00273297	   10.3495	 0.0027037	   10.3184	 0.0027353	   10.3143	0.00272399	   10.3143	   68.0997	
   10.2358	0.00273014	     10.31	0.00270111	   10.2789	 0.0027323	   10.2749	0.00272118	   10.2749	   68.0295	
   10.1962	0.00272723	   10.2701	0.00269845	   10.2392	0.00272933	   10.2352	0.00271834	   10.2352	   67.9585	
   10.1561	0.00272431	     10.23	0.00269577	   10.1991	0.00272629	   10.1951	0.00271546	   10.1951	   67.8864	
   10.1156	0.00272136	   10.1894	0.00269305	   10.1585	0.00272318	   10.1545	0.00271253	   10.1545	   67.8133	
   10.0747	0.00271835	   10.1482	0.00269023	   10.1176	 0.0027201	   10.1135	0.00270956	   10.1135	   67.7389	
   10.0339	0.00271531	   10.1068	0.00268747	   10.0763	0.00271695	   10.0723	0.00270658	   10.0723	   67.6644	
   9.99216	0.00271232	    10.065	 0.0026846	   10.0345	0.00271371	   10.0306	0.00270354	   10.0306	   67.5886	
   9.95022	0.00270917	   10.0227	0.00268163	    9.9922	0.00271053	   9.98839	0.00270044	   9.98839	    67.511	
   9.90778	0.00270603	   9.98007	0.00267872	   9.94966	0.00270729	   9.94584	0.00269735	   9.94584	   67.4337	
   9.86497	0.00270289	   9.93698	0.00267568	   9.90677	0.00270399	   9.90291	0.00269419	   9.90291	   67.3547	
   9.82172	0.00269961	   9.89338	0.00267261	   9.86336	0.00270066	   9.85949	0.00269096	   9.85949	    67.274	
   9.77815	0.00269636	   9.84939	 0.0026696	   9.81959	0.00269725	   9.81571	0.00268774	   9.81571	   67.1934	
   9.73414	0.00269311	   9.80508	0.00266643	   9.77555	0.00269373	   9.77159	0.00268442	   9.77159	   67.1106	
   9.68963	0.00268974	   9.76044	0.00266319	   9.73102	0.00269018	   9.72703	0.00268104	   9.72703	   67.0259	
   9.64479	0.00268636	    9.7154	0.00266002	   9.68605	0.00268658	   9.68208	0.00267765	   9.68208	   66.9414	
   9.59954	0.00268295	      9.67	0.00265671	   9.64077	0.00268288	   9.63677	0.00267418	   9.63677	   66.8545	
   9.55377	0.00267946	    9.6243	0.00265329	   9.59512	0.00267912	   9.59106	0.00267062	   9.59106	   66.7656	
    9.5076	0.00267595	   9.57816	0.00264991	   9.54896	0.00267533	   9.54491	0.00266706	   9.54491	   66.6766	
   9.46124	0.00267239	   9.53159	0.00264644	   9.50249	0.00267139	   9.49844	0.00266341	   9.49844	   66.5852	
   9.41447	0.00266879	   9.48492	0.00264287	   9.45575	0.00266738	   9.45171	0.00265968	   9.45171	    66.492	
   9.36725	0.00266507	   9.43753	0.00263938	   9.40855	0.00266337	   9.40445	0.00265594	   9.40445	   66.3985	
   9.31978	0.00266134	   9.38986	 0.0026357	     9.361	0.00265924	   9.35688	0.00265209	   9.35688	   66.3023	
   9.27201	0.00265757	   9.34188	0.00263199	   9.31304	0.00265503	   9.30898	0.00264819	   9.30898	   66.2048	
   9.22377	0.00265367	   9.29357	0.00262831	   9.26471	0.00265081	   9.26068	0.00264426	   9.26068	   66.1066	
   9.17521	0.00264975	   9.24476	0.00262449	   9.21596	0.00264648	   9.21198	0.00264024	   9.21198	    66.006	
   9.12647	0.00264578	   9.19563	0.00262064	   9.16697	0.00264209	   9.16302	0.00263617	   9.16302	   65.9042	
   9.07719	 0.0026417	   9.14616	0.00261675	   9.11758	0.00263765	   9.11365	0.00263203	   9.11365	   65.8008	
   9.02756	0.00263755	   9.09619	 0.0026128	   9.06774	0.00263315	   9.06383	0.00262784	   9.06383	   65.6959	
   8.97771	0.00263337	   9.04587	0.00260884	   9.01765	0.00262856	   9.01374	0.00262359	   9.01374	   65.5897	
   8.92744	0.00262919	   8.99529	0.00260474	   8.96721	0.00262392	   8.96331	0.00261928	   8.96331	   65.4821	
   8.87679	0.00262478	   8.94426	0.00260064	   8.91628	0.00261923	   8.91244	0.00261488	   8.91244	   65.3721	
   8.82565	0.00262036	   8.89286	0.00259654	   8.86506	0.00261446	   8.86119	0.00261045	   8.86119	   65.2613	
   8.77426	0.00261591	   8.84122	0.00259226	   8.81354	0.00260961	   8.80967	0.00260593	   8.80967	   65.1482	
   8.72254	 0.0026113	   8.78917	0.00258799	   8.76152	0.00260469	   8.75774	0.00260133	   8.75774	   65.0332	
   8.67057	0.00260668	   8.73673	0.00258368	   8.70922	0.00259967	   8.70551	0.00259668	   8.70551	    64.917	
   8.61816	0.00260202	   8.68413	0.00257923	    8.6566	0.00259464	   8.65296	0.00259196	   8.65296	   64.7991	
   8.56531	0.00259721	   8.63112	0.00257476	   8.60352	0.00258952	   8.59998	0.00258716	   8.59998	   64.6791	
   8.51214	0.00259238	   8.57772	0.00257028	   8.55017	0.00258428	   8.54668	0.00258231	   8.54668	   64.5578	
   8.45859	 0.0025875	   8.52412	0.00256568	   8.49656	0.00257905	   8.49309	0.00257741	   8.49309	   64.4352	
   8.40469	0.00258249	   8.47015	  0.002561	   8.44265	0.00257375	   8.43916	0.00257242	   8.43916	   64.3104	
   8.35052	0.00257743	   8.41578	0.00255633	   8.38842	0.00256825	   8.38491	0.00256733	   8.38491	   64.1834	
   8.29598	0.00257231	   8.36115	0.00255154	   8.33368	0.00256282	   8.33027	0.00256222	   8.33027	   64.0556	
   8.24105	 0.0025671	   8.30608	0.00254667	   8.27867	0.00255732	   8.27527	0.00255703	   8.27527	   63.9258	
   8.18593	0.00256187	   8.25065	0.00254178	   8.22328	 0.0025516	   8.21995	0.00255175	   8.21995	   63.7938	
   8.13042	0.00255661	   8.19492	0.00253679	   8.16759	0.00254592	   8.16431	0.00254644	   8.16431	   63.6609	
   8.07453	0.00255119	   8.13879	0.00253168	   8.11149	0.00254016	   8.10827	0.00254101	   8.10827	   63.5253	
   8.01845	0.00254579	   8.08227	0.00252655	   8.05517	 0.0025342	   8.05196	0.00253552	   8.05196	   63.3879	
   7.96201	0.00254031	   8.02553	0.00252138	    7.9985	0.00252824	   7.99535	0.00252998	   7.99535	   63.2495	
   7.90524	0.00253473	   7.96832	0.00251611	   7.94141	0.00252218	   7.93832	0.00252434	   7.93832	   63.1085	
    7.8483	0.00252911	   7.91093	0.00251074	    7.8841	0.00251602	   7.88111	0.00251862	   7.88111	   62.9656	
   7.79093	0.00252341	   7.85322	0.00250533	   7.82647	0.00250982	   7.82354	0.00251285	   7.82354	   62.8213	
   7.73325	0.00251762	   7.79526	 0.0024998	   7.76845	0.00250346	   7.76565	0.00250696	   7.76565	   62.6739	
   7.67536	0.00251181	   7.73703	0.00249413	   7.71027	0.00249708	   7.70755	0.00250101	   7.70755	   62.5251	
   7.61703	0.00250588	   7.67855	0.00248837	   7.65165	0.00249063	   7.64908	0.00249496	   7.64908	    62.374	
   7.55843	0.00249979	   7.61967	0.00248264	   7.59269	0.00248404	   7.59026	0.00248882	   7.59026	   62.2205	
    7.4996	0.00249367	   7.56057	0.00247669	   7.53362	 0.0024774	   7.53126	0.00248259	   7.53126	   62.0647	
    7.4404	0.00248754	   7.50119	0.00247067	    7.4741	0.00247069	    7.4719	 0.0024763	    7.4719	   61.9076	
   7.38099	0.00248124	   7.44141	0.00246464	   7.41429	0.00246385	   7.41223	0.00246991	   7.41223	   61.7477	
   7.32129	0.00247487	   7.38148	0.00245837	   7.35428	0.00245695	   7.35235	0.00246339	   7.35235	   61.5849	
    7.2612	0.00246846	    7.3212	0.00245203	   7.29384	0.00244995	   7.29208	0.00245682	   7.29208	   61.4204	
   7.20092	0.00246188	   7.26058	0.00244563	    7.2332	0.00244286	   7.23157	0.00245013	   7.23157	   61.2531	
   7.14033	0.00245526	   7.19985	0.00243901	   7.17239	0.00243572	   7.17086	0.00244333	   7.17086	   61.0833	
    7.0797	0.00244856	   7.13872	0.00243232	    7.1112	0.00242849	   7.10987	0.00243646	   7.10987	   60.9114	
    7.0184	 0.0024418	   7.07731	0.00242558	   7.04971	0.00242114	   7.04847	0.00242951	   7.04847	   60.7377	
   6.95698	0.00243492	   7.01566	0.00241864	   6.98797	0.00241373	   6.98687	0.00242243	   6.98687	   60.5606	
   6.89527	0.00242792	   6.95357	 0.0024116	   6.92581	0.00240627	   6.92488	0.00241527	   6.92488	   60.3817	
   6.83332	0.00242087	   6.89127	0.00240448	    6.8634	0.00239871	   6.86266	0.00240802	   6.86266	   60.2006	
   6.77098	 0.0024137	   6.82867	 0.0023972	   6.80072	  0.002391	   6.80013	0.00240063	   6.80013	   60.0158	
   6.70847	0.00240641	   6.76573	0.00238979	   6.73785	0.00238327	   6.73735	0.00239316	   6.73735	   59.8289	
    6.6457	0.00239904	    6.7026	0.00238231	    6.6747	0.00237549	   6.67433	0.00238561	   6.67433	   59.6402	
   6.58259	0.00239154	   6.63911	0.00237464	   6.61129	0.00236752	     6.611	 0.0023779	     6.611	   59.4475	
   6.51931	0.00238391	   6.57538	0.00236684	   6.54775	0.00235945	   6.54748	0.00237007	   6.54748	   59.2516	
   6.45573	0.00237621	   6.51147	  0.002359	   6.48391	0.00235138	   6.48371	 0.0023622	   6.48371	   59.0549	
   6.39191	0.00236841	   6.44716	0.00235096	   6.41978	 0.0023432	   6.41962	0.00235419	   6.41962	   58.8548	
   6.32798	0.00236046	    6.3827	0.00234281	   6.35545	0.00233489	   6.35538	0.00234605	   6.35538	   58.6513	
   6.26372	0.00235243	   6.31792	0.00233461	   6.29077	0.00232653	    6.2908	0.00233785	    6.2908	   58.4464	
   6.19927	0.00234429	   6.25284	0.00232618	   6.22589	0.00231809	     6.226	0.00232952	     6.226	    58.238	
   6.13461	0.00233601	   6.18762	0.00231761	   6.16086	0.00230946	   6.16103	0.00232103	   6.16103	   58.0257	
   6.06962	0.00232764	   6.12209	0.00230904	   6.09553	0.00230078	   6.09575	0.00231249	   6.09575	   57.8122	
   6.00454	0.00231912	   6.05634	0.00230029	   6.03008	0.00229201	   6.03032	0.00230381	   6.03032	   57.5952	
    5.9391	0.00231051	   5.99033	0.00229135	   5.96434	0.00228307	   5.96459	0.00229497	   5.96459	   57.3744	
   5.87344	0.00230183	   5.92399	0.00228238	   5.89835	0.00227404	    5.8986	0.00228608	    5.8986	    57.152	
   5.80762	0.00229299	   5.85753	0.00227324	   5.83222	0.00226492	   5.83246	0.00227705	   5.83246	   56.9263	
   5.74148	0.00228405	   5.79079	 0.0022639	   5.76574	0.00225562	     5.766	0.00226786	     5.766	   56.6964	
   5.67519	0.00227498	   5.72381	0.00225454	   5.69911	 0.0022462	   5.69937	0.00225858	   5.69937	   56.4644	
   5.60851	0.00226576	   5.65669	 0.0022451	   5.63219	0.00223668	   5.63246	0.00224918	   5.63246	   56.2295	
   5.54161	0.00225641	   5.58923	0.00223546	     5.565	0.00222703	   5.56528	0.00223963	   5.56528	   55.9907	
   5.47459	0.00224692	   5.52161	0.00222574	    5.4977	0.00221718	   5.49797	0.00222995	   5.49797	   55.7487	
   5.40741	0.00223735	   5.45373	0.00221589	   5.43007	0.00220724	    5.4304	0.00222016	    5.4304	   55.5041	
   5.33992	0.00222765	   5.38562	0.00220583	   5.36229	0.00219717	   5.36261	0.00221022	   5.36261	   55.2554	
   5.27227	0.00221778	   5.31736	0.00219574	   5.29433	0.00218688	   5.29465	0.00220014	   5.29465	   55.0034	
   5.20436	 0.0022078	   5.24876	0.00218556	   5.22609	0.00217649	    5.2264	0.00218995	    5.2264	   54.7488	
    5.1363	0.00219769	   5.18002	0.00217515	   5.15781	  0.002166	   5.15804	0.00217961	   5.15804	   54.4903	
   5.06792	0.00218742	     5.111	0.00216464	    5.0892	0.00215532	   5.08937	0.00216913	   5.08937	   54.2282	
   4.99941	0.00217694	   5.04176	0.00215402	   5.02044	0.00214448	   5.02054	0.00215848	   5.02054	    53.962	
   4.93066	0.00216645	   4.97241	0.00214323	   4.95149	0.00213355	   4.95152	0.00214774	   4.95152	   53.6936	
   4.86165	 0.0021557	   4.90276	0.00213231	   4.88226	 0.0021224	   4.88222	 0.0021368	   4.88222	   53.4201	
   4.79257	0.00214476	   4.83304	0.00212125	   4.81299	0.00211112	   4.81287	0.00212571	   4.81287	   53.1428	
   4.72317	0.00213391	   4.76312	0.00211004	   4.74347	0.00209972	   4.74325	0.00211456	   4.74325	    52.864	
   4.65365	0.00212267	   4.69299	0.00209871	   4.67379	0.00208809	   4.67348	0.00210316	   4.67348	    52.579	
   4.58392	0.00211131	   4.62272	0.00208725	   4.60393	0.00207626	   4.60352	0.00209161	   4.60352	   52.2903	
   4.51396	0.00209997	   4.55218	0.00207565	    4.5338	 0.0020643	   4.53331	0.00207997	   4.53331	   51.9993	
   4.44395	0.00208831	   4.48154	0.00206392	   4.46361	0.00205218	   4.46303	0.00206814	   4.46303	   51.7034	
   4.37364	0.00207651	    4.4106	0.00205207	   4.39307	0.00203988	   4.39243	0.00205616	   4.39243	   51.4039	
   4.30322	0.00206465	   4.33949	0.00204005	   4.32241	0.00202745	   4.32171	0.00204405	   4.32171	   51.1013	
    4.2326	0.00205258	   4.26829	0.00202788	    4.2517	0.00201486	   4.25086	0.00203177	   4.25086	   50.7943	
   4.16175	0.00204031	   4.19683	0.00201561	   4.18078	0.00200203	   4.17979	0.00201932	   4.17979	    50.483	
    4.0908	0.00202795	   4.12527	0.00200317	   4.10973	0.00198909	    4.1086	0.00200674	    4.1086	   50.1684	
   4.01957	0.00201535	   4.05343	 0.0019905	    4.0384	0.00197599	   4.03714	0.00199395	   4.03714	   49.8488	
   3.94825	0.00200261	   3.98144	0.00197777	   3.96696	0.00196265	   3.96555	0.00198101	   3.96555	   49.5253	
   3.87678	0.00198977	   3.90941	0.00196486	   3.89539	0.00194918	   3.89386	0.00196793	   3.89386	   49.1984	
   3.80507	0.00197666	   3.83713	0.00195174	   3.82362	0.00193554	   3.82194	0.00195465	   3.82194	   48.8662	
   3.73329	0.00196339	   3.76475	0.00193848	   3.75181	0.00192173	   3.74995	 0.0019412	   3.74995	   48.5301	
   3.66137	   0.00195	   3.69216	0.00192508	   3.67971	0.00190778	   3.67775	0.00192762	   3.67775	   48.1905	
   3.58934	0.00193634	    3.6195	0.00191146	   3.60748	0.00189362	   3.60544	0.00191381	   3.60544	   47.8452	
   3.51715	0.00192253	   3.54672	0.00189767	   3.53516	0.00187927	   3.53301	0.00189982	   3.53301	   47.4955	
   3.44481	0.00190853	   3.47374	0.00188369	   3.46266	0.00186476	    3.4604	0.00188566	    3.4604	   47.1415	
   3.37236	 0.0018943	   3.40069	0.00186949	   3.39004	0.00185005	    3.3877	0.00187128	    3.3877	    46.782	
   3.29964	0.00187988	   3.32739	0.00185515	   3.31721	0.00183516	   3.31475	0.00185673	   3.31475	   46.4182	
   3.22691	0.00186532	   3.25403	0.00184063	   3.24431	0.00182009	   3.24175	0.00184201	   3.24175	   46.0503	
   3.15393	0.00185055	   3.18055	0.00182589	   3.17119	0.00180482	   3.16856	0.00182709	   3.16856	   45.6772	
   3.08086	0.00183552	   3.10694	  0.001811	   3.09795	0.00178935	   3.09525	0.00181196	   3.09525	    45.299	
   3.00778	0.00182028	   3.03331	0.00179593	   3.02465	0.00177374	   3.02191	0.00179665	   3.02191	   44.9163	
   2.93453	0.00180488	    2.9595	0.00178063	   2.95111	0.00175797	   2.94838	0.00178116	   2.94838	   44.5289	
   2.86123	0.00178928	   2.88568	0.00176521	   2.87757	0.00174192	   2.87483	0.00176547	   2.87483	   44.1367	
   2.78766	0.00177341	   2.81165	0.00174958	   2.80384	0.00172572	   2.80105	0.00174957	   2.80105	   43.7392	
   2.71404	0.00175738	   2.73753	0.00173376	   2.73004	0.00170934	    2.7272	0.00173349	    2.7272	   43.3374	
   2.64035	0.00174124	   2.66338	0.00171774	   2.65612	0.00169272	   2.65328	0.00171723	   2.65328	   42.9308	
    2.5665	0.00172478	   2.58904	0.00170154	   2.58202	0.00167593	   2.57919	0.00170075	   2.57919	   42.5188	
   2.49268	0.00170816	   2.51453	0.00168523	   2.50791	0.00165894	   2.50504	0.00168411	   2.50504	   42.1027	
   2.41862	 0.0016914	   2.43982	0.00166863	   2.43359	 0.0016418	   2.43067	0.00166728	   2.43067	    41.682	
   2.34456	0.00167435	    2.3651	0.00165185	   2.35927	0.00162446	   2.35631	0.00165022	   2.35631	   41.2555	
   2.27037	0.00165713	   2.29034	0.00163492	   2.28482	0.00160689	   2.28184	0.00163298	   2.28184	   40.8245	
   2.19608	0.00163976	   2.21544	0.00161777	   2.21027	0.00158915	   2.20726	0.00161556	   2.20726	    40.389	
   2.12179	0.00162213	   2.14056	0.00160038	   2.13583	 0.0015712	   2.13273	 0.0015979	   2.13273	   39.9475	
   2.04734	0.00160431	   2.06545	0.00158283	   2.06105	0.00155316	   2.05795	 0.0015801	   2.05795	   39.5025	
   1.97292	0.00158635	   1.99031	0.00156504	   1.98628	0.00153483	   1.98317	0.00156207	   1.98317	   39.0518	
   1.89837	0.00156817	   1.91504	0.00154699	   1.91124	 0.0015163	   1.90821	0.00154382	   1.90821	   38.5955	
   1.82376	0.00154971	   1.83972	0.00152872	   1.83615	0.00149764	   1.83321	0.00152536	   1.83321	    38.134	
   1.74915	0.00153116	   1.76442	0.00151026	   1.76103	0.00147871	    1.7582	0.00150671	    1.7582	   37.6678	
   1.67436	0.00151244	     1.689	0.00149156	   1.68576	0.00145958	   1.68304	0.00148786	   1.68304	   37.1965	
   1.59962	 0.0014934	   1.61363	0.00147271	   1.61057	0.00144031	   1.60794	0.00146881	   1.60794	   36.7201	
   1.52478	0.00147426	   1.53812	0.00145347	   1.53529	0.00142076	   1.53273	 0.0014495	   1.53273	   36.2375	
   1.44992	0.00145492	    1.4626	0.00143404	   1.46002	  0.001401	   1.45752	0.00142999	   1.45752	   35.7497	
   1.37498	0.00143531	   1.38703	0.00141445	   1.38468	0.00138112	   1.38223	0.00141029	   1.38223	   35.2573	
   1.29992	0.00141557	   1.31135	0.00139449	   1.30926	0.00136094	   1.30684	0.00139033	   1.30684	   34.7583	
   1.22492	0.00139562	   1.23574	0.00137429	   1.23391	0.00134053	   1.23152	0.00137015	   1.23152	   34.2537	
   1.14978	0.00137541	   1.15994	0.00135393	   1.15839	0.00132003	   1.15604	0.00134979	   1.15604	   33.7448	
   1.07466	0.00135505	   1.08422	0.00133327	    1.0829	0.00129918	   1.08059	0.00132917	   1.08059	   33.2292	
  0.999459	0.00133444	   1.00843	0.00131233	   1.00731	0.00127815	   1.00507	0.00130831	   1.00507	   32.7077	
  0.924216	 0.0013136	  0.932606	0.00129123	  0.931698	0.00125699	  0.929507	0.00128727	  0.929507	   32.1818	
  0.848901	0.00129265	  0.856715	0.00126983	  0.856122	0.00123552	  0.853913	  0.001266	  0.853913	     31.65	
  0.773604	0.00127144	  0.780685	0.00124821	  0.780426	0.00121384	  0.778238	 0.0012445	  0.778238	   31.1124	
  0.698083	0.00125007	  0.704702	0.00122638	  0.704816	  0.001192	  0.702534	0.00122282	  0.702534	   30.5704	
  0.622643	0.00122843	  0.628804	0.00120422	  0.629102	0.00116991	   0.62685	0.00120085	   0.62685	   30.0212	
  0.547072	0.00120659	  0.552855	0.00118184	  0.553409	0.00114759	  0.551112	0.00117867	  0.551112	   29.4669	
  0.471479	0.00118456	  0.476888	0.00115929	  0.477693	0.00112509	  0.475354	0.00115631	  0.475354	   28.9078	
  0.395799	0.00116228	  0.400886	0.00113646	  0.401961	0.00110239	  0.399549	0.00113371	  0.399549	   28.3427	
  0.320212	 0.0011398	  0.324952	 0.0011134	  0.326312	0.00107949	  0.323825	 0.0011109	  0.323825	   27.7724	
  0.244495	0.00111711	  0.248964	0.00109017	  0.250524	 0.0010564	  0.247994	 0.0010879	  0.247994	   27.1974	
  0.168808	0.00109419	  0.173003	 0.0010667	  0.174783	0.00103303	  0.172198	0.00106464	  0.172198	    26.616	
 0.0931759	0.00107099	 0.0970483	0.00104301	  0.099114	0.00100938	  0.096446	0.00104113	  0.096446	   26.0282	
 0.0174776	0.00104763	 0.0210555	0.00101911	 0.0234669	0.000985558	 0.0206667	0.00101743	 0.0206667	   25.4358	
-0.0580853	0.00102408	-0.0549252	0.000994951	-0.0521394	0.000961517	  -0.05505	0.000993517	  -0.05505	   24.8379	
 -0.133736	0.00100018	  -0.13098	0.000970611	  -0.12777	0.000937225	 -0.130829	0.00096934	 -0.130829	   24.2335	
 -0.209296	0.000976145	 -0.206928	0.00094609	 -0.203322	0.000912743	 -0.206516	0.000944993	 -0.206516	   23.6248	
 -0.284881	0.000951942	 -0.282888	0.000921315	 -0.278914	0.000888064	 -0.282227	0.00092044	 -0.282227	    23.011	
 -0.360496	0.000927408	 -0.358837	0.000896374	 -0.354524	0.000863146	 -0.357952	0.000895642	 -0.357952	   22.3911	
 -0.435939	0.000902696	 -0.434508	0.000871136	 -0.430097	0.000838033	 -0.433515	0.000870622	 -0.433515	   21.7655	
 -0.511465	0.000877817	 -0.510457	0.000845844	 -0.505779	0.000812737	 -0.509234	0.000845466	 -0.509234	   21.1367	
 -0.586871	0.00085266	 -0.586241	0.000820298	 -0.581388	0.000787199	 -0.584833	0.000820052	 -0.584833	   20.5013	
 -0.662235	0.000827312	 -0.662109	0.000794552	 -0.657095	0.00076154	  -0.66048	0.000794468	  -0.66048	   19.8617	
 -0.737608	0.000801817	 -0.737903	0.000768715	 -0.732767	0.000735603	 -0.736093	0.000768712	 -0.736093	   19.2178	
 -0.812817	0.00077606	 -0.813649	0.000742654	 -0.808379	0.000709493	 -0.811615	0.000742736	 -0.811615	   18.5684	
 -0.888042	0.000750062	 -0.889397	0.000716427	 -0.884028	0.000683178	 -0.887156	0.000716556	 -0.887156	   17.9139	
 -0.963136	0.000723896	 -0.965049	0.000690068	  -0.95954	0.000656637	 -0.962575	 0.0006902	 -0.962575	    17.255	
   -1.0382	0.00069754	  -1.04073	0.000663542	  -1.03502	0.000629925	  -1.03798	0.000663669	  -1.03798	   16.5917	
  -1.11322	0.000670978	  -1.11633	0.000636872	  -1.11044	0.000603009	  -1.11333	0.000636953	  -1.11333	   15.9238	
  -1.18828	0.00064423	  -1.19193	0.000610014	  -1.18572	0.000575906	  -1.18864	0.00061005	  -1.18864	   15.2512	
  -1.26323	0.000617269	  -1.26757	0.000583031	  -1.26103	0.000548632	  -1.26394	0.000582977	  -1.26394	   14.5744	
  -1.33817	0.000590154	  -1.34307	0.000555912	  -1.33621	0.00052118	  -1.33915	0.000555749	  -1.33915	   13.8937	
   -1.4129	0.000562902	  -1.41865	0.000528624	  -1.41137	0.000493587	  -1.41431	0.000528371	  -1.41431	   13.2093	
  -1.48773	0.000535458	  -1.49411	0.000501217	  -1.48639	0.00046574	  -1.48941	0.000500805	  -1.48941	   12.5201	
  -1.56252	0.000507855	  -1.56957	0.000473678	  -1.56157	0.000437805	  -1.56456	0.000473113	  -1.56456	   11.8278	
   -1.6372	0.000480141	  -1.64505	0.000445974	   -1.6366	0.000409721	  -1.63962	0.000445279	  -1.63962	    11.132	
  -1.71184	0.000452289	  -1.72034	0.000418136	  -1.71155	0.000381439	  -1.71458	0.000417288	  -1.71458	   10.4322	
  -1.78645	0.000424298	  -1.79563	0.000390162	  -1.78656	0.000353039	  -1.78955	0.000389166	  -1.78955	   9.72916	
  -1.86103	0.000396127	  -1.87081	0.000362143	  -1.86149	0.000324598	  -1.86444	0.000360956	  -1.86444	   9.02389	
  -1.93547	0.000367817	  -1.94589	0.00033391	  -1.93642	0.000295953	  -1.93926	0.00033256	  -1.93926	   8.31399	
  -2.00991	0.000339448	  -2.02099	0.000305553	  -2.01139	0.000267145	   -2.0141	0.000304049	   -2.0141	   7.60122	
   -2.0842	0.000310915	  -2.09591	0.000277122	  -2.08618	0.000238362	  -2.08876	0.000275466	  -2.08876	   6.88666	
  -2.15836	0.000282278	  -2.17085	0.000248531	  -2.16093	0.000209399	  -2.16338	0.000246736	  -2.16338	    6.1684	
   -2.2325	0.00025354	  -2.24567	0.000219827	  -2.23559	0.000180297	  -2.23792	0.000217888	  -2.23792	    5.4472	
  -2.30638	0.000224699	  -2.32036	0.000191014	  -2.31022	0.00015121	  -2.31232	0.000188974	  -2.31232	   4.72435	
  -2.38041	0.000195778	  -2.39514	0.000162057	  -2.38489	0.000121999	  -2.38681	0.000159944	  -2.38681	   3.99861	
  -2.45417	0.000166645	  -2.46978	0.000133013	  -2.45936	9.26727e-05	   -2.4611	0.000130777	   -2.4611	   3.26943	
  -2.52793	0.000137519	  -2.54413	0.000103926	   -2.5338	6.33588e-05	  -2.53529	0.000101601	  -2.53529	   2.54003	
  -2.60153	0.000108255	  -2.61856	7.47061e-05	  -2.60816	3.38748e-05	  -2.60942	7.22785e-05	  -2.60942	   1.80696	
   -2.6749	7.8867e-05	  -2.69295	4.53675e-05	  -2.68229	4.31739e-06	  -2.68338	4.28506e-05	  -2.68338	   1.07127	
  -2.74821	4.94996e-05	  -2.76716	1.60284e-05	  -2.75646	-2.51857e-05	  -2.75728	1.34474e-05	  -2.75728	  0.336186	
   -2.8214	2.00148e-05	  -2.84129	-1.34748e-05	  -2.83043	-5.4784e-05	  -2.83104	-1.60813e-05	  -2.83104	 -0.402033	
  -2.89441	-9.54474e-06	  -2.91525	-4.309e-05	  -2.90429	-8.44545e-05	  -2.90465	-4.56964e-05	  -2.90465	  -1.14241	
  -2.96746	-3.91476e-05	  -2.98907	-7.2606e-05	  -2.97809	-0.000114078	  -2.97821	-7.52772e-05	  -2.97821	  -1.88193	
  -3.04036	-6.87975e-05	  -3.06275	-0.000102314	   -3.0516	-0.000143755	  -3.05157	-0.000104955	  -3.05157	  -2.62389	
  -3.11319	-9.85248e-05	   -3.1364	-0.000132101	   -3.1251	-0.000173483	   -3.1249	-0.000134703	   -3.1249	  -3.36758	
    -3.186	-0.000128284	  -3.20987	-0.000161789	  -3.19844	-0.000203163	   -3.1981	-0.000164412	   -3.1981	   -4.1103	
  -3.25857	-0.000158068	  -3.28316	-0.000191633	  -3.27159	-0.000232875	  -3.27111	-0.000194192	  -3.27111	  -4.85479	
  -3.33111	-0.000187902	  -3.35639	-0.000221514	  -3.34477	-0.000262595	  -3.34409	-0.000224003	  -3.34409	  -5.60009	
  -3.40353	-0.000217758	  -3.42946	-0.000251298	  -3.41772	-0.000292213	   -3.4169	-0.000253756	   -3.4169	   -6.3439	
  -3.47572	-0.000247611	  -3.50236	-0.000281246	  -3.49067	-0.000321932	  -3.48959	-0.000283596	  -3.48959	   -7.0899	
   -3.5479	-0.000277482	  -3.57514	-0.000311188	  -3.56337	-0.000351673	  -3.56214	-0.000313448	  -3.56214	  -7.83619	
  -3.61987	-0.000307384	  -3.64767	-0.000340977	  -3.63586	-0.000381367	  -3.63447	-0.000343243	  -3.63447	  -8.58107	
  -3.69166	-0.000337263	  -3.72016	-0.000370873	  -3.70821	-0.000410986	  -3.70668	-0.000373041	  -3.70668	  -9.32602	
  -3.76341	-0.000367115	  -3.79249	-0.000400792	  -3.78039	-0.000440627	  -3.77876	-0.000402845	  -3.77876	  -10.0711	
  -3.83491	-0.000396947	  -3.86463	-0.000430583	  -3.85242	-0.000470268	  -3.85065	-0.000432599	  -3.85065	   -10.815	
  -3.90637	-0.000426752	   -3.9367	-0.000460405	  -3.92444	-0.000499898	   -3.9225	-0.000462352	   -3.9225	  -11.5588	
  -3.97771	-0.000456549	  -4.00849	-0.000490229	  -3.99621	-0.000529463	  -3.99414	-0.000492081	  -3.99414	   -12.302	
  -4.04886	-0.000486305	  -4.08018	-0.000519907	  -4.06778	-0.000559071	  -4.06561	-0.000521761	  -4.06561	   -13.044	
   -4.1198	-0.000515954	  -4.15175	-0.000549591	  -4.13926	-0.000588541	  -4.13694	-0.000551362	  -4.13694	   -13.784	
  -4.19069	-0.000545592	   -4.2231	-0.000579256	  -4.21046	-0.000618043	  -4.20808	-0.000580964	  -4.20808	  -14.5241	
  -4.26136	-0.00057519	  -4.29434	-0.000608778	  -4.28159	-0.000647554	   -4.2791	-0.000610507	   -4.2791	  -15.2627	
  -4.33182	-0.000604713	  -4.36538	-0.000638265	  -4.35257	-0.000676938	  -4.34992	-0.000639972	  -4.34992	  -15.9993	
  -4.40205	-0.000634161	  -4.43626	-0.000667738	  -4.42319	-0.000706321	   -4.4205	-0.000669407	   -4.4205	  -16.7352	
  -4.47211	-0.000663555	  -4.50707	-0.000697068	  -4.49376	-0.000735674	  -4.49098	-0.000698765	  -4.49098	  -17.4691	
   -4.5421	-0.000692832	  -4.57763	-0.000726306	  -4.56412	-0.000764902	  -4.56128	-0.000728013	  -4.56128	  -18.2003	
  -4.61183	-0.000722032	  -4.64791	-0.000755518	  -4.63432	-0.000794095	  -4.63135	-0.000757215	  -4.63135	  -18.9304	
  -4.68148	-0.000751235	  -4.71813	-0.000784592	  -4.70446	-0.00082324	  -4.70136	-0.000786356	  -4.70136	  -19.6589	
  -4.75101	-0.000780214	  -4.78807	-0.0008135	  -4.77435	-0.000852256	  -4.77114	-0.000815323	  -4.77114	  -20.3831	
  -4.82029	-0.00080914	  -4.85784	-0.000842357	  -4.84394	-0.000881161	  -4.84069	-0.000844219	  -4.84069	  -21.1055	
  -4.88947	-0.000838023	  -4.92748	-0.0008711	  -4.91346	-0.000910029	  -4.91014	-0.000873051	  -4.91014	  -21.8263	
  -4.95848	-0.000866685	  -4.99679	-0.000899648	  -4.98267	-0.000938736	  -4.97931	-0.00090169	  -4.97931	  -22.5422	
  -5.02723	-0.000895302	  -5.06588	-0.000928162	  -5.05177	-0.000967284	  -5.04829	-0.000930249	  -5.04829	  -23.2562	
  -5.09591	-0.000923753	  -5.13482	-0.000956475	  -5.12075	-0.000995806	  -5.11716	-0.000958678	  -5.11716	  -23.9669	
  -5.16438	-0.000952079	  -5.20347	-0.000984575	  -5.18942	-0.00102414	  -5.18576	-0.000986931	  -5.18576	  -24.6733	
  -5.23246	-0.000980242	  -5.27202	-0.00101263	  -5.25785	-0.00105228	  -5.25411	-0.00101505	  -5.25411	  -25.3763	
  -5.30046	-0.00100833	  -5.34038	-0.00104051	  -5.32614	-0.00108035	  -5.32233	-0.00104306	  -5.32233	  -26.0766	
  -5.36824	-0.00103616	  -5.40839	-0.00106816	  -5.39409	-0.00110822	  -5.39024	-0.00107084	  -5.39024	  -26.7711	
  -5.43568	-0.00106384	   -5.4763	-0.00109571	  -5.46191	-0.00113592	  -5.45796	-0.00109849	  -5.45796	  -27.4622	
  -5.50306	-0.0010914	  -5.54401	-0.00112309	  -5.52955	-0.00116353	  -5.52554	-0.00112601	  -5.52554	  -28.1502	
   -5.5702	-0.00111872	  -5.61137	-0.00115022	  -5.59685	-0.00119092	  -5.59281	-0.00115329	  -5.59281	  -28.8322	
  -5.63703	-0.00114589	  -5.67869	-0.00117722	  -5.66395	-0.00121814	  -5.65989	-0.00118042	  -5.65989	  -29.5104	
   -5.7038	-0.00117292	  -5.74578	-0.00120405	  -5.73088	-0.00124521	  -5.72682	-0.00120739	  -5.72682	  -30.1849	
   -5.7703	-0.00119971	  -5.81254	-0.00123065	  -5.79746	-0.00127203	  -5.79343	-0.00123413	  -5.79343	  -30.8533	
   -5.8364	-0.00122633	  -5.87923	-0.00125707	  -5.86386	-0.00129868	  -5.85983	-0.0012607	  -5.85983	  -31.5174	
  -5.90236	-0.00125282	  -5.94567	-0.00128331	  -5.93008	-0.00132517	  -5.92604	-0.0012871	  -5.92604	  -32.1775	
  -5.96807	-0.00127902	  -6.01189	-0.00130931	  -5.99598	-0.00135144	  -5.99198	-0.00131326	  -5.99198	  -32.8314	
  -6.03352	 -0.001305	  -6.07786	-0.00133509	  -6.06171	-0.00137751	   -6.0577	-0.0013392	   -6.0577	  -33.4801	
  -6.09888	-0.00133084	   -6.1436	-0.00136071	  -6.12727	-0.00140335	  -6.12325	-0.00136497	  -6.12325	  -34.1242	
  -6.16399	-0.00135642	  -6.20894	-0.00138604	  -6.19243	-0.00142897	  -6.18846	-0.00139048	  -6.18846	  -34.7619	
  -6.22873	-0.00138178	  -6.27412	-0.00141116	  -6.25737	-0.00145435	   -6.2534	-0.00141576	   -6.2534	  -35.3941	
  -6.29328	-0.00140694	  -6.33908	-0.00143609	  -6.32215	-0.00147948	  -6.31817	-0.00144084	  -6.31817	  -36.0209	
  -6.35763	-0.00143186	  -6.40367	-0.0014608	  -6.38661	-0.00150435	  -6.38264	-0.00146567	  -6.38264	  -36.6417	
  -6.42155	-0.00145655	  -6.46811	-0.00148523	  -6.45077	-0.00152897	  -6.44681	-0.00149025	  -6.44681	  -37.2562	
  -6.48532	-0.00148102	  -6.53237	-0.00150946	  -6.51476	-0.00155334	  -6.51082	-0.00151461	  -6.51082	  -37.8652	
   -6.5489	-0.00150522	  -6.59625	-0.00153342	  -6.57841	-0.00157747	  -6.57452	-0.0015387	  -6.57452	  -38.4676	
  -6.61208	-0.00152921	  -6.65987	-0.00155711	  -6.64184	-0.00160136	  -6.63793	-0.00156256	  -6.63793	   -39.064	
  -6.67497	-0.00155294	  -6.72334	-0.00158059	  -6.70516	-0.0016249	  -6.70116	-0.00158614	  -6.70116	  -39.6536	
  -6.73767	-0.00157641	  -6.78645	-0.0016038	  -6.76818	-0.0016482	   -6.7641	-0.00160947	   -6.7641	  -40.2367	
  -6.80004	-0.00159967	  -6.84934	-0.00162676	  -6.83082	-0.00167118	  -6.82673	-0.00163254	  -6.82673	  -40.8134	
  -6.86198	-0.0016226	  -6.91207	-0.00164944	  -6.89324	-0.00169387	   -6.8891	-0.0016553	   -6.8891	  -41.3826	
  -6.92379	-0.00164522	  -6.97448	-0.00167187	  -6.95541	-0.00171631	  -6.95122	-0.0016778	  -6.95122	   -41.945	
  -6.98533	-0.00166767	  -7.03651	-0.00169404	  -7.01718	-0.00173844	  -7.01301	-0.00170005	  -7.01301	  -42.5013	
  -7.04649	-0.00168982	  -7.09837	-0.00171593	   -7.0787	-0.00176028	  -7.07452	-0.00172201	  -7.07452	  -43.0502	
  -7.10754	-0.00171167	  -7.15996	-0.00173757	  -7.14004	-0.00178183	  -7.13585	-0.00174369	  -7.13585	  -43.5923	
  -7.16836	-0.00173331	  -7.22115	-0.00175894	    -7.201	-0.00180307	  -7.19684	-0.00176511	  -7.19684	  -44.1277	
  -7.22879	-0.00175469	  -7.28203	-0.00178003	  -7.26159	-0.00182401	  -7.25747	-0.00178624	  -7.25747	  -44.6561	
  -7.28892	-0.00177577	   -7.3427	-0.00180087	  -7.32206	-0.00184465	   -7.3179	-0.0018071	   -7.3179	  -45.1774	
  -7.34888	-0.00179659	  -7.40305	-0.00182143	  -7.38226	-0.00186499	  -7.37806	-0.00182767	  -7.37806	  -45.6917	
  -7.40852	-0.00181717	  -7.46286	-0.0018417	    -7.442	-0.00188506	  -7.43779	-0.00184798	  -7.43779	  -46.1994	
  -7.46772	-0.00183743	  -7.52261	-0.00186167	  -7.50146	-0.0019048	  -7.49726	-0.00186797	  -7.49726	  -46.6993	
  -7.52672	-0.00185745	    -7.582	-0.00188149	   -7.5607	-0.00192423	  -7.55647	-0.00188772	  -7.55647	  -47.1931	
   -7.5855	-0.00187719	    -7.641	-0.00190093	  -7.61954	-0.00194336	  -7.61535	-0.00190716	  -7.61535	   -47.679	
  -7.64391	-0.00189669	  -7.69965	-0.00192009	  -7.67804	-0.0019622	  -7.67387	-0.00192633	  -7.67387	  -48.1582	
  -7.70205	-0.00191587	  -7.75809	-0.00193907	  -7.73632	-0.00198074	  -7.73215	-0.00194523	  -7.73215	  -48.6307	
  -7.76006	-0.00193478	  -7.81618	-0.0019577	  -7.79431	-0.00199898	  -7.79018	-0.00196382	  -7.79018	  -49.0955	
  -7.81775	-0.00195342	  -7.87379	-0.00197604	  -7.85183	-0.00201694	  -7.84779	-0.00198213	  -7.84779	  -49.5533	
  -7.87507	-0.00197176	  -7.93111	-0.00199414	  -7.90881	-0.00203464	    -7.905	-0.00200018	    -7.905	  -50.0045	
  -7.93216	-0.00198983	  -7.98819	-0.00201194	  -7.96575	-0.00205193	  -7.96204	-0.0020179	  -7.96204	  -50.4474	
  -7.98906	-0.00200764	  -8.04489	-0.00202942	  -8.02224	-0.00206907	  -8.01873	-0.00203537	  -8.01873	  -50.8843	
  -8.04557	-0.00202512	  -8.10126	-0.00204675	  -8.07833	-0.00208583	  -8.07505	-0.00205257	  -8.07505	  -51.3142	
  -8.10164	-0.00204234	  -8.15745	-0.00206363	  -8.13418	-0.00210231	  -8.13109	-0.00206942	  -8.13109	  -51.7356	
   -8.1575	-0.00205935	  -8.21336	-0.00208025	  -8.18983	-0.00211862	  -8.18689	-0.00208607	  -8.18689	  -52.1518	
  -8.21306	-0.00207598	  -8.26884	-0.00209676	   -8.2451	-0.00213457	  -8.24233	-0.00210244	  -8.24233	  -52.5609	
  -8.26821	-0.00209241	  -8.32393	-0.00211279	  -8.29995	-0.00215026	  -8.29736	-0.00211848	  -8.29736	  -52.9621	
  -8.32284	-0.00210859	  -8.37885	-0.00212853	  -8.35451	-0.00216574	  -8.35207	-0.00213429	  -8.35207	  -53.3572	
  -8.37725	-0.00212439	  -8.43345	-0.00214412	  -8.40885	-0.00218089	  -8.40652	-0.0021498	  -8.40652	  -53.7451	
   -8.4314	-0.00213994	  -8.48759	-0.00215931	   -8.4628	-0.00219578	   -8.4606	-0.00216501	   -8.4606	  -54.1252	
  -8.48515	-0.0021553	  -8.54145	-0.00217421	  -8.51624	-0.00221046	  -8.51428	-0.00217999	  -8.51428	  -54.4997	
  -8.53843	-0.00217028	  -8.59513	-0.00218894	  -8.56941	-0.00222488	  -8.56766	-0.0021947	  -8.56766	  -54.8675	
  -8.59148	 -0.002185	  -8.64848	-0.00220329	  -8.62237	-0.00223899	  -8.62078	-0.00220909	  -8.62078	  -55.2273	
  -8.64428	-0.00219949	  -8.70138	-0.00221735	  -8.67493	-0.0022529	  -8.67353	-0.00222325	  -8.67353	  -55.5812	
  -8.69666	-0.00221367	  -8.75387	-0.00223122	  -8.72706	-0.00226653	  -8.72586	-0.00223714	  -8.72586	  -55.9284	
  -8.74864	-0.00222762	  -8.80615	-0.00224474	  -8.77899	-0.0022799	  -8.77793	-0.00225075	  -8.77793	  -56.2688	
  -8.80031	-0.00224131	  -8.85813	-0.00225796	  -8.83072	-0.00229306	  -8.82972	-0.00226411	  -8.82972	  -56.6028	
  -8.85176	-0.00225471	  -8.90969	-0.00227104	  -8.88207	-0.00230594	  -8.88117	-0.00227723	  -8.88117	  -56.9307	
  -8.90281	-0.00226784	  -8.96075	-0.00228382	  -8.93293	-0.00231858	  -8.93216	-0.00229008	  -8.93216	   -57.252	
  -8.95332	-0.00228067	   -9.0115	-0.00229624	  -8.98355	 -0.002331	  -8.98279	-0.00230264	  -8.98279	  -57.5659	
  -9.00347	-0.00229336	  -9.06195	-0.00230851	  -9.03398	-0.00234316	  -9.03313	-0.00231501	  -9.03313	  -57.8753	
   -9.0534	-0.00230574	  -9.11199	-0.0023205	  -9.08408	-0.00235508	  -9.08316	-0.00232711	  -9.08316	  -58.1777	
  -9.10276	-0.00231791	  -9.16167	-0.00233215	  -9.13376	-0.00236677	  -9.13273	-0.00233894	  -9.13273	  -58.4735	
  -9.15193	-0.00232974	    -9.211	-0.00234358	  -9.18303	-0.00237819	  -9.18199	-0.0023505	  -9.18199	  -58.7626	
  -9.20063	-0.00234142	  -9.26011	-0.00235483	  -9.23211	-0.00238938	  -9.23095	-0.00236188	  -9.23095	   -59.047	
  -9.24897	-0.00235287	  -9.30886	-0.00236577	   -9.2808	-0.00240042	  -9.27954	-0.00237302	  -9.27954	  -59.3255	
  -9.29695	-0.00236406	  -9.35715	-0.00237643	  -9.32906	-0.00241121	  -9.32772	-0.0023839	  -9.32772	  -59.5975	
  -9.34455	-0.00237512	  -9.40506	-0.00238691	  -9.37713	-0.00242172	  -9.37558	-0.00239458	  -9.37558	  -59.8645	
  -9.39166	-0.0023859	  -9.45273	-0.00239715	  -9.42483	-0.00243208	  -9.42307	-0.00240504	  -9.42307	  -60.1261	
  -9.43844	-0.00239644	  -9.50012	-0.00240719	  -9.47212	-0.00244216	  -9.47023	-0.00241526	  -9.47023	  -60.3816	
  -9.48501	-0.00240685	   -9.5471	-0.00241698	  -9.51908	-0.00245202	  -9.51706	-0.00242528	  -9.51706	  -60.6321	
   -9.5313	-0.00241701	   -9.5936	-0.00242658	  -9.56558	-0.00246174	  -9.56349	-0.00243511	  -9.56349	  -60.8777	
  -9.57717	-0.00242695	  -9.63969	-0.00243595	   -9.6116	-0.00247124	  -9.60949	-0.00244471	  -9.60949	  -61.1178	
  -9.62252	-0.00243677	  -9.68548	-0.0024451	  -9.65726	-0.00248049	  -9.65508	-0.00245412	  -9.65508	   -61.353	
  -9.66741	-0.00244633	  -9.73095	-0.00245406	   -9.7027	-0.00248955	  -9.70035	-0.00246332	  -9.70035	  -61.5829	
  -9.71203	-0.00245566	    -9.776	-0.00246279	  -9.74779	-0.00249849	  -9.74527	-0.00247231	  -9.74527	  -61.8079	
  -9.75637	-0.00246486	  -9.82059	-0.00247133	  -9.79242	-0.00250715	   -9.7898	-0.00248111	   -9.7898	  -62.0279	
  -9.80032	-0.00247385	  -9.86472	-0.00247967	  -9.83648	-0.00251562	  -9.83384	-0.00248971	  -9.83384	  -62.2428	
  -9.84373	-0.00248263	  -9.90861	-0.00248784	  -9.88018	-0.00252394	  -9.87751	-0.00249814	  -9.87751	  -62.4534	
  -9.88668	-0.00249127	  -9.95222	-0.00249581	  -9.92366	-0.00253206	  -9.92085	-0.00250638	  -9.92085	  -62.6595	
  -9.92929	-0.00249972	  -9.99522	-0.0025036	  -9.96678	  -0.00254	  -9.96376	-0.00251444	  -9.96376	   -62.861	
  -9.97165	-0.00250796	  -10.0382	-0.00251121	  -10.0095	-0.00254776	  -10.0064	-0.00252231	  -10.0064	  -63.0578	
  -10.0137	-0.00251605	  -10.0806	-0.00251868	  -10.0517	-0.00255535	  -10.0486	-0.00253003	  -10.0486	  -63.2507	
  -10.0552	-0.00252403	  -10.1227	-0.00252588	  -10.0934	-0.00256275	  -10.0904	-0.00253755	  -10.0904	  -63.4389	
  -10.0963	-0.00253175	  -10.1644	-0.00253301	  -10.1348	-0.00257002	  -10.1318	-0.00254493	  -10.1318	  -63.6232	
  -10.1368	-0.0025393	  -10.2058	-0.00253996	  -10.1758	-0.00257711	  -10.1728	-0.00255212	  -10.1728	  -63.8031	
  -10.1771	-0.00254674	  -10.2467	-0.00254669	  -10.2162	 -0.002584	  -10.2134	-0.00255915	  -10.2134	  -63.9786	
   -10.217	-0.00255397	  -10.2872	-0.00255334	  -10.2565	-0.00259081	  -10.2535	-0.00256604	  -10.2535	   -64.151	
  -10.2564	-0.00256104	  -10.3272	-0.00255979	  -10.2964	-0.00259749	  -10.2933	-0.00257277	  -10.2933	  -64.3194	
  -10.2957	-0.00256796	  -10.3669	-0.00256603	  -10.3359	-0.00260388	  -10.3328	-0.00257929	  -10.3328	  -64.4822	
  -10.3343	-0.00257475	  -10.4063	-0.00257217	   -10.375	-0.00261023	  -10.3719	-0.00258572	  -10.3719	  -64.6429	
  -10.3725	-0.00258136	  -10.4454	-0.00257815	  -10.4138	-0.00261644	  -10.4106	-0.00259199	  -10.4106	  -64.7996	
  -10.4104	-0.00258777	   -10.484	-0.00258396	  -10.4522	-0.0026224	  -10.4489	-0.00259804	  -10.4489	  -64.9511	
  -10.4478	-0.00259404	  -10.5221	-0.00258966	  -10.4902	-0.00262832	  -10.4867	-0.00260401	  -10.4867	  -65.1001	
  -10.4848	-0.00260017	  -10.5594	-0.00259525	  -10.5276	-0.00263408	   -10.524	-0.00260984	   -10.524	  -65.2459	
  -10.5214	-0.00260614	  -10.5963	-0.00260065	  -10.5645	-0.00263965	  -10.5607	-0.00261548	  -10.5607	  -65.3869	
  -10.5575	-0.00261192	  -10.6328	-0.00260594	  -10.6009	-0.00264514	  -10.5971	 -0.002621	  -10.5971	   -65.525	
   -10.593	-0.00261763	  -10.6691	-0.00261113	  -10.6371	-0.00265051	  -10.6331	-0.00262642	  -10.6331	  -65.6606	
   -10.628	-0.00262317	  -10.7049	-0.00261616	   -10.673	-0.00265568	  -10.6686	-0.00263167	  -10.6686	  -65.7917	
  -10.6628	-0.0026285	  -10.7403	-0.00262107	  -10.7085	-0.00266075	  -10.7038	-0.00263677	  -10.7038	  -65.9194	
  -10.6972	-0.0026338	  -10.7751	-0.00262587	  -10.7435	-0.00266574	  -10.7386	-0.0026418	  -10.7386	   -66.045	
  -10.7314	-0.00263891	  -10.8093	-0.00263051	   -10.778	-0.00267056	  -10.7729	-0.00264666	  -10.7729	  -66.1665	
  -10.7651	-0.00264386	  -10.8431	-0.00263507	  -10.8119	-0.00267527	  -10.8067	-0.0026514	  -10.8067	  -66.2851	
  -10.7983	-0.00264874	  -10.8766	-0.00263946	  -10.8452	-0.0026799	    -10.84	-0.00265603	    -10.84	  -66.4008	
  -10.8311	-0.00265347	  -10.9097	-0.0026438	  -10.8781	-0.0026844	   -10.873	-0.00266056	   -10.873	  -66.5139	
  -10.8633	-0.00265806	  -10.9424	-0.00264806	  -10.9107	-0.00268879	  -10.9055	-0.00266497	  -10.9055	  -66.6242	
  -10.8951	-0.00266257	  -10.9747	-0.00265213	  -10.9429	-0.00269307	  -10.9376	-0.00266925	  -10.9376	  -66.7314	
  -10.9268	-0.00266694	  -11.0067	-0.00265603	  -10.9747	-0.00269723	  -10.9694	-0.0026734	  -10.9694	   -66.835	
   -10.958	-0.00267119	  -11.0382	-0.0026599	  -11.0059	-0.00270131	  -11.0007	-0.00267747	  -11.0007	  -66.9367	
   -10.989	-0.00267537	  -11.0691	-0.00266371	  -11.0369	-0.00270536	  -11.0317	-0.00268148	  -11.0317	  -67.0369	
  -11.0195	-0.00267938	  -11.0996	-0.00266739	  -11.0674	-0.00270924	  -11.0622	-0.00268534	  -11.0622	  -67.1334	
  -11.0497	-0.0026833	  -11.1297	-0.00267098	  -11.0976	-0.00271308	  -11.0923	-0.00268912	  -11.0923	   -67.228	
  -11.0794	-0.00268717	  -11.1594	-0.00267449	  -11.1273	-0.0027169	   -11.122	-0.00269285	   -11.122	  -67.3213	
  -11.1085	-0.00269095	  -11.1886	-0.00267785	  -11.1563	-0.00272057	  -11.1511	-0.00269645	  -11.1511	  -67.4113	
  -11.1372	-0.00269459	  -11.2173	-0.00268116	  -11.1851	-0.00272412	  -11.1799	-0.00269996	  -11.1799	  -67.4989	
  -11.1655	-0.00269816	  -11.2457	-0.0026844	  -11.2132	-0.00272771	  -11.2081	-0.00270342	  -11.2081	  -67.5856	
  -11.1933	-0.00270168	  -11.2736	-0.00268752	  -11.2409	-0.00273119	  -11.2359	-0.0027068	  -11.2359	  -67.6699	
  -11.2207	-0.00270509	   -11.301	-0.00269059	  -11.2682	-0.00273451	  -11.2633	-0.00271006	  -11.2633	  -67.7516	
  -11.2478	-0.00270847	  -11.3279	-0.00269359	  -11.2949	-0.00273791	  -11.2902	-0.00271332	  -11.2902	  -67.8331	
  -11.2745	-0.00271173	  -11.3541	-0.00269648	  -11.3212	-0.00274119	  -11.3166	-0.00271647	  -11.3166	  -67.9117	
  -11.3008	-0.00271498	  -11.3798	-0.00269932	  -11.3469	-0.00274432	  -11.3425	-0.00271954	  -11.3425	  -67.9886	
  -11.3267	-0.00271814	   -11.405	-0.00270211	   -11.372	-0.0027475	  -11.3679	-0.00272258	  -11.3679	  -68.0645	
   -11.352	-0.00272118	  -11.4299	-0.0027048	  -11.3966	-0.00275057	  -11.3928	-0.00272552	  -11.3928	  -68.1379	
  -11.3768	-0.00272422	  -11.4545	-0.00270743	  -11.4207	-0.00275351	  -11.4173	-0.00272839	  -11.4173	  -68.2097	
  -11.4009	-0.00272724	  -11.4788	-0.00270999	  -11.4444	-0.00275646	  -11.4414	-0.00273123	  -11.4414	  -68.2808	
  -11.4245	-0.00273007	  -11.5028	-0.00271248	  -11.4678	-0.00275931	   -11.465	-0.00273396	   -11.465	  -68.3489	
  -11.4474	-0.00273291	  -11.5265	-0.00271492	  -11.4908	-0.0027621	  -11.4882	-0.00273664	  -11.4882	  -68.4161	
  -11.4698	-0.00273569	  -11.5498	-0.00271731	  -11.5135	-0.00276487	   -11.511	-0.00273929	   -11.511	  -68.4823	
  -11.4919	-0.00273836	  -11.5725	-0.00271961	  -11.5359	-0.00276752	  -11.5334	-0.00274183	  -11.5334	  -68.5457	
  -11.5135	-0.00274102	  -11.5948	-0.00272185	   -11.558	-0.00277015	  -11.5554	-0.00274434	  -11.5554	  -68.6085	
  -11.5348	-0.00274364	  -11.6165	-0.00272408	  -11.5796	-0.00277274	   -11.577	-0.00274682	   -11.577	  -68.6705	
  -11.5557	-0.00274616	  -11.6377	-0.00272624	  -11.6008	-0.00277522	  -11.5981	-0.00274921	  -11.5981	  -68.7302	
  -11.5762	-0.00274865	  -11.6583	-0.00272839	  -11.6215	-0.00277772	  -11.6187	-0.00275159	  -11.6187	  -68.7898	
  -11.5963	-0.00275111	  -11.6783	-0.00273045	  -11.6417	-0.00278015	  -11.6388	-0.0027539	  -11.6388	  -68.8476	
  -11.6161	-0.00275346	  -11.6978	-0.00273246	  -11.6613	-0.00278251	  -11.6584	-0.00275614	  -11.6584	  -68.9036	
  -11.6355	-0.00275576	  -11.7167	-0.00273445	  -11.6803	-0.0027849	  -11.6775	-0.00275837	  -11.6775	  -68.9593	
  -11.6545	-0.00275802	   -11.735	-0.00273638	  -11.6988	-0.00278717	  -11.6961	-0.00276053	  -11.6961	  -69.0131	
   -11.673	-0.00276028	  -11.7528	-0.00273828	  -11.7167	-0.00278944	  -11.7142	-0.00276267	  -11.7142	  -69.0667	
   -11.691	-0.00276248	  -11.7701	-0.00274016	   -11.734	-0.00279166	  -11.7317	-0.00276477	  -11.7317	  -69.1192	
  -11.7085	-0.0027646	   -11.787	-0.00274199	  -11.7507	-0.0027938	  -11.7487	-0.0027668	  -11.7487	  -69.1699	
  -11.7255	-0.00276672	  -11.8034	-0.00274376	  -11.7669	-0.00279594	  -11.7653	-0.00276881	  -11.7653	  -69.2201	
  -11.7419	-0.00276878	  -11.8195	-0.00274552	  -11.7826	-0.00279805	  -11.7814	-0.00277078	  -11.7814	  -69.2695	
  -11.7578	-0.00277075	  -11.8351	-0.00274723	  -11.7978	-0.00280008	  -11.7969	-0.00277269	  -11.7969	  -69.3172	
  -11.7731	-0.00277272	  -11.8503	-0.00274889	  -11.8125	-0.00280213	   -11.812	-0.00277458	   -11.812	  -69.3645	
  -11.7879	-0.00277466	  -11.8652	-0.00275053	  -11.8268	-0.00280414	  -11.8266	-0.00277644	  -11.8266	  -69.4111	
   -11.802	-0.0027765	  -11.8798	-0.00275212	  -11.8406	-0.00280607	  -11.8408	-0.00277823	  -11.8408	  -69.4558	
  -11.8156	-0.00277833	   -11.894	-0.00275361	  -11.8539	-0.00280801	  -11.8545	-0.00277998	  -11.8545	  -69.4995	
  -11.8287	-0.00278016	  -11.9079	-0.00275511	  -11.8669	-0.00280992	  -11.8678	-0.00278173	  -11.8678	  -69.5432	
  -11.8412	-0.00278189	  -11.9214	-0.00275658	  -11.8796	-0.00281176	  -11.8807	-0.00278341	  -11.8807	  -69.5852	
  -11.8532	-0.00278356	  -11.9345	-0.00275793	  -11.8918	-0.00281359	  -11.8932	-0.00278503	  -11.8932	  -69.6257	
  -11.8646	-0.00278524	  -11.9474	-0.00275928	  -11.9037	-0.00281539	  -11.9052	-0.00278664	  -11.9052	  -69.6659	
  -11.8755	-0.00278684	  -11.9598	-0.0027606	  -11.9152	-0.00281714	  -11.9168	-0.00278819	  -11.9168	  -69.7047	
   -11.886	-0.00278838	  -11.9718	-0.00276181	  -11.9264	-0.00281885	  -11.9281	-0.00278968	  -11.9281	   -69.742	
   -11.896	-0.00278991	  -11.9834	-0.00276302	  -11.9373	-0.00282055	  -11.9389	-0.00279116	  -11.9389	   -69.779	
  -11.9058	-0.00279139	  -11.9946	-0.00276415	  -11.9479	-0.00282216	  -11.9494	-0.00279257	  -11.9494	  -69.8143	
  -11.9151	-0.00279281	  -12.0054	-0.00276514	   -11.958	-0.00282375	  -11.9595	-0.0027939	  -11.9595	  -69.8475	
  -11.9239	-0.00279422	  -12.0157	-0.00276623	  -11.9677	-0.00282529	  -11.9691	-0.00279525	  -11.9691	  -69.8811	
  -11.9322	-0.00279558	  -12.0256	-0.00276722	  -11.9769	-0.0028268	  -11.9782	-0.00279653	  -11.9782	  -69.9133	
    -11.94	-0.00279683	  -12.0351	-0.00276806	  -11.9856	-0.00282822	  -11.9869	-0.00279771	  -11.9869	  -69.9426	
  -11.9472	-0.00279812	  -12.0441	-0.00276897	  -11.9937	-0.00282963	   -11.995	-0.00279891	   -11.995	  -69.9726	
  -11.9539	-0.00279946	  -12.0525	-0.00276983	  -12.0014	-0.00283102	  -12.0026	-0.0028001	  -12.0026	  -70.0026	
  -11.9601	-0.00280068	  -12.0606	-0.00277059	  -12.0085	-0.00283231	  -12.0097	-0.00280119	  -12.0097	  -70.0298	
  -11.9659	-0.00280188	  -12.0682	-0.00277139	   -12.015	-0.00283356	  -12.0164	-0.00280228	  -12.0164	  -70.0569	
  -11.9712	-0.00280311	  -12.0754	-0.00277216	   -12.021	-0.00283482	  -12.0225	-0.00280337	  -12.0225	  -70.0841	
  -11.9761	-0.00280424	   -12.082	-0.00277283	  -12.0263	-0.00283599	  -12.0281	-0.00280435	  -12.0281	  -70.1089	
  -11.9805	-0.00280533	  -12.0882	-0.00277356	  -12.0311	-0.00283711	  -12.0333	-0.00280533	  -12.0333	  -70.1333	
  -11.9846	-0.00280645	  -12.0936	-0.00277422	  -12.0354	-0.00283822	  -12.0378	-0.00280629	  -12.0378	  -70.1573	
  -11.9882	-0.00280754	  -12.0984	-0.00277483	   -12.039	-0.0028393	  -12.0419	-0.00280722	  -12.0419	  -70.1806	
  -11.9915	-0.00280854	  -12.1025	-0.00277546	  -12.0421	-0.00284026	  -12.0454	-0.00280809	  -12.0454	  -70.2022	
  -11.9945	-0.00280955	   -12.106	-0.00277603	  -12.0446	-0.00284121	  -12.0484	-0.00280893	  -12.0484	  -70.2232	
  -11.9971	-0.00281054	  -12.1089	-0.00277654	  -12.0467	-0.00284212	  -12.0509	-0.00280973	  -12.0509	  -70.2434	
  -11.9994	-0.00281145	  -12.1112	-0.0027771	  -12.0483	-0.00284294	  -12.0529	-0.00281049	  -12.0529	  -70.2623	
  -12.0014	-0.00281237	  -12.1128	-0.00277758	  -12.0494	-0.00284372	  -12.0545	-0.00281123	  -12.0545	  -70.2806	
  -12.0031	-0.00281322	  -12.1138	-0.00277799	  -12.0501	-0.00284447	  -12.0557	-0.00281189	  -12.0557	  -70.2973	
  -12.0045	-0.00281405	  -12.1147	-0.00277836	  -12.0505	-0.00284514	  -12.0566	-0.00281252	  -12.0566	   -70.313	
  -12.0055	-0.00281488	  -12.1149	-0.00277881	  -12.0506	-0.00284577	   -12.057	-0.00281315	   -12.057	  -70.3288	
   -12.006	-0.00281564	  -12.1146	-0.00277912	  -12.0503	-0.00284637	   -12.057	-0.00281371	   -12.057	  -70.3427	
   -12.006	-0.0028164	  -12.1138	-0.00277942	  -12.0497	-0.00284689	  -12.0565	-0.00281424	  -12.0565	  -70.3559	
  -12.0054	-0.00281716	  -12.1126	-0.00277974	  -12.0489	-0.00284737	  -12.0556	-0.00281475	  -12.0556	  -70.3689	
  -12.0042	-0.00281782	  -12.1109	-0.00278006	  -12.0477	-0.00284776	  -12.0543	-0.00281521	  -12.0543	  -70.3804	
  -12.0024	-0.00281851	  -12.1089	-0.00278029	  -12.0463	-0.00284812	  -12.0525	-0.00281564	  -12.0525	   -70.391	
  -11.9999	-0.00281912	  -12.1065	-0.00278056	  -12.0441	-0.00284844	  -12.0502	-0.00281604	  -12.0502	  -70.4009	
   -11.997	-0.00281968	  -12.1036	-0.00278082	  -12.0417	-0.00284864	  -12.0474	-0.00281638	  -12.0474	  -70.4095	
  -11.9935	-0.00282027	  -12.1002	-0.00278098	  -12.0386	-0.00284892	  -12.0441	-0.00281672	  -12.0441	  -70.4181	
  -11.9896	-0.00282073	  -12.0963	-0.00278123	   -12.035	-0.00284907	  -12.0403	-0.00281701	  -12.0403	  -70.4253	
  -11.9854	-0.00282111	  -12.0918	-0.00278144	  -12.0308	-0.00284914	   -12.036	-0.00281723	   -12.036	  -70.4308	
  -11.9807	-0.00282158	  -12.0867	-0.00278155	  -12.0261	-0.00284926	  -12.0312	-0.00281746	  -12.0312	  -70.4366	
  -11.9758	-0.0028219	  -12.0809	-0.00278176	  -12.0209	-0.00284928	  -12.0259	-0.00281765	  -12.0259	  -70.4412	
  -11.9705	-0.00282217	  -12.0745	-0.00278195	  -12.0153	-0.00284921	  -12.0201	-0.00281777	  -12.0201	  -70.4444	
  -11.9647	-0.00282248	  -12.0677	-0.00278206	  -12.0093	-0.00284918	  -12.0139	-0.00281791	  -12.0139	  -70.4477	
  -11.9584	-0.00282263	  -12.0605	-0.00278222	   -12.003	-0.0028491	  -12.0073	-0.00281798	  -12.0073	  -70.4496	
  -11.9515	-0.00282276	  -12.0529	-0.00278236	  -11.9963	-0.00284878	  -12.0002	-0.00281797	  -12.0002	  -70.4492	
  -11.9439	-0.00282292	  -12.0449	-0.00278245	  -11.9892	-0.00284864	  -11.9926	 -0.002818	  -11.9926	  -70.4501	
  -11.9358	-0.00282296	  -12.0364	-0.00278257	  -11.9815	-0.00284845	  -11.9845	-0.00281799	  -11.9845	  -70.4498	
  -11.9272	-0.00282284	  -12.0274	-0.00278269	  -11.9731	-0.00284806	  -11.9759	-0.00281787	  -11.9759	  -70.4467	
  -11.9181	-0.00282284	  -12.0179	-0.00278275	  -11.9641	-0.00284775	  -11.9667	-0.00281778	  -11.9667	  -70.4445	
  -11.9088	-0.0028228	  -12.0078	-0.00278281	  -11.9546	-0.00284738	  -11.9571	-0.00281767	  -11.9571	  -70.4417	
  -11.8991	-0.00282257	  -11.9972	-0.00278288	  -11.9446	-0.00284687	   -11.947	-0.00281744	   -11.947	   -70.436	
   -11.889	-0.00282241	  -11.9861	-0.00278286	  -11.9342	-0.00284641	  -11.9365	-0.00281723	  -11.9365	  -70.4306	
  -11.8785	-0.00282221	  -11.9745	-0.00278288	  -11.9235	-0.00284592	  -11.9255	 -0.002817	  -11.9255	   -70.425	
  -11.8673	-0.00282186	  -11.9623	-0.00278295	  -11.9124	-0.0028453	   -11.914	-0.0028167	   -11.914	  -70.4175	
  -11.8554	-0.00282152	  -11.9497	-0.00278283	  -11.9009	-0.0028447	   -11.902	-0.00281635	   -11.902	  -70.4087	
   -11.843	-0.00282117	  -11.9367	-0.00278276	  -11.8886	-0.00284407	  -11.8894	 -0.002816	  -11.8894	     -70.4	
  -11.8302	-0.00282066	  -11.9232	-0.00278267	  -11.8757	-0.00284339	  -11.8764	-0.00281557	  -11.8764	  -70.3893	
  -11.8169	-0.00282018	  -11.9092	-0.00278246	  -11.8623	-0.00284265	  -11.8628	-0.0028151	  -11.8628	  -70.3774	
  -11.8034	-0.00281971	  -11.8946	-0.00278231	  -11.8484	-0.00284193	  -11.8488	-0.00281465	  -11.8488	  -70.3662	
  -11.7895	-0.00281911	  -11.8796	-0.00278211	  -11.8342	-0.00284116	  -11.8344	-0.00281413	  -11.8344	  -70.3531	
  -11.7749	-0.00281845	  -11.8642	-0.00278179	  -11.8194	-0.00284035	  -11.8195	-0.00281353	  -11.8195	  -70.3383	
  -11.7597	-0.0028178	  -11.8486	-0.00278152	  -11.8042	-0.00283948	  -11.8041	-0.00281293	  -11.8041	  -70.3233	
  -11.7439	-0.00281717	  -11.8325	-0.00278124	  -11.7885	-0.00283857	  -11.7883	-0.00281233	  -11.7883	  -70.3081	
  -11.7277	-0.00281637	  -11.8161	-0.00278077	  -11.7724	-0.00283766	   -11.772	-0.0028116	   -11.772	    -70.29	
   -11.711	-0.00281563	   -11.799	-0.00278037	  -11.7558	-0.00283667	  -11.7553	-0.00281089	  -11.7553	  -70.2722	
  -11.6939	-0.00281486	  -11.7813	-0.00277996	  -11.7387	-0.00283568	   -11.738	-0.00281017	   -11.738	  -70.2541	
  -11.6762	-0.00281396	  -11.7632	-0.00277937	  -11.7213	-0.00283464	  -11.7202	-0.00280932	  -11.7202	  -70.2331	
  -11.6579	-0.00281313	  -11.7448	-0.00277882	  -11.7036	-0.00283353	  -11.7021	-0.00280849	  -11.7021	  -70.2124	
  -11.6391	-0.00281228	   -11.726	-0.00277816	  -11.6854	-0.0028324	  -11.6835	-0.00280762	  -11.6835	  -70.1904	
  -11.6199	-0.00281131	  -11.7067	-0.00277751	  -11.6665	-0.00283119	  -11.6644	-0.00280667	  -11.6644	  -70.1667	
  -11.6002	-0.00281036	  -11.6869	-0.00277679	  -11.6471	-0.00282988	  -11.6447	-0.00280568	  -11.6447	   -70.142	
  -11.5802	-0.00280945	  -11.6666	-0.00277601	  -11.6271	-0.00282856	  -11.6246	-0.00280467	  -11.6246	  -70.1168	
  -11.5599	-0.00280847	  -11.6457	-0.0027752	  -11.6068	-0.00282718	  -11.6041	-0.00280362	  -11.6041	  -70.0904	
  -11.5388	-0.00280749	  -11.6245	-0.00277432	  -11.5862	-0.00282575	  -11.5832	-0.00280252	  -11.5832	   -70.063	
  -11.5177	-0.00280639	  -11.6031	-0.00277339	  -11.5651	-0.00282427	   -11.562	-0.00280135	   -11.562	  -70.0337	
  -11.4961	-0.00280527	  -11.5811	-0.00277242	  -11.5435	-0.00282272	  -11.5402	-0.00280014	  -11.5402	  -70.0034	
   -11.474	-0.00280418	  -11.5587	-0.00277142	  -11.5212	-0.0028211	   -11.518	-0.0027989	   -11.518	  -69.9725	
  -11.4517	-0.00280295	  -11.5356	-0.00277032	  -11.4986	-0.00281951	  -11.4953	-0.00279759	  -11.4953	  -69.9399	
  -11.4289	-0.00280173	  -11.5122	-0.0027692	  -11.4755	-0.00281775	  -11.4722	-0.00279622	  -11.4722	  -69.9056	
  -11.4054	-0.00280048	  -11.4884	-0.00276807	  -11.4522	-0.00281607	  -11.4487	-0.00279487	  -11.4487	  -69.8718	
  -11.3814	-0.00279915	  -11.4641	-0.00276688	  -11.4284	-0.00281437	  -11.4246	-0.00279347	  -11.4246	  -69.8367	
   -11.357	-0.00279781	  -11.4394	-0.00276564	  -11.4039	-0.00281263	  -11.4001	-0.00279202	  -11.4001	  -69.8006	
  -11.3323	-0.00279645	  -11.4138	-0.0027644	  -11.3792	-0.0028108	  -11.3751	-0.00279055	  -11.3751	  -69.7638	
  -11.3071	 -0.002795	  -11.3882	-0.00276303	  -11.3538	-0.00280897	  -11.3497	 -0.002789	  -11.3497	   -69.725	
  -11.2813	-0.00279354	   -11.362	-0.0027617	  -11.3282	-0.0028071	  -11.3238	-0.00278745	  -11.3238	  -69.6862	
  -11.2549	-0.00279205	  -11.3353	-0.00276029	   -11.302	-0.00280521	  -11.2974	-0.00278585	  -11.2974	  -69.6463	
  -11.2281	-0.00279049	  -11.3082	-0.00275879	  -11.2752	-0.00280325	  -11.2705	-0.00278418	  -11.2705	  -69.6044	
  -11.2008	-0.00278891	  -11.2805	-0.00275732	   -11.248	-0.00280131	  -11.2431	-0.00278251	  -11.2431	  -69.5628	
  -11.1734	-0.00278734	  -11.2524	-0.00275575	  -11.2203	-0.0027993	  -11.2154	-0.0027808	  -11.2154	    -69.52	
  -11.1454	-0.00278571	   -11.224	-0.0027541	  -11.1924	-0.00279724	  -11.1873	-0.00277902	  -11.1873	  -69.4754	
  -11.1169	-0.00278409	  -11.1953	-0.00275246	  -11.1641	-0.0027952	  -11.1588	-0.00277725	  -11.1588	  -69.4312	
  -11.0879	-0.00278243	  -11.1661	-0.00275074	  -11.1352	-0.00279307	  -11.1298	-0.00277541	  -11.1298	  -69.3853	
  -11.0586	-0.0027807	  -11.1364	-0.00274888	  -11.1058	-0.00279089	  -11.1003	-0.00277349	  -11.1003	  -69.3372	
  -11.0287	-0.00277891	  -11.1063	-0.00274706	  -11.0761	-0.00278872	  -11.0704	-0.00277157	  -11.0704	  -69.2891	
  -10.9985	-0.00277716	   -11.076	-0.00274521	  -11.0461	-0.00278648	  -11.0402	-0.00276961	  -11.0402	  -69.2404	
  -10.9677	-0.0027753	  -11.0452	-0.00274325	  -11.0156	-0.00278418	  -11.0095	-0.00276758	  -11.0095	  -69.1894	
  -10.9366	-0.00277336	  -11.0139	-0.00274125	  -10.9845	-0.00278189	  -10.9783	-0.0027655	  -10.9783	  -69.1375	
   -10.905	-0.00277147	  -10.9821	-0.00273919	   -10.953	-0.00277954	  -10.9467	-0.0027634	  -10.9467	  -69.0851	
   -10.873	-0.00276952	    -10.95	-0.0027371	  -10.9212	-0.00277714	  -10.9147	-0.00276125	  -10.9147	  -69.0314	
  -10.8405	-0.00276745	  -10.9175	-0.00273495	  -10.8889	-0.00277475	  -10.8823	-0.00275905	  -10.8823	  -68.9763	
  -10.8077	-0.00276541	  -10.8846	-0.00273275	   -10.856	-0.00277229	  -10.8495	-0.00275681	  -10.8495	  -68.9203	
  -10.7744	-0.00276333	  -10.8513	-0.0027305	  -10.8227	-0.00276984	  -10.8162	-0.00275456	  -10.8162	  -68.8639	
  -10.7408	-0.00276115	  -10.8176	-0.00272819	  -10.7891	-0.0027674	  -10.7825	-0.00275225	  -10.7825	  -68.8062	
  -10.7066	-0.00275898	  -10.7835	-0.00272584	   -10.755	-0.00276486	  -10.7483	-0.00274989	  -10.7483	  -68.7474	
   -10.672	-0.00275679	  -10.7489	-0.00272344	  -10.7203	-0.00276228	  -10.7137	-0.00274751	  -10.7137	  -68.6876	
   -10.637	-0.00275448	  -10.7138	 -0.002721	  -10.6853	-0.00275972	  -10.6787	-0.00274507	  -10.6787	  -68.6267	
  -10.6018	-0.00275215	  -10.6782	-0.00271852	  -10.6499	-0.00275706	  -10.6433	-0.00274258	  -10.6433	  -68.5644	
  -10.5661	-0.0027498	  -10.6423	-0.00271599	  -10.6142	-0.00275436	  -10.6075	-0.00274005	  -10.6075	  -68.5012	
  -10.5299	-0.00274739	   -10.606	-0.00271337	  -10.5781	-0.00275169	  -10.5713	-0.00273749	  -10.5713	  -68.4371	
  -10.4934	-0.00274484	  -10.5694	-0.00271079	  -10.5414	-0.00274893	  -10.5347	-0.00273485	  -10.5347	  -68.3713	
  -10.4566	-0.00274241	  -10.5323	-0.00270807	  -10.5043	-0.00274606	  -10.4977	-0.00273218	  -10.4977	  -68.3045	
  -10.4194	-0.00273982	  -10.4948	-0.00270531	  -10.4669	-0.0027432	  -10.4604	-0.00272944	  -10.4604	  -68.2361	
  -10.3817	-0.00273708	  -10.4568	-0.00270261	  -10.4288	-0.00274028	  -10.4225	-0.00272666	  -10.4225	  -68.1664	
  -10.3437	-0.00273444	  -10.4185	-0.00269979	  -10.3904	-0.00273727	  -10.3842	-0.00272383	  -10.3842	  -68.0959	
  -10.3054	-0.00273168	  -10.3797	-0.00269692	  -10.3516	-0.00273425	  -10.3456	-0.00272095	  -10.3456	  -68.0237	
  -10.2664	-0.00272875	  -10.3405	-0.00269408	  -10.3125	-0.00273121	  -10.3065	-0.00271801	  -10.3065	  -67.9503	
  -10.2271	-0.00272588	  -10.3009	-0.00269115	  -10.2729	-0.00272808	   -10.267	-0.00271504	   -10.267	  -67.8759	
  -10.1875	-0.00272291	  -10.2608	-0.00268815	  -10.2329	-0.00272494	   -10.227	 -0.002712	   -10.227	     -67.8	
  -10.1474	-0.00271976	  -10.2203	-0.0026852	  -10.1927	-0.00272178	  -10.1868	-0.00270891	  -10.1868	  -67.7228	
  -10.1069	-0.00271664	  -10.1796	-0.00268215	   -10.152	-0.00271853	  -10.1462	-0.00270577	  -10.1462	  -67.6443	
  -10.0659	-0.00271346	  -10.1385	-0.00267902	  -10.1107	-0.00271524	   -10.105	-0.00270257	   -10.105	  -67.5643	
  -10.0247	-0.00271016	  -10.0968	-0.00267593	  -10.0691	-0.00271192	  -10.0636	-0.00269934	  -10.0636	  -67.4834	
  -9.98311	-0.00270686	  -10.0549	-0.00267277	  -10.0272	-0.00270853	  -10.0217	-0.00269605	  -10.0217	  -67.4013	
  -9.94101	-0.0027035	  -10.0126	-0.00266952	  -9.98489	-0.00270511	  -9.97949	-0.00269271	  -9.97949	  -67.3177	
   -9.8986	-0.00270003	  -9.96977	-0.00266626	  -9.94208	-0.00270168	  -9.93682	-0.00268932	  -9.93682	  -67.2331	
  -9.85595	-0.00269658	   -9.9266	-0.00266299	  -9.89899	-0.00269806	  -9.89385	-0.00268588	  -9.89385	  -67.1469	
  -9.81278	-0.00269307	  -9.88317	-0.00265964	   -9.8557	-0.00269456	  -9.85055	-0.00268242	  -9.85055	  -67.0605	
   -9.7692	-0.00268934	  -9.83927	-0.00265626	  -9.81191	 -0.002691	  -9.80679	-0.00267887	  -9.80679	  -66.9717	
   -9.7254	-0.00268575	  -9.79491	-0.00265287	  -9.76774	-0.00268735	  -9.76268	-0.00267533	  -9.76268	  -66.8831	
  -9.68119	-0.00268205	  -9.75028	-0.00264942	  -9.72327	-0.00268368	  -9.71825	-0.00267171	  -9.71825	  -66.7929	
  -9.63649	-0.00267817	  -9.70533	-0.00264594	  -9.67831	-0.00267999	  -9.67337	-0.00266803	  -9.67337	  -66.7008	
  -9.59146	-0.00267439	  -9.65982	-0.00264241	  -9.63287	-0.00267623	  -9.62805	-0.00266434	  -9.62805	  -66.6086	
  -9.54619	-0.00267049	  -9.61398	-0.00263882	  -9.58718	-0.00267245	  -9.58245	-0.00266058	  -9.58245	  -66.5146	
   -9.5004	-0.00266646	  -9.56792	-0.00263524	  -9.54107	-0.00266866	  -9.53646	-0.00265679	  -9.53646	  -66.4197	
  -9.45422	-0.00266246	  -9.52133	-0.00263167	  -9.49445	-0.00266476	     -9.49	-0.00265296	     -9.49	  -66.3241	
  -9.40779	-0.00265838	  -9.47434	-0.00262795	   -9.4475	-0.00266082	  -9.44321	-0.00264905	  -9.44321	  -66.2263	
  -9.36092	-0.00265419	  -9.42712	-0.00262425	  -9.40022	-0.00265685	  -9.39609	-0.0026451	  -9.39609	  -66.1274	
  -9.31361	-0.00265003	  -9.37944	-0.00262055	  -9.35245	-0.00265282	   -9.3485	-0.00264113	   -9.3485	  -66.0284	
  -9.26606	-0.00264578	  -9.33131	-0.00261674	  -9.30431	-0.0026488	  -9.30056	-0.00263711	  -9.30056	  -65.9277	
  -9.21815	-0.0026415	  -9.28287	-0.00261294	  -9.25592	-0.00264473	  -9.25231	-0.00263306	  -9.25231	  -65.8265	
  -9.16979	-0.00263723	  -9.23414	-0.00260914	  -9.20711	-0.00264058	  -9.20368	-0.00262898	  -9.20368	  -65.7245	
  -9.12113	-0.00263288	   -9.1849	-0.00260524	  -9.15788	-0.00263641	  -9.15464	-0.00262484	  -9.15464	  -65.6211	
   -9.0722	-0.0026285	  -9.13537	-0.00260134	  -9.10844	-0.00263219	  -9.10534	-0.00262068	  -9.10534	  -65.5169	
  -9.02277	-0.00262412	  -9.08554	-0.00259739	  -9.05857	-0.00262789	  -9.05562	-0.00261647	  -9.05562	  -65.4117	
    -8.973	-0.00261968	  -9.03521	-0.00259342	  -9.00829	-0.00262361	   -9.0055	-0.00261224	   -9.0055	  -65.3059	
  -8.92295	-0.00261521	  -8.98457	-0.0025894	  -8.95777	-0.00261927	  -8.95509	-0.00260796	  -8.95509	  -65.1989	
  -8.87239	-0.00261073	  -8.93369	-0.00258534	  -8.90703	-0.00261483	  -8.90437	-0.00260364	  -8.90437	  -65.0909	
  -8.82148	-0.00260621	   -8.8824	-0.00258126	  -8.85585	-0.00261043	  -8.85324	-0.0025993	  -8.85324	  -64.9825	
  -8.77027	-0.00260163	  -8.83076	-0.00257712	  -8.80436	-0.00260596	   -8.8018	-0.0025949	   -8.8018	  -64.8726	
  -8.71854	-0.00259705	  -8.77895	-0.00257292	  -8.75268	-0.00260142	  -8.75006	-0.00259046	  -8.75006	  -64.7616	
  -8.66645	-0.00259247	  -8.72667	-0.00256874	  -8.70053	-0.00259691	  -8.69788	-0.00258604	  -8.69788	   -64.651	
  -8.61417	-0.00258777	  -8.67405	-0.00256452	  -8.64808	-0.00259232	  -8.64543	-0.00258154	  -8.64543	  -64.5385	
  -8.56143	-0.00258299	  -8.62117	-0.0025602	  -8.59534	-0.00258765	  -8.59265	-0.00257695	  -8.59265	  -64.4236	
  -8.50833	-0.00257825	  -8.56785	-0.00255589	  -8.54207	-0.00258293	  -8.53942	-0.00257236	  -8.53942	   -64.309	
  -8.45505	-0.00257344	  -8.51417	-0.00255152	  -8.48852	-0.00257814	  -8.48591	-0.0025677	  -8.48591	  -64.1926	
   -8.4013	-0.00256854	  -8.46024	-0.00254707	  -8.43467	-0.00257336	  -8.43207	-0.00256299	  -8.43207	  -64.0748	
  -8.34717	-0.00256361	   -8.4059	-0.00254261	  -8.38036	-0.00256849	  -8.37781	-0.00255824	  -8.37781	  -63.9559	
  -8.29273	-0.00255865	  -8.35123	-0.00253811	  -8.32577	-0.00256353	  -8.32324	-0.00255343	  -8.32324	  -63.8358	
  -8.23788	-0.00255358	  -8.29631	-0.00253351	  -8.27088	-0.00255856	  -8.26836	-0.00254855	  -8.26836	  -63.7137	
  -8.18269	-0.00254849	  -8.24095	-0.00252884	   -8.2156	-0.00255354	  -8.21308	-0.00254363	  -8.21308	  -63.5907	
  -8.12732	-0.00254331	  -8.18527	-0.00252415	  -8.16005	-0.0025484	  -8.15755	-0.00253862	  -8.15755	  -63.4655	
  -8.07159	-0.00253806	  -8.12933	-0.00251935	  -8.10427	-0.0025432	  -8.10173	-0.00253354	  -8.10173	  -63.3384	
  -8.01553	-0.00253277	  -8.07294	-0.00251448	  -8.04808	-0.00253796	  -8.04552	-0.0025284	  -8.04552	    -63.21	
  -7.95932	-0.0025274	  -8.01625	-0.00250953	  -7.99163	-0.0025326	  -7.98907	-0.00252318	  -7.98907	  -63.0794	
  -7.90266	-0.00252198	   -7.9593	-0.00250451	  -7.93487	-0.00252717	  -7.93228	-0.00251788	  -7.93228	  -62.9471	
   -7.8457	-0.00251648	  -7.90198	-0.00249939	  -7.87767	-0.0025217	  -7.87511	-0.00251252	  -7.87511	  -62.8131	
  -7.78851	-0.00251089	  -7.84437	-0.00249414	  -7.82022	-0.00251611	   -7.8177	-0.00250705	   -7.8177	  -62.6761	
  -7.73084	-0.00250525	  -7.78648	-0.00248883	   -7.7625	-0.00251043	  -7.75994	-0.0025015	  -7.75994	  -62.5376	
  -7.67291	-0.00249954	  -7.72817	-0.00248336	  -7.70443	-0.00250466	  -7.70184	-0.00249585	  -7.70184	  -62.3964	
  -7.61477	-0.00249374	   -7.6696	-0.00247791	  -7.64614	-0.00249881	  -7.64351	-0.00249015	  -7.64351	  -62.2539	
  -7.55618	-0.00248786	   -7.6107	-0.00247239	  -7.58756	-0.00249285	  -7.58481	-0.00248437	  -7.58481	  -62.1092	
  -7.49737	-0.0024819	  -7.55151	-0.00246661	  -7.52861	-0.00248679	  -7.52583	-0.00247843	  -7.52583	  -61.9608	
  -7.43828	-0.00247581	  -7.49208	-0.00246089	   -7.4695	-0.00248063	  -7.46662	-0.00247244	  -7.46662	  -61.8111	
  -7.37881	-0.0024697	  -7.43234	-0.00245509	  -7.40997	-0.00247435	  -7.40704	-0.00246638	  -7.40704	  -61.6595	
  -7.31911	-0.00246351	  -7.37226	-0.00244908	  -7.35014	-0.00246799	  -7.34717	-0.00246019	  -7.34717	  -61.5048	
  -7.25905	-0.0024572	  -7.31201	-0.00244311	   -7.2901	-0.0024615	  -7.28705	-0.00245394	  -7.28705	  -61.3484	
  -7.19866	-0.00245084	  -7.25137	-0.00243704	  -7.22965	-0.0024549	  -7.22656	-0.00244759	  -7.22656	  -61.1899	
  -7.13806	-0.00244443	  -7.19047	-0.00243078	  -7.16878	-0.00244826	  -7.16577	-0.00244116	  -7.16577	  -61.0289	
  -7.07709	-0.00243788	  -7.12928	-0.00242453	  -7.10785	-0.00244137	  -7.10474	-0.00243459	  -7.10474	  -60.8648	
  -7.01587	-0.00243119	   -7.0677	-0.00241826	  -7.04652	-0.00243445	  -7.04336	-0.00242797	  -7.04336	  -60.6992	
  -6.95452	-0.00242456	  -7.00589	-0.00241177	  -6.98503	-0.00242748	  -6.98182	-0.00242127	  -6.98182	  -60.5317	
   -6.8928	-0.00241775	  -6.94389	-0.00240524	  -6.92314	-0.00242024	  -6.91994	-0.00241441	  -6.91994	  -60.3602	
  -6.83089	-0.00241069	  -6.88158	-0.00239869	  -6.86093	-0.00241291	   -6.8578	-0.00240743	   -6.8578	  -60.1858	
  -6.76877	-0.00240385	  -6.81911	-0.00239194	  -6.79857	-0.00240553	  -6.79548	-0.00240044	  -6.79548	   -60.011	
  -6.70628	-0.00239678	  -6.75625	-0.00238512	  -6.73587	-0.00239797	   -6.7328	-0.00239329	   -6.7328	  -59.8323	
  -6.64368	-0.0023895	  -6.69311	-0.00237828	  -6.67293	-0.00239026	  -6.66991	-0.00238601	  -6.66991	  -59.6503	
  -6.58068	-0.00238229	   -6.6298	-0.00237128	  -6.60978	-0.00238247	  -6.60675	-0.00237868	  -6.60675	   -59.467	
   -6.5174	-0.00237496	  -6.56611	-0.00236418	  -6.54628	-0.00237454	  -6.54326	-0.00237122	  -6.54326	  -59.2806	
  -6.45399	-0.00236741	  -6.50219	 -0.002357	  -6.48257	-0.00236642	  -6.47958	-0.00236361	  -6.47958	  -59.0902	
  -6.39016	-0.00235988	  -6.43801	-0.00234976	  -6.41843	-0.00235822	  -6.41553	-0.00235596	  -6.41553	  -58.8989	
  -6.32614	-0.00235226	   -6.3735	-0.00234236	    -6.354	-0.00234989	  -6.35121	-0.00234817	  -6.35121	  -58.7042	
  -6.26184	-0.00234443	  -6.30883	-0.00233489	  -6.28938	-0.00234137	  -6.28668	-0.00234023	  -6.28668	  -58.5057	
  -6.19722	-0.00233658	  -6.24386	-0.00232732	  -6.22438	-0.00233281	  -6.22182	-0.00233224	  -6.22182	  -58.3059	
  -6.13247	-0.00232863	  -6.17865	-0.00231956	  -6.15918	-0.00232404	  -6.15677	-0.00232408	  -6.15677	   -58.102	
  -6.06737	-0.00232049	  -6.11317	-0.00231169	  -6.09378	-0.00231509	  -6.09144	-0.00231576	  -6.09144	  -57.8939	
  -6.00203	-0.00231228	  -6.04745	-0.00230371	  -6.02805	-0.00230612	  -6.02584	-0.00230737	  -6.02584	  -57.6843	
  -5.93659	-0.00230401	  -5.98151	-0.00229563	  -5.96219	-0.00229698	   -5.9601	-0.00229887	   -5.9601	  -57.4718	
  -5.87083	-0.00229556	  -5.91519	-0.00228742	    -5.896	-0.00228768	  -5.89401	-0.00229022	  -5.89401	  -57.2554	
  -5.80494	-0.00228697	  -5.84869	-0.00227908	  -5.82959	-0.00227828	  -5.82774	-0.00228144	  -5.82774	  -57.0361	
  -5.73881	-0.00227832	  -5.78191	-0.00227063	  -5.76305	-0.00226871	  -5.76125	-0.00227255	  -5.76125	  -56.8138	
  -5.67243	-0.0022695	  -5.71485	-0.00226201	  -5.69623	-0.00225895	   -5.6945	-0.00226349	   -5.6945	  -56.5872	
  -5.60594	-0.00226055	  -5.64763	-0.00225332	  -5.62929	-0.00224908	  -5.62762	-0.00225432	  -5.62762	  -56.3579	
   -5.5391	-0.00225152	  -5.58023	-0.00224447	  -5.56226	-0.00223905	  -5.56053	-0.00224501	  -5.56053	  -56.1254	
   -5.4721	-0.00224237	  -5.51256	-0.0022354	  -5.49488	-0.00222892	  -5.49318	-0.00223556	  -5.49318	  -55.8891	
  -5.40494	-0.00223307	  -5.44477	-0.00222633	  -5.42711	-0.00221866	  -5.42561	-0.00222602	  -5.42561	  -55.6504	
  -5.33738	-0.0022237	  -5.37667	-0.00221706	  -5.35923	-0.00220819	  -5.35776	-0.00221632	  -5.35776	  -55.4079	
  -5.26977	-0.00221412	  -5.30843	-0.0022076	  -5.29117	-0.0021976	  -5.28979	-0.00220644	  -5.28979	  -55.1611	
  -5.20194	-0.00220444	  -5.23998	-0.00219812	  -5.22284	-0.00218693	  -5.22159	-0.0021965	  -5.22159	  -54.9124	
  -5.13372	-0.00219454	  -5.17125	-0.0021884	  -5.15429	-0.00217606	  -5.15309	-0.00218633	  -5.15309	  -54.6584	
  -5.06543	-0.00218449	  -5.10246	-0.00217852	  -5.08563	-0.00216505	  -5.08451	-0.00217602	  -5.08451	  -54.4005	
  -4.99697	-0.00217439	  -5.03342	-0.00216858	  -5.01664	-0.00215395	  -5.01567	-0.00216564	  -5.01567	  -54.1409	
   -4.9283	-0.00216406	  -4.96423	-0.00215842	  -4.94748	-0.00214269	  -4.94667	-0.00215505	  -4.94667	  -53.8764	
  -4.85946	-0.00215357	  -4.89493	-0.00214811	  -4.87818	-0.00213128	  -4.87752	-0.00214432	  -4.87752	   -53.608	
  -4.79043	-0.00214296	   -4.8254	-0.00213768	  -4.80863	-0.00211977	  -4.80815	-0.00213347	  -4.80815	  -53.3367	
  -4.72125	-0.00213215	  -4.75577	-0.00212705	  -4.73901	-0.0021081	  -4.73867	-0.00212243	  -4.73867	  -53.0608	
  -4.65178	-0.00212117	  -4.68581	-0.00211625	  -4.66913	-0.0020963	  -4.66891	-0.00211124	  -4.66891	   -52.781	
  -4.58219	-0.00211005	  -4.61573	-0.00210536	  -4.59913	-0.00208431	  -4.59901	-0.00209991	  -4.59901	  -52.4976	
  -4.51239	-0.00209873	  -4.54546	-0.00209423	   -4.5289	-0.0020723	  -4.52892	-0.00208842	  -4.52892	  -52.2105	
  -4.44242	-0.00208723	  -4.47495	-0.00208294	  -4.45847	-0.00206013	  -4.45861	-0.00207677	  -4.45861	  -51.9192	
   -4.3723	-0.00207558	  -4.40435	-0.00207155	  -4.38796	-0.0020478	   -4.3882	-0.00206498	   -4.3882	  -51.6244	
  -4.30193	-0.00206374	  -4.33344	-0.00205994	  -4.31714	-0.00203539	   -4.3175	-0.00205302	   -4.3175	  -51.3255	
  -4.23151	-0.00205173	  -4.26241	-0.00204817	   -4.2462	-0.0020228	  -4.24671	-0.0020409	  -4.24671	  -51.0224	
   -4.1609	-0.00203957	  -4.19121	-0.00203627	  -4.17489	-0.00201013	  -4.17566	-0.00202866	  -4.17566	  -50.7165	
  -4.09011	-0.00202721	  -4.11979	-0.00202419	  -4.10374	-0.0019973	  -4.10455	-0.00201623	  -4.10455	  -50.4059	
  -4.01916	-0.00201465	  -4.04832	-0.00201194	  -4.03239	-0.00198434	  -4.03329	-0.00200365	  -4.03329	  -50.0911	
  -3.94794	-0.00200199	  -3.97657	-0.00199959	  -3.96089	-0.00197122	   -3.9618	-0.00199093	   -3.9618	  -49.7734	
  -3.87665	-0.00198913	  -3.90473	 -0.001987	  -3.88933	-0.00195793	  -3.89024	-0.00197802	  -3.89024	  -49.4506	
   -3.8051	-0.00197608	  -3.83272	-0.00197424	  -3.81764	-0.00194451	  -3.81849	-0.00196494	  -3.81849	  -49.1236	
  -3.73345	-0.0019629	  -3.76051	-0.00196135	  -3.74579	-0.00193096	  -3.74658	-0.00195173	  -3.74658	  -48.7934	
  -3.66154	-0.00194957	  -3.68819	-0.00194826	  -3.67388	-0.00191717	  -3.67454	-0.00193833	  -3.67454	  -48.4583	
  -3.58935	-0.00193602	  -3.61564	-0.00193496	  -3.60174	-0.00190322	  -3.60224	-0.00192473	  -3.60224	  -48.1183	
   -3.5171	-0.00192231	  -3.54265	-0.0019216	  -3.52954	-0.00188913	  -3.52976	-0.00191101	  -3.52976	  -47.7753	
  -3.44471	-0.00190846	  -3.46994	-0.00190794	  -3.45723	-0.00187485	  -3.45729	-0.00189708	  -3.45729	  -47.4271	
  -3.37215	-0.00189441	  -3.39696	-0.00189402	  -3.38477	-0.00186041	  -3.38463	-0.00188294	  -3.38463	  -47.0736	
  -3.29954	-0.00188019	  -3.32388	-0.00188004	   -3.3123	-0.00184579	  -3.31191	-0.00186867	  -3.31191	  -46.7169	
  -3.22685	-0.00186579	   -3.2506	-0.00186583	  -3.23959	-0.00183096	  -3.23901	-0.00185419	  -3.23901	  -46.3548	
  -3.15397	-0.00185116	  -3.17728	-0.00185127	  -3.16683	-0.00181595	  -3.16603	-0.00183946	  -3.16603	  -45.9865	
  -3.08116	-0.0018364	  -3.10378	-0.00183667	   -3.0939	-0.00180078	  -3.09295	-0.00182462	  -3.09295	  -45.6154	
  -3.00805	-0.0018215	   -3.0302	-0.00182184	  -3.02087	-0.00178535	  -3.01971	-0.00180956	  -3.01971	   -45.239	
  -2.93486	-0.00180635	  -2.95654	-0.00180668	  -2.94773	-0.00176973	  -2.94638	-0.00179425	  -2.94638	  -44.8563	
  -2.86149	-0.00179105	  -2.88269	-0.00179144	  -2.87442	-0.00175394	  -2.87287	-0.00177881	  -2.87287	  -44.4703	
  -2.78804	-0.00177561	  -2.80888	-0.00177597	    -2.801	-0.00173784	  -2.79931	-0.00176314	  -2.79931	  -44.0785	
  -2.71448	-0.00175992	  -2.73488	-0.0017602	  -2.72757	-0.00172156	  -2.72564	-0.00174723	  -2.72564	  -43.6807	
  -2.64087	-0.00174413	  -2.66082	-0.0017443	    -2.654	-0.00170515	   -2.6519	-0.00173119	   -2.6519	  -43.2798	
  -2.56705	-0.00172811	  -2.58668	-0.0017282	  -2.58021	-0.00168842	  -2.57798	-0.00171491	  -2.57798	  -42.8727	
  -2.49315	-0.00171192	   -2.5124	-0.00171181	  -2.50632	-0.00167147	  -2.50396	-0.0016984	  -2.50396	    -42.46	
  -2.41915	-0.00169558	  -2.43809	-0.00169526	  -2.43235	-0.00165439	  -2.42986	-0.00168175	  -2.42986	  -42.0437	
  -2.34495	-0.00167905	  -2.36361	-0.00167853	   -2.3584	-0.00163696	  -2.35565	-0.00166485	  -2.35565	  -41.6211	
  -2.27075	-0.00166237	  -2.28906	-0.00166149	  -2.28422	-0.0016194	  -2.28134	-0.00164775	  -2.28134	  -41.1938	
  -2.19636	-0.00164549	  -2.21435	-0.00164436	  -2.20985	-0.00160168	  -2.20685	-0.00163051	  -2.20685	  -40.7628	
  -2.12195	-0.00162841	  -2.13956	-0.00162694	  -2.13541	-0.00158363	  -2.13231	 -0.001613	  -2.13231	  -40.3249	
  -2.04745	-0.00161116	  -2.06469	-0.00160932	  -2.06089	-0.00156534	  -2.05768	-0.00159527	  -2.05768	  -39.8819	
  -1.97282	-0.00159375	  -1.98967	-0.00159149	   -1.9862	-0.00154689	   -1.9829	-0.00157737	   -1.9829	  -39.4344	
  -1.89818	-0.00157612	  -1.91462	-0.00157342	  -1.91146	-0.0015281	  -1.90809	-0.00155921	  -1.90809	  -38.9803	
   -1.8234	-0.00155829	  -1.83941	-0.00155512	   -1.8365	-0.0015091	   -1.8331	-0.00154083	   -1.8331	  -38.5208	
  -1.74863	-0.00154028	  -1.76418	-0.00153659	  -1.76152	-0.00148991	  -1.75811	-0.00152226	  -1.75811	  -38.0565	
