# User: ACHyster
# File name: C:/ACHYSTER/ACHyster SENS/SHAMS/CoFe2O4-1gl-water-Zero Glycerol- Sens-07-03-2023/CoFe2O4-1gl-water-100-300kHz- 24 kAm -Advance-14-03-20230010#1~CoFe2O4-1gl-water-zero Glycerol- 10_100F- 24kAm -Sens-07-03-20230007#1.txt~.txt
# Saved at: ma. mar. 14 18:30:26 2023
# Hyster Loop (3 iterations). Intensity: 24.0 kA/m; Tuned frequency: 297.1 kHz
# Units x axis: H (kA/m)
# Units y axis: "Repeats y" & "Average y" M (10^(-3)Am^2); "Mass avg y" normalized mass M (Am^2/kg)
# Magnetic mass: 4e-05 g
# Parameter      	Repeat   1	Repeat   2	Repeat   3	Average   	Sigma     
# H_C (kA/m)     	      23.9	      23.9	      23.8	      23.9	       0.0
# M_R (Am^2/kg)  	      30.1	      31.1	      30.3	      30.5	       0.4
# M_max (Am^2/kg)	      30.1	      31.1	      30.6	      30.6	       0.4
# Area (mJ/kg)   	    2783.6	    2872.9	    2806.5	    2821.0	      37.9
# SAR (W/g)      	     826.9	     853.5	     833.8	     838.1	      11.3
#Repeat 1 x	Repeat 1 y	Repeat 2 x	Repeat 2 y	Repeat 3 x	Repeat 3 y	Average x 	Average y 	Mass avg x 	Mass avg y 
  -3.91948	-0.00118509	  -3.88747	-0.00121974	  -3.96354	-0.00117342	   -3.9235	-0.00119275	   -3.9235	  -29.8187	
  -3.61231	-0.00118891	   -3.5843	-0.00122281	  -3.66161	-0.0011776	  -3.61941	-0.00119644	  -3.61941	   -29.911	
  -3.30732	-0.0011922	  -3.28067	-0.00122578	  -3.35877	-0.00118161	  -3.31559	-0.00119986	  -3.31559	  -29.9966	
  -3.00038	-0.00119492	  -2.97752	-0.00122858	  -3.05366	-0.00118548	  -3.01052	-0.00120299	  -3.01052	  -30.0748	
  -2.69742	-0.00119717	  -2.66858	-0.00123117	   -2.7475	-0.00118916	   -2.7045	-0.00120583	   -2.7045	  -30.1458	
  -2.39636	-0.00119916	  -2.36272	-0.00123352	  -2.43899	-0.00119262	  -2.39936	-0.00120844	  -2.39936	  -30.2109	
  -2.09544	-0.00120101	  -2.05333	-0.00123583	   -2.1318	-0.00119593	  -2.09352	-0.00121092	  -2.09352	   -30.273	
  -1.79784	-0.00120265	  -1.74424	-0.00123801	  -1.82429	-0.00119908	  -1.78879	-0.00121325	  -1.78879	  -30.3311	
  -1.50155	-0.00120409	   -1.4387	-0.0012399	  -1.51981	-0.00120199	  -1.48669	-0.00121533	  -1.48669	  -30.3832	
   -1.2072	-0.00120552	  -1.13239	-0.00124148	  -1.21408	-0.00120457	  -1.18456	-0.00121719	  -1.18456	  -30.4298	
  -0.91055	-0.00120667	 -0.828704	-0.00124279	 -0.908183	-0.00120668	 -0.882479	-0.00121871	 -0.882479	  -30.4678	
 -0.610375	-0.0012072	 -0.523396	-0.00124378	 -0.600688	-0.00120832	 -0.578153	-0.00121977	 -0.578153	  -30.4942	
 -0.310407	-0.00120689	  -0.21526	-0.00124427	 -0.290407	-0.00120942	 -0.272024	-0.00122019	 -0.272024	  -30.5048	
-0.00911413	-0.00120595	 0.0919898	-0.00124419	 0.0165727	-0.00120989	 0.0331495	-0.00122001	 0.0331495	  -30.5002	
  0.287725	-0.0012044	  0.397549	-0.00124355	  0.322159	-0.00120981	  0.335811	-0.00121925	  0.335811	  -30.4813	
  0.587029	-0.0012023	  0.703125	-0.00124245	  0.630391	-0.00120938	  0.640182	-0.00121804	  0.640182	  -30.4511	
  0.882875	-0.00120009	   1.00782	-0.00124105	  0.942315	-0.00120885	  0.944336	-0.00121666	  0.944336	  -30.4166	
   1.17733	-0.00119825	   1.31322	-0.00123958	   1.24932	-0.00120836	   1.24662	-0.0012154	   1.24662	  -30.3849	
   1.47454	-0.00119691	   1.61833	-0.00123823	   1.55592	-0.00120808	   1.54959	-0.00121441	   1.54959	  -30.3602	
   1.77091	-0.00119606	   1.92226	-0.00123723	   1.86125	-0.00120819	   1.85147	-0.00121383	   1.85147	  -30.3456	
   2.07522	-0.00119569	   2.23141	-0.00123678	   2.16696	-0.00120878	   2.15786	-0.00121375	   2.15786	  -30.3438	
   2.37831	-0.00119569	   2.53932	-0.00123684	   2.46971	-0.00120979	   2.46245	-0.00121411	   2.46245	  -30.3526	
   2.68421	-0.00119568	   2.85234	-0.00123709	    2.7738	-0.00121101	   2.77012	-0.0012146	   2.77012	  -30.3649	
   2.98923	-0.00119538	   3.16402	-0.00123732	   3.07576	-0.00121231	   3.07634	 -0.001215	   3.07634	  -30.3751	
    3.2926	-0.00119457	   3.47121	-0.0012373	   3.37505	-0.00121349	   3.37962	-0.00121512	   3.37962	   -30.378	
   3.59604	-0.00119309	   3.78073	-0.00123675	   3.67356	-0.00121429	   3.68344	-0.00121471	   3.68344	  -30.3677	
   3.90102	-0.00119084	   4.08654	-0.00123542	   3.97057	-0.00121458	   3.98604	-0.00121361	   3.98604	  -30.3402	
   4.20404	-0.00118796	   4.39538	-0.00123325	   4.26786	-0.00121424	   4.28909	-0.00121182	   4.28909	  -30.2955	
   4.50687	-0.00118456	   4.70114	-0.00123045	   4.55983	-0.00121326	   4.58928	-0.00120943	   4.58928	  -30.2357	
   4.81104	-0.00118068	   5.00335	-0.0012272	    4.8536	-0.00121163	   4.88933	-0.0012065	   4.88933	  -30.1626	
   5.11545	-0.0011765	   5.30402	-0.00122354	   5.14577	-0.00120946	   5.18841	-0.00120317	   5.18841	  -30.0792	
   5.41916	-0.00117216	   5.60252	-0.00121949	   5.44051	-0.00120681	    5.4874	-0.00119948	    5.4874	  -29.9871	
   5.71901	-0.00116757	   5.89125	-0.00121507	   5.73193	-0.00120367	   5.78073	-0.00119544	   5.78073	   -29.886	
   6.01946	-0.00116268	   6.17562	-0.00121034	   6.01975	-0.00120014	   6.07161	-0.00119105	   6.07161	  -29.7763	
   6.31957	-0.00115762	   6.46268	-0.00120514	   6.30852	-0.0011963	   6.36359	-0.00118635	   6.36359	  -29.6588	
   6.61853	-0.00115244	   6.75135	-0.00119938	   6.59737	-0.00119221	   6.65575	-0.00118134	   6.65575	  -29.5336	
    6.9204	-0.00114715	   7.04773	-0.00119317	   6.89028	-0.00118795	   6.95281	-0.00117609	   6.95281	  -29.4022	
   7.21917	-0.00114189	   7.34045	-0.00118672	   7.17881	-0.00118361	   7.24614	-0.00117074	   7.24614	  -29.2685	
   7.51917	-0.00113686	   7.63162	-0.00118022	   7.46522	-0.00117936	   7.53867	-0.00116548	   7.53867	   -29.137	
   7.81701	-0.0011322	   7.92307	-0.00117378	   7.75149	-0.00117533	   7.83052	-0.00116044	   7.83052	  -29.0109	
   8.11456	-0.0011279	   8.20928	-0.00116751	    8.0393	-0.00117159	   8.12105	-0.00115567	   8.12105	  -28.8917	
   8.41102	-0.00112394	   8.49743	-0.00116149	    8.3277	-0.00116807	   8.41205	-0.00115116	   8.41205	  -28.7791	
   8.70338	-0.00112015	   8.78414	-0.00115568	   8.61352	-0.0011647	   8.70035	-0.00114684	   8.70035	   -28.671	
   8.99619	-0.00111628	   9.07127	-0.00114986	   8.90117	-0.00116141	   8.98954	-0.00114252	   8.98954	   -28.563	
   9.29099	-0.0011121	   9.35567	-0.00114382	   9.18729	-0.00115802	   9.27798	-0.00113798	   9.27798	  -28.4495	
   9.58195	-0.00110736	   9.63706	-0.00113746	   9.47377	-0.00115431	   9.56426	-0.00113305	   9.56426	  -28.3261	
   9.87125	-0.00110187	   9.91524	-0.00113076	    9.7575	-0.00115019	     9.848	-0.00112761	     9.848	  -28.1902	
    10.156	-0.00109556	   10.1948	-0.00112364	   10.0429	-0.00114566	   10.1313	-0.00112162	   10.1313	  -28.0404	
   10.4363	-0.0010885	   10.4654	-0.00111607	   10.3244	-0.00114064	   10.4087	-0.00111507	   10.4087	  -27.8768	
   10.7097	-0.00108078	   10.7374	-0.00110817	   10.6042	-0.00113509	   10.6837	-0.00110801	   10.6837	  -27.7003	
   10.9813	-0.00107248	   11.0099	-0.00109999	   10.8819	-0.00112902	   10.9577	-0.00110049	   10.9577	  -27.5123	
   11.2486	-0.00106373	     11.28	-0.00109153	   11.1549	-0.0011224	   11.2278	-0.00109255	   11.2278	  -27.3138	
   11.5164	-0.00105466	   11.5498	-0.00108277	   11.4233	-0.00111531	   11.4965	-0.00108424	   11.4965	  -27.1061	
   11.7818	-0.00104527	   11.8166	-0.00107369	    11.692	-0.00110782	   11.7634	-0.00107559	   11.7634	  -26.8898	
   12.0493	-0.00103556	   12.0802	-0.00106432	    11.958	-0.00109979	   12.0292	-0.00106656	   12.0292	  -26.6639	
   12.3134	-0.00102551	    12.343	-0.00105466	   12.2237	-0.00109135	   12.2934	-0.00105717	   12.2934	  -26.4293	
   12.5766	-0.00101518	   12.5999	-0.00104474	   12.4885	-0.00108271	    12.555	-0.00104755	    12.555	  -26.1886	
   12.8385	-0.00100462	   12.8539	-0.00103455	   12.7499	-0.00107405	   12.8141	-0.00103774	   12.8141	  -25.9434	
   13.0964	-0.000993962	   13.1026	-0.00102416	   13.0078	-0.00106524	   13.0689	-0.00102779	   13.0689	  -25.6947	
   13.3506	-0.000983335	   13.3536	-0.00101366	   13.2648	-0.0010564	    13.323	-0.0010178	    13.323	   -25.445	
   13.6036	-0.000972847	   13.6038	-0.00100311	   13.5158	-0.0010477	   13.5744	-0.00100789	   13.5744	  -25.1972	
   13.8552	-0.000962578	   13.8554	-0.000992489	   13.7685	-0.0010392	   13.8264	-0.000998091	   13.8264	  -24.9523	
    14.103	-0.000952489	   14.1055	-0.000981837	   14.0175	-0.00103071	   14.0754	-0.000988346	   14.0754	  -24.7087	
   14.3495	-0.000942522	   14.3565	-0.000971216	   14.2679	-0.00102218	   14.3246	-0.00097864	   14.3246	   -24.466	
   14.5948	-0.000932502	   14.6101	-0.000960623	    14.512	-0.00101366	   14.5723	-0.000968928	   14.5723	  -24.2232	
   14.8363	-0.000922287	   14.8586	-0.000949997	   14.7529	-0.0010051	   14.8159	-0.000959129	   14.8159	  -23.9782	
   15.0767	-0.00091174	   15.1048	-0.00093929	   14.9931	-0.000996465	   15.0582	-0.000949165	   15.0582	  -23.7291	
   15.3137	-0.000900747	   15.3487	-0.000928447	   15.2303	-0.000987696	   15.2976	-0.000938963	   15.2976	  -23.4741	
   15.5498	-0.000889291	   15.5952	-0.000917415	   15.4717	-0.000978747	   15.5389	-0.000928484	   15.5389	  -23.2121	
   15.7804	-0.000877374	   15.8365	-0.000906101	   15.7094	-0.00096962	   15.7755	-0.000917698	   15.7755	  -22.9425	
   16.0109	-0.000865083	   16.0731	-0.000894444	   15.9486	-0.000960268	   16.0109	-0.000906599	   16.0109	   -22.665	
   16.2388	-0.000852461	   16.3056	-0.000882453	    16.184	-0.000950595	   16.2428	-0.00089517	   16.2428	  -22.3792	
   16.4621	-0.000839554	   16.5321	-0.000870148	   16.4184	-0.000940456	   16.4709	-0.000883386	   16.4709	  -22.0847	
   16.6861	-0.000826413	    16.758	-0.000857568	   16.6495	-0.00092987	   16.6979	-0.000871284	   16.6979	  -21.7821	
   16.9059	-0.000813069	   16.9812	-0.000844752	   16.8753	-0.000918889	   16.9208	-0.000858904	   16.9208	  -21.4726	
   17.1294	-0.000799578	   17.2066	-0.000831731	   17.0989	-0.000907518	   17.1449	-0.000846276	   17.1449	  -21.1569	
   17.3487	-0.000785945	   17.4292	-0.000818535	   17.3181	-0.000895792	   17.3654	-0.000833424	   17.3654	  -20.8356	
   17.5693	-0.000772222	   17.6494	-0.000805165	   17.5384	-0.000883781	   17.5857	-0.000820389	   17.5857	  -20.5097	
   17.7863	-0.000758448	   17.8675	-0.000791622	   17.7549	-0.000871627	   17.8029	-0.000807232	   17.8029	  -20.1808	
   18.0026	-0.000744657	   18.0744	-0.000777883	   17.9658	-0.000859363	   18.0142	-0.000793967	   18.0142	  -19.8492	
   18.2135	-0.000730883	   18.2813	-0.000763991	   18.1744	-0.000846942	   18.2231	-0.000780606	   18.2231	  -19.5151	
   18.4201	-0.000717153	   18.4837	-0.000750033	   18.3811	-0.000834393	   18.4283	-0.000767193	   18.4283	  -19.1798	
   18.6254	-0.000703502	   18.6847	-0.000735997	   18.5841	-0.000821752	   18.6314	-0.00075375	   18.6314	  -18.8438	
   18.8275	-0.000689933	   18.8825	-0.000721919	   18.7793	-0.000809036	   18.8298	-0.000740296	   18.8298	  -18.5074	
   19.0269	-0.000676435	   19.0754	-0.000707874	   18.9706	-0.000796269	   19.0243	-0.000726859	   19.0243	  -18.1715	
    19.222	-0.000662961	   19.2644	-0.000693915	    19.154	-0.000783472	   19.2135	-0.000713449	   19.2135	  -17.8362	
    19.416	-0.000649436	   19.4503	-0.000680009	   19.3358	-0.000770684	   19.4007	-0.000700043	   19.4007	  -17.5011	
   19.6047	-0.000635805	   19.6318	-0.000666101	   19.5144	-0.000757874	   19.5836	-0.000686593	   19.5836	  -17.1648	
   19.7868	-0.000621973	   19.8074	-0.000652165	   19.6907	-0.000745038	   19.7616	-0.000673059	   19.7616	  -16.8265	
   19.9637	-0.000607888	   19.9808	-0.000638146	   19.8678	-0.000732057	   19.9374	-0.000659364	   19.9374	  -16.4841	
   20.1366	-0.000593501	    20.153	-0.000623977	   20.0413	-0.000718874	   20.1103	-0.000645451	   20.1103	  -16.1363	
   20.3089	-0.0005788	   20.3198	-0.000609585	   20.2147	-0.000705416	   20.2811	-0.000631267	   20.2811	  -15.7817	
   20.4766	-0.000563832	   20.4826	-0.00059495	   20.3813	-0.000691644	   20.4468	-0.000616808	   20.4468	  -15.4202	
   20.6408	-0.000548612	   20.6426	-0.000580064	   20.5452	-0.000677545	   20.6095	-0.000602074	   20.6095	  -15.0518	
   20.8004	-0.000533223	   20.7986	-0.000564976	   20.7072	-0.000663135	   20.7687	-0.000587112	   20.7687	  -14.6778	
    20.959	-0.000517713	   20.9494	-0.000549741	   20.8637	-0.00064853	    20.924	-0.000571995	    20.924	  -14.2999	
   21.1151	-0.000502124	    21.099	-0.000534392	    21.016	-0.000633772	   21.0767	-0.000556763	   21.0767	  -13.9191	
   21.2626	-0.000486495	   21.2434	-0.000518979	   21.1632	-0.00061891	   21.2231	-0.000541461	   21.2231	  -13.5365	
   21.4083	-0.000470804	   21.3844	-0.000503537	   21.3068	-0.00060395	   21.3665	-0.000526097	   21.3665	  -13.1524	
   21.5486	-0.000455081	   21.5208	-0.000488056	   21.4458	-0.000588901	   21.5051	-0.00051068	   21.5051	   -12.767	
   21.6827	-0.000439328	   21.6543	-0.000472566	   21.5841	-0.000573774	   21.6403	-0.000495223	   21.6403	  -12.3806	
   21.8124	-0.000423608	   21.7815	-0.000457008	   21.7179	-0.000558554	   21.7706	-0.000479723	   21.7706	  -11.9931	
   21.9394	-0.000407937	   21.9066	-0.000441288	   21.8465	-0.000543283	   21.8975	-0.000464169	   21.8975	  -11.6042	
   22.0628	-0.00039235	   22.0287	-0.000425532	   21.9716	-0.000527997	    22.021	-0.000448626	    22.021	  -11.2157	
    22.184	-0.000376902	   22.1469	-0.000409814	   22.0925	-0.000512762	   22.1411	-0.000433159	   22.1411	   -10.829	
   22.3022	-0.00036158	   22.2604	-0.00039418	    22.213	-0.000497647	   22.2585	-0.000417803	   22.2585	  -10.4451	
   22.4164	-0.00034636	   22.3688	-0.000378503	   22.3274	-0.000482648	   22.3709	-0.000402503	   22.3709	  -10.0626	
   22.5284	-0.000331188	   22.4764	-0.000362897	   22.4352	-0.00046776	     22.48	-0.000387281	     22.48	  -9.68203	
   22.6326	-0.000316002	   22.5797	-0.000347489	   22.5363	-0.000452937	   22.5828	-0.000372143	   22.5828	  -9.30357	
   22.7361	-0.000300754	    22.683	-0.000332156	   22.6352	-0.000438083	   22.6847	-0.000356998	   22.6847	  -8.92494	
   22.8332	-0.000285392	   22.7804	-0.000316724	   22.7313	-0.000423193	   22.7816	-0.00034177	   22.7816	  -8.54424	
   22.9261	-0.000269904	   22.8742	-0.000301155	   22.8192	-0.000408347	   22.8731	-0.000326469	   22.8731	  -8.16172	
   23.0168	-0.000254276	   22.9663	-0.000285537	   22.9062	-0.000393464	   22.9631	-0.000311092	   22.9631	  -7.77731	
   23.1046	-0.000238526	   23.0534	-0.000269853	   22.9915	-0.000378435	   23.0498	-0.000295605	   23.0498	  -7.39012	
   23.1891	-0.000222695	   23.1379	-0.000254033	   23.0745	-0.000363277	   23.1338	-0.000280002	   23.1338	  -7.00004	
   23.2627	-0.000206792	   23.2167	-0.000238064	   23.1569	-0.000348221	   23.2121	-0.000264359	   23.2121	  -6.60898	
   23.3333	-0.000190863	   23.2923	-0.000222034	   23.2357	-0.000333281	   23.2871	-0.000248726	   23.2871	  -6.21815	
   23.4006	-0.00017491	   23.3667	-0.000206095	   23.3105	-0.000318287	   23.3593	-0.000233097	   23.3593	  -5.82744	
    23.462	-0.000158972	   23.4345	-0.000190252	   23.3834	-0.000303271	   23.4266	-0.000217498	   23.4266	  -5.43746	
   23.5225	-0.000143058	   23.5007	-0.000174475	   23.4492	-0.000288376	   23.4908	-0.000201969	   23.4908	  -5.04923	
   23.5791	-0.000127185	   23.5601	-0.00015871	   23.5107	-0.000273552	   23.5499	-0.000186482	   23.5499	  -4.66205	
   23.6318	-0.000111361	   23.6177	-0.000143028	   23.5701	-0.000258705	   23.6065	-0.000171031	   23.6065	  -4.27578	
   23.6806	-9.56134e-05	   23.6686	-0.000127375	   23.6247	-0.000243847	    23.658	-0.000155612	    23.658	  -3.89029	
   23.7327	-8.0012e-05	   23.7178	-0.000111616	   23.6771	-0.000229067	   23.7092	-0.000140232	   23.7092	   -3.5058	
   23.7799	-6.44773e-05	   23.7603	-9.56894e-05	   23.7245	-0.000214402	   23.7549	-0.000124856	   23.7549	   -3.1214	
   23.8224	-4.90963e-05	   23.7991	-7.96481e-05	   23.7674	-0.000199815	   23.7963	-0.00010952	   23.7963	  -2.73799	
   23.8605	-3.38667e-05	   23.8342	-6.36221e-05	    23.801	-0.000185335	   23.8319	-9.42744e-05	   23.8319	  -2.35686	
    23.892	-1.87296e-05	   23.8634	-4.75723e-05	   23.8288	-0.000170958	   23.8614	-7.90867e-05	   23.8614	  -1.97717	
   23.9223	-3.66873e-06	    23.885	-3.15443e-05	   23.8561	-0.00015665	   23.8878	-6.39544e-05	   23.8878	  -1.59886	
   23.9465	1.13234e-05	   23.9022	-1.56018e-05	   23.8779	-0.000142357	   23.9089	-4.88785e-05	   23.9089	  -1.22196	
   23.9629	2.62336e-05	   23.9178	1.77477e-07	   23.8948	-0.000128023	   23.9252	-3.38708e-05	   23.9252	  -0.84677	
   23.9748	4.11562e-05	   23.9295	1.58554e-05	   23.9025	-0.000113635	   23.9356	-1.88746e-05	   23.9356	 -0.471865	
   23.9851	5.60632e-05	   23.9401	3.15429e-05	   23.9072	-9.91922e-05	   23.9441	-3.86203e-06	   23.9441	-0.0965508	
   23.9892	7.09815e-05	   23.9425	4.72739e-05	   23.9067	-8.47463e-05	   23.9461	1.11697e-05	   23.9461	  0.279242	
   23.9903	8.59204e-05	   23.9428	6.30483e-05	   23.9043	-7.0244e-05	   23.9458	2.62416e-05	   23.9458	  0.656039	
   23.9841	0.000100851	   23.9411	7.8846e-05	   23.8954	-5.56168e-05	   23.9402	4.13599e-05	   23.9402	     1.034	
   23.9765	0.000115812	    23.933	9.46991e-05	   23.8836	-4.08898e-05	   23.9311	5.65405e-05	   23.9311	   1.41351	
   23.9631	0.000130806	   23.9221	0.000110592	   23.8693	-2.60468e-05	   23.9182	7.17839e-05	   23.9182	    1.7946	
   23.9448	0.000145861	   23.9039	0.000126452	   23.8508	-1.10659e-05	   23.8998	8.70824e-05	   23.8998	   2.17706	
   23.9225	0.000160905	   23.8869	0.000142206	   23.8335	4.08495e-06	    23.881	0.000102398	    23.881	   2.55996	
   23.8971	0.000175961	   23.8688	0.000157831	    23.808	1.92983e-05	    23.858	0.000117697	    23.858	   2.94242	
   23.8717	0.000191003	   23.8451	0.000173362	   23.7806	3.45097e-05	   23.8325	0.000132958	   23.8325	   3.32396	
   23.8394	0.000205957	   23.8194	0.000188816	    23.747	4.96811e-05	   23.8019	0.000148151	   23.8019	   3.70379	
   23.8039	0.000220734	   23.7873	0.00020419	   23.7085	6.47837e-05	   23.7666	0.000163236	   23.7666	   4.08089	
   23.7662	0.000235278	   23.7527	0.000219518	   23.6663	7.97708e-05	   23.7284	0.000178189	   23.7284	   4.45472	
   23.7245	0.000249666	   23.7114	0.000234849	   23.6189	9.46922e-05	   23.6849	0.000193069	   23.6849	   4.82673	
   23.6846	0.00026396	   23.6673	0.000250206	     23.57	0.000109638	   23.6406	0.000207934	   23.6406	   5.19836	
   23.6348	0.000278149	   23.6189	0.000265505	    23.518	0.000124572	   23.5906	0.000222742	   23.5906	   5.56855	
    23.582	0.000292296	   23.5625	0.000280692	   23.4639	0.000139567	   23.5361	0.000237518	   23.5361	   5.93796	
   23.5246	0.000306509	   23.5024	0.000295724	   23.4062	0.000154662	   23.4777	0.000252298	   23.4777	   6.30746	
    23.464	0.000320742	    23.435	0.000310564	   23.3413	0.000169773	   23.4134	0.000267026	   23.4134	   6.67566	
   23.4013	0.000334987	   23.3668	0.000325203	   23.2757	0.000184819	   23.3479	0.00028167	   23.3479	   7.04174	
   23.3328	0.000349305	   23.2916	0.000339627	   23.2031	0.000199784	   23.2758	0.000296239	   23.2758	   7.40597	
     23.26	0.00036364	   23.2135	0.000353911	   23.1277	0.000214683	   23.2004	0.000310745	   23.2004	   7.76862	
   23.1796	0.000377868	   23.1291	0.00036813	   23.0507	0.000229542	   23.1198	0.00032518	   23.1198	    8.1295	
   23.0984	0.00039206	   23.0426	0.000382343	   22.9707	0.000244399	   23.0372	0.000339601	   23.0372	   8.49001	
   23.0125	0.000406276	   22.9529	0.000396576	   22.8844	0.000259384	   22.9499	0.000354079	   22.9499	   8.85197	
   22.9236	0.000420445	   22.8566	0.000410837	    22.796	0.00027456	   22.8587	0.000368614	   22.8587	   9.21535	
   22.8283	0.000434528	   22.7557	0.000425113	    22.702	0.000289797	    22.762	0.000383146	    22.762	   9.57866	
   22.7263	0.000448631	   22.6497	0.000439362	   22.6018	0.000305039	   22.6593	0.000397677	   22.6593	   9.94194	
   22.6219	0.000462818	   22.5427	0.000453523	   22.4974	0.000320312	    22.554	0.000412218	    22.554	   10.3054	
   22.5096	0.000476981	   22.4314	0.000467509	   22.3882	0.000335394	   22.4431	0.000426628	   22.4431	   10.6657	
    22.394	0.000491082	   22.3175	0.000481293	   22.2761	0.000350124	   22.3292	0.000440833	   22.3292	   11.0208	
   22.2746	0.000505119	   22.2003	 0.0004949	   22.1579	0.000364528	   22.2109	0.000454849	   22.2109	   11.3712	
   22.1554	0.000519071	   22.0792	0.000508478	   22.0358	0.000378781	   22.0901	0.000468776	   22.0901	   11.7194	
   22.0308	0.000532828	   21.9512	0.000521965	   21.9094	0.000392902	   21.9638	0.000482565	   21.9638	   12.0641	
   21.9003	0.000546267	   21.8189	0.000535254	   21.7782	0.000406948	   21.8325	0.000496156	   21.8325	   12.4039	
   21.7687	0.000559435	   21.6842	0.000548513	   21.6444	0.000421088	   21.6991	0.000509678	   21.6991	    12.742	
   21.6352	0.000572318	   21.5441	0.000561809	   21.5073	0.000435421	   21.5622	0.000523183	   21.5622	   13.0796	
   21.4944	0.000584939	   21.4034	0.000575125	   21.3643	0.000449816	   21.4207	0.000536627	   21.4207	   13.4157	
   21.3464	0.000597383	   21.2613	0.000588231	   21.2153	0.000464142	   21.2743	0.000549919	   21.2743	    13.748	
    21.194	0.000609813	   21.1147	0.000601173	   21.0628	0.000478297	   21.1238	0.000563094	   21.1238	   14.0774	
   21.0369	0.000622196	    20.966	0.000614066	    20.909	0.000492259	   20.9706	0.000576174	   20.9706	   14.4043	
   20.8777	0.000634436	   20.8145	0.000626876	   20.7533	0.000506027	   20.8152	0.000589113	   20.8152	   14.7278	
   20.7159	0.000646595	   20.6601	0.000639487	   20.5953	0.000519612	   20.6571	0.000601898	   20.6571	   15.0475	
   20.5489	0.000658653	      20.5	0.00065194	   20.4347	0.00053312	   20.4945	0.000614571	   20.4945	   15.3643	
   20.3793	0.00067047	   20.3368	0.000664379	   20.2713	0.000546618	   20.3291	0.000627156	   20.3291	   15.6789	
   20.2046	0.000681988	   20.1656	0.000676864	   20.1024	0.00056018	   20.1575	0.000639677	   20.1575	   15.9919	
   20.0273	0.000693292	   19.9964	0.000689357	   19.9353	0.000573759	   19.9864	0.000652136	   19.9864	   16.3034	
   19.8474	0.000704516	   19.8238	0.000701819	   19.7646	0.000587308	   19.8119	0.000664547	   19.8119	   16.6137	
   19.6648	0.000715662	   19.6454	0.000714287	   19.5902	0.000600695	   19.6335	0.000676881	   19.6335	    16.922	
   19.4771	0.000726743	   19.4614	0.000726782	   19.4098	0.00061376	   19.4495	0.000689095	   19.4495	   17.2274	
   19.2919	0.000737756	   19.2795	0.000739279	   19.2262	0.000626482	   19.2659	0.000701173	   19.2659	   17.5293	
   19.1036	0.000748739	   19.0966	0.000751677	   19.0418	0.000638935	   19.0807	0.000713117	   19.0807	   17.8279	
   18.9124	0.000759611	     18.91	0.000763967	   18.8541	0.000651147	   18.8921	0.000724908	   18.8921	   18.1227	
   18.7183	0.000770232	   18.7175	0.000776195	    18.663	0.000663165	   18.6996	0.000736531	   18.6996	   18.4133	
   18.5168	0.000780673	   18.5222	0.000788388	   18.4689	0.000675073	   18.5026	0.000748045	   18.5026	   18.7011	
   18.3158	0.000790854	   18.3217	0.00080048	   18.2765	0.000686953	   18.3047	0.000759429	   18.3047	   18.9857	
   18.1104	0.000800767	   18.1165	0.000812437	   18.0783	0.000698745	   18.1017	0.00077065	   18.1017	   19.2662	
   17.9009	0.000810446	   17.9073	0.000824297	   17.8771	0.000710376	   17.8951	0.000781706	   17.8951	   19.5427	
   17.6856	0.00082001	   17.6921	0.000836065	   17.6733	0.00072179	   17.6837	0.000792622	   17.6837	   19.8155	
   17.4676	0.000829411	   17.4764	0.000847671	   17.4647	0.000732944	   17.4696	0.000803342	   17.4696	   20.0836	
   17.2495	0.000838647	   17.2603	0.000859019	   17.2542	0.00074389	   17.2547	0.000813852	   17.2547	   20.3463	
   17.0267	0.000847831	    17.039	0.000870129	   17.0373	0.000754671	   17.0343	0.00082421	   17.0343	   20.6053	
   16.8093	0.000856978	   16.8181	0.000881046	   16.8195	0.000765358	   16.8156	0.000834461	   16.8156	   20.8615	
   16.5871	0.000866062	   16.5927	0.000891724	   16.5962	0.000775986	    16.592	0.000844591	    16.592	   21.1148	
   16.3607	0.000875075	   16.3636	0.000902125	   16.3707	0.000786609	    16.365	0.000854603	    16.365	   21.3651	
   16.1284	0.000884046	   16.1314	0.000912316	   16.1385	0.000797272	   16.1328	0.000864545	   16.1328	   21.6136	
   15.8937	0.000892996	   15.8919	0.000922382	   15.9032	0.00080791	   15.8963	0.000874429	   15.8963	   21.8607	
    15.657	0.000901884	   15.6511	0.00093237	   15.6653	0.000818478	   15.6578	0.000884244	   15.6578	   22.1061	
   15.4188	0.000910707	   15.4071	0.000942275	   15.4231	0.00082894	   15.4163	0.000893974	   15.4163	   22.3493	
   15.1771	0.000919417	   15.1606	0.000952124	   15.1821	0.000839332	   15.1733	0.000903624	   15.1733	   22.5906	
   14.9302	0.000928025	   14.9099	0.000961901	   14.9353	0.000849644	   14.9251	0.00091319	   14.9251	   22.8297	
   14.6864	0.000936543	   14.6583	0.000971589	   14.6861	0.000859881	   14.6769	0.000922671	   14.6769	   23.0668	
   14.4384	0.000944986	   14.4061	 0.0009811	   14.4329	0.000870082	   14.4258	0.000932056	   14.4258	   23.3014	
   14.1893	0.000953364	   14.1516	0.000990405	    14.179	0.000880243	   14.1733	0.000941337	   14.1733	   23.5334	
   13.9326	0.000961717	   13.8953	0.000999491	   13.9224	0.000890356	   13.9168	0.000950521	   13.9168	    23.763	
   13.6721	0.000970093	   13.6356	0.00100839	    13.664	0.000900344	   13.6572	0.000959607	   13.6572	   23.9902	
   13.4135	0.000978498	   13.3734	0.00101713	   13.4067	0.000910216	   13.3979	0.000968613	   13.3979	   24.2153	
   13.1523	0.000986858	   13.1095	0.00102573	   13.1461	0.000919959	   13.1359	0.000977515	   13.1359	   24.4379	
   12.8939	0.000995152	   12.8445	0.00103423	   12.8854	0.000929545	   12.8746	0.000986308	   12.8746	   24.6577	
   12.6313	0.00100332	   12.5768	0.00104266	    12.618	0.000939003	   12.6087	0.000994993	   12.6087	   24.8748	
   12.3679	0.00101135	    12.305	  0.001051	   12.3478	0.000948339	   12.3402	0.00100356	   12.3402	   25.0891	
   12.0996	0.00101921	   12.0348	0.00105919	    12.078	0.000957589	   12.0708	0.00101199	   12.0708	   25.2999	
   11.8299	 0.0010269	   11.7618	0.00106717	   11.8067	0.000966725	   11.7995	0.00102027	   11.7995	   25.5067	
   11.5596	0.00103448	   11.4871	0.00107493	   11.5371	0.000975781	   11.5279	 0.0010284	   11.5279	   25.7099	
   11.2845	0.00104195	    11.209	0.00108248	   11.2624	0.000984739	    11.252	0.00103639	    11.252	   25.9097	
    11.013	0.00104935	   10.9311	0.00108984	   10.9909	0.000993586	   10.9783	0.00104426	   10.9783	   26.1064	
   10.7381	0.00105667	   10.6515	0.00109702	   10.7157	0.00100232	   10.7018	  0.001052	   10.7018	      26.3	
   10.4632	0.00106395	   10.3712	0.00110401	   10.4425	0.00101093	   10.4257	0.00105963	   10.4257	   26.4907	
   10.1866	0.00107109	   10.0885	0.00111087	   10.1623	0.00101943	   10.1458	0.00106713	   10.1458	   26.6783	
    9.9066	0.00107799	   9.79975	0.00111764	     9.879	0.00102781	   9.86178	0.00107448	   9.86178	    26.862	
   9.62444	0.00108476	    9.5112	0.00112428	   9.59613	0.00103602	   9.57726	0.00108169	   9.57726	   27.0422	
   9.34108	0.00109145	   9.22124	0.00113074	   9.30954	0.00104409	   9.29062	0.00108876	   9.29062	   27.2189	
   9.05499	0.00109797	    8.9308	0.00113704	   9.02287	0.00105198	   9.00289	0.00109566	   9.00289	   27.3915	
   8.76492	0.00110427	   8.63361	0.00114324	    8.7321	0.00105968	   8.71021	 0.0011024	   8.71021	   27.5599	
   8.47692	0.00111046	   8.33858	0.00114931	   8.44094	0.00106717	   8.41881	0.00110898	   8.41881	   27.7245	
    8.1843	0.00111658	   8.04144	0.00115521	   8.14784	0.00107445	   8.12453	0.00111542	   8.12453	   27.8854	
   7.89325	0.00112254	   7.74568	  0.001161	   7.85384	0.00108156	   7.83092	 0.0011217	   7.83092	   28.0425	
   7.59721	0.00112828	   7.45191	 0.0011667	   7.55986	0.00108855	   7.53633	0.00112784	   7.53633	    28.196	
   7.29769	0.00113381	   7.15355	 0.0011722	   7.26435	0.00109554	   7.23853	0.00113385	   7.23853	   28.3463	
   6.99843	0.00113917	   6.85681	0.00117745	    6.9683	0.00110234	   6.94118	0.00113965	   6.94118	   28.4913	
   6.69549	0.00114429	   6.55754	0.00118254	   6.66789	0.00110896	    6.6403	0.00114526	    6.6403	   28.6316	
   6.39266	 0.0011492	   6.26405	0.00118748	   6.37169	0.00111547	    6.3428	0.00115072	    6.3428	   28.7679	
   6.08843	0.00115395	   5.96683	0.00119217	   6.07044	0.00112193	    6.0419	0.00115602	    6.0419	   28.9004	
   5.78626	0.00115852	   5.66959	0.00119656	   5.76811	0.00112826	   5.74132	0.00116111	   5.74132	   29.0279	
     5.482	0.00116284	   5.36843	0.00120078	   5.46336	0.00113438	   5.43793	  0.001166	   5.43793	     29.15	
   5.17686	0.00116677	   5.07189	0.00120488	   5.15745	0.00114047	    5.1354	0.00117071	    5.1354	   29.2677	
   4.86951	0.00117038	     4.773	0.00120879	   4.85144	0.00114652	   4.83132	0.00117523	   4.83132	   29.3807	
   4.55881	0.00117371	   4.47057	0.00121248	   4.54155	0.00115241	   4.52364	0.00117954	   4.52364	   29.4884	
   4.24623	0.00117672	   4.16601	0.00121598	   4.23401	0.00115804	   4.21542	0.00118358	   4.21542	   29.5895	
   3.93305	0.00117951	   3.86052	0.00121929	    3.9247	 0.0011635	   3.90609	0.00118743	   3.90609	   29.6858	
   3.62505	0.00118212	   3.55515	0.00122237	    3.6172	0.00116881	   3.59913	 0.0011911	   3.59913	   29.7774	
   3.31535	0.00118464	   3.25081	0.00122523	   3.30982	0.00117388	   3.29199	0.00119458	   3.29199	   29.8646	
   3.00514	0.00118708	   2.94351	0.00122791	   3.00348	0.00117876	   2.98404	0.00119792	   2.98404	    29.948	
   2.69308	0.00118947	   2.64407	0.00123046	   2.69419	0.00118349	   2.67712	0.00120114	   2.67712	   30.0285	
   2.38043	0.00119194	   2.34508	0.00123298	   2.38571	0.00118822	   2.37041	0.00120438	   2.37041	   30.1095	
    2.0659	0.00119432	   2.04495	0.00123544	   2.07885	 0.0011929	   2.06323	0.00120756	   2.06323	   30.1889	
   1.75076	0.00119645	   1.74233	0.00123776	   1.77195	0.00119742	   1.75501	0.00121055	   1.75501	   30.2636	
    1.4432	0.00119827	   1.44084	 0.0012399	   1.46592	0.00120173	   1.44999	 0.0012133	   1.44999	   30.3325	
    1.1336	 0.0011997	   1.13881	0.00124177	    1.1592	0.00120571	   1.14387	0.00121573	   1.14387	   30.3932	
  0.825572	0.00120054	  0.834813	0.00124314	  0.855164	0.00120915	  0.838516	0.00121761	  0.838516	   30.4404	
  0.519812	0.00120076	  0.527666	0.00124381	  0.551948	0.00121184	  0.533142	0.00121881	  0.533142	   30.4702	
  0.214532	0.00120032	  0.221117	0.00124374	  0.247946	 0.0012138	  0.227865	0.00121929	  0.227865	   30.4822	
-0.0894275	0.00119948	-0.0863528	0.00124311	-0.0534528	0.00121521	 -0.076411	0.00121927	 -0.076411	   30.4817	
 -0.393717	0.00119836	 -0.393673	 0.0012421	 -0.351775	0.00121633	 -0.379722	0.00121893	 -0.379722	   30.4732	
 -0.699763	0.00119723	 -0.702306	0.00124094	  -0.64899	0.00121744	 -0.683686	0.00121854	 -0.683686	   30.4634	
  -1.00641	0.00119621	   -1.0064	0.00123999	 -0.949183	0.00121882	 -0.987329	0.00121834	 -0.987329	   30.4585	
  -1.31027	0.00119546	  -1.30808	0.00123957	  -1.24871	0.00122066	  -1.28902	0.00121856	  -1.28902	    30.464	
  -1.61325	0.00119502	   -1.6092	0.00123974	  -1.54918	0.00122297	  -1.59054	0.00121925	  -1.59054	   30.4811	
  -1.91693	0.00119481	  -1.90899	0.00124035	  -1.84725	0.00122555	  -1.89106	0.00122024	  -1.89106	   30.5059	
   -2.2227	0.00119453	  -2.21151	 0.0012411	  -2.14952	0.00122803	  -2.19458	0.00122122	  -2.19458	   30.5305	
  -2.52698	0.00119397	  -2.51549	0.00124161	  -2.45214	0.00123011	   -2.4982	 0.0012219	   -2.4982	   30.5475	
  -2.82908	0.00119307	  -2.81983	0.00124155	  -2.75417	0.00123156	  -2.80103	0.00122206	  -2.80103	   30.5515	
  -3.13081	0.00119168	  -3.12358	0.00124064	   -3.0572	 0.0012322	  -3.10386	0.00122151	  -3.10386	   30.5376	
  -3.42665	0.00118975	  -3.43066	0.00123884	  -3.36021	0.00123205	  -3.40584	0.00122021	  -3.40584	   30.5053	
  -3.72372	0.00118738	  -3.73258	0.00123629	  -3.66468	0.00123133	  -3.70699	0.00121833	  -3.70699	   30.4583	
  -4.01867	 0.0011848	  -4.03631	0.00123329	  -3.96948	0.00123034	  -4.00816	0.00121614	  -4.00816	   30.4036	
  -4.31575	0.00118216	  -4.34069	0.00123014	  -4.27369	0.00122932	  -4.31004	0.00121387	  -4.31004	   30.3468	
  -4.61382	0.00117949	  -4.64473	0.00122698	  -4.56939	0.00122829	  -4.60931	0.00121159	  -4.60931	   30.2897	
  -4.91192	0.00117676	  -4.94524	0.00122385	  -4.86648	0.00122724	  -4.90788	0.00120928	  -4.90788	    30.232	
  -5.20921	0.00117385	  -5.24422	0.00122066	  -5.16395	  0.001226	  -5.20579	0.00120684	  -5.20579	    30.171	
  -5.50736	0.00117065	  -5.54578	0.00121726	  -5.46328	0.00122437	  -5.50547	0.00120409	  -5.50547	   30.1023	
  -5.80303	0.00116695	  -5.84396	0.00121333	  -5.76099	0.00122217	  -5.80266	0.00120082	  -5.80266	   30.0204	
  -6.09579	0.00116263	  -6.14079	0.00120866	  -6.05648	 0.0012193	  -6.09769	0.00119686	  -6.09769	   29.9216	
  -6.38765	0.00115765	  -6.43565	0.00120327	  -6.35165	0.00121583	  -6.39165	0.00119225	  -6.39165	   29.8061	
  -6.68035	0.00115215	   -6.7304	0.00119728	  -6.64811	0.00121187	  -6.68629	 0.0011871	  -6.68629	   29.6776	
  -6.97301	0.00114638	  -7.02899	0.00119096	  -6.94488	0.00120777	  -6.98229	 0.0011817	  -6.98229	   29.5426	
   -7.2625	0.00114047	   -7.3253	0.00118452	  -7.24109	 0.0012038	   -7.2763	0.00117627	   -7.2763	   29.4066	
  -7.55326	0.00113464	   -7.6212	0.00117826	    -7.536	0.00120009	  -7.57015	0.00117099	  -7.57015	   29.2749	
  -7.84436	0.00112896	  -7.91597	 0.0011723	  -7.83138	0.00119669	   -7.8639	0.00116599	   -7.8639	   29.1496	
  -8.13263	0.00112348	  -8.20897	0.00116652	  -8.12635	0.00119355	  -8.15598	0.00116119	  -8.15598	   29.0296	
  -8.42249	0.00111804	  -8.49968	0.00116074	   -8.4202	0.00119044	  -8.44746	0.00115641	  -8.44746	   28.9102	
   -8.7106	0.00111246	   -8.7877	0.00115481	  -8.70993	0.00118708	  -8.73608	0.00115145	  -8.73608	   28.7862	
  -8.99651	0.00110662	   -9.0727	0.00114847	  -8.99778	0.00118324	  -9.02233	0.00114611	  -9.02233	   28.6528	
  -9.28219	0.00110042	  -9.35443	0.00114152	  -9.28329	0.00117888	  -9.30664	0.00114027	  -9.30664	   28.5068	
  -9.56697	0.00109384	  -9.63271	0.00113393	  -9.56611	0.00117394	   -9.5886	 0.0011339	   -9.5886	   28.3476	
  -9.84794	0.00108692	  -9.90743	0.00112585	  -9.84596	0.00116856	  -9.86711	0.00112711	  -9.86711	   28.1777	
  -10.1297	0.00107974	  -10.1785	0.00111737	  -10.1226	0.00116287	  -10.1436	   0.00112	  -10.1436	   27.9999	
  -10.4092	0.00107242	  -10.4484	0.00110864	  -10.3984	  0.001157	  -10.4187	0.00111269	  -10.4187	   27.8172	
  -10.6861	0.00106497	   -10.719	0.00109981	  -10.6728	0.00115102	  -10.6926	0.00110527	  -10.6926	   27.6317	
  -10.9602	0.00105738	  -10.9873	0.00109098	  -10.9477	0.00114492	  -10.9651	0.00109776	  -10.9651	    27.444	
   -11.229	0.00104961	  -11.2556	0.00108211	  -11.2227	0.00113863	  -11.2357	0.00109012	  -11.2357	   27.2529	
  -11.4974	0.00104151	  -11.5233	0.00107307	  -11.4946	0.00113197	  -11.5051	0.00108219	  -11.5051	   27.0547	
  -11.7626	0.00103293	  -11.7901	0.00106374	  -11.7681	0.00112488	  -11.7736	0.00107385	  -11.7736	   26.8463	
  -12.0294	0.00102382	  -12.0578	0.00105401	  -12.0377	0.00111731	  -12.0416	0.00106505	  -12.0416	   26.6262	
  -12.2946	0.00101431	  -12.3236	0.00104385	  -12.3058	0.00110926	   -12.308	0.00105581	   -12.308	   26.3952	
   -12.558	0.00100442	  -12.5848	0.00103332	  -12.5721	 0.0011008	  -12.5717	0.00104618	  -12.5717	   26.1545	
  -12.8218	0.000994261	  -12.8441	0.00102251	  -12.8341	0.00109208	  -12.8333	0.00103628	  -12.8333	    25.907	
  -13.0831	0.000983983	  -13.1037	0.00101157	  -13.0918	0.00108329	  -13.0929	0.00102628	  -13.0929	    25.657	
  -13.3419	0.000973696	  -13.3654	0.00100057	   -13.348	0.00107451	  -13.3518	0.00101626	  -13.3518	   25.4065	
   -13.598	0.000963419	  -13.6239	0.00098976	  -13.6001	 0.0010658	  -13.6073	0.00100633	  -13.6073	   25.1582	
  -13.8515	0.000953057	  -13.8791	0.000979297	  -13.8507	0.00105711	  -13.8604	0.000996489	  -13.8604	   24.9122	
  -14.1024	0.000942591	  -14.1335	0.000968981	  -14.0996	0.00104836	  -14.1119	0.000986644	  -14.1119	   24.6661	
  -14.3461	0.000931932	  -14.3846	0.000958623	   -14.347	0.00103946	  -14.3592	0.000976673	  -14.3592	   24.4168	
  -14.5905	0.000921081	  -14.6349	0.000948064	  -14.5926	0.00103028	   -14.606	0.000966475	   -14.606	   24.1619	
  -14.8327	0.000910028	  -14.8794	0.000937317	  -14.8341	0.00102075	  -14.8487	0.000956032	  -14.8487	   23.9008	
  -15.0754	0.000898771	  -15.1235	0.00092615	  -15.0719	0.00101081	  -15.0903	0.000945244	  -15.0903	   23.6311	
  -15.3158	0.000887385	  -15.3645	0.000914503	  -15.3088	0.00100051	  -15.3297	0.000934134	  -15.3297	   23.3534	
  -15.5541	0.000875904	  -15.6004	0.000902535	  -15.5423	0.000989928	  -15.5656	0.000922789	  -15.5656	   23.0697	
  -15.7903	0.00086435	  -15.8342	0.000890479	  -15.7751	0.000979135	  -15.7998	0.000911321	  -15.7998	    22.783	
  -16.0246	0.000852646	  -16.0659	0.000878368	  -16.0072	0.000968205	  -16.0325	0.00089974	  -16.0325	   22.4935	
  -16.2571	0.00084078	  -16.2958	0.000866162	  -16.2338	0.000957155	  -16.2622	0.000888032	  -16.2622	   22.2008	
  -16.4856	0.000828734	   -16.524	0.000853943	  -16.4581	0.000946024	  -16.4892	0.000876234	  -16.4892	   21.9058	
  -16.7083	0.000816474	  -16.7507	0.000841687	  -16.6828	0.000934674	  -16.7139	0.000864278	  -16.7139	    21.607	
  -16.9283	0.000803986	  -16.9737	0.000829236	  -16.9029	0.000923049	   -16.935	0.00085209	   -16.935	   21.3023	
  -17.1531	0.000791226	  -17.1959	0.000816471	  -17.1192	0.000911149	  -17.1561	0.000839615	  -17.1561	   20.9904	
  -17.3749	0.000778247	   -17.415	0.00080337	  -17.3347	0.000899011	  -17.3749	0.000826876	  -17.3749	   20.6719	
  -17.5942	0.000765055	  -17.6338	0.00078993	  -17.5471	0.000886647	  -17.5917	0.000813877	  -17.5917	   20.3469	
  -17.8065	0.000751671	  -17.8454	0.000776201	   -17.757	0.000874118	   -17.803	0.000800663	   -17.803	   20.0166	
  -18.0201	0.000738105	  -18.0531	0.000762268	  -17.9602	0.000861537	  -18.0111	0.000787303	  -18.0111	   19.6826	
  -18.2324	0.000724405	  -18.2602	0.000748181	  -18.1625	0.000848953	  -18.2184	0.000773846	  -18.2184	   19.3462	
  -18.4415	0.000710608	  -18.4644	0.000734118	  -18.3619	0.000836379	  -18.4226	0.000760369	  -18.4226	   19.0092	
  -18.6479	0.000696736	  -18.6664	0.000720253	  -18.5614	0.000823826	  -18.6252	0.000746938	  -18.6252	   18.6735	
  -18.8474	0.000682807	  -18.8667	0.00070618	  -18.7612	0.000811233	  -18.8251	0.000733407	  -18.8251	   18.3352	
  -19.0436	0.000668867	  -19.0658	0.00069208	  -18.9568	0.000798546	  -19.0221	0.000719831	  -19.0221	   17.9958	
  -19.2373	0.000654917	  -19.2593	0.000678074	  -19.1444	0.000785708	  -19.2136	0.000706233	  -19.2136	   17.6558	
  -19.4267	0.000640963	  -19.4483	0.000664275	  -19.3301	0.000772705	  -19.4017	0.000692647	  -19.4017	   17.3162	
  -19.6176	0.000626931	  -19.6291	0.000650278	  -19.5147	0.000759534	  -19.5871	0.000678914	  -19.5871	   16.9729	
  -19.8053	0.000612818	  -19.8082	0.000636161	  -19.6939	0.00074621	  -19.7691	0.000665063	  -19.7691	   16.6266	
  -19.9882	0.000598583	  -19.9813	0.000622206	  -19.8714	0.000732792	   -19.947	0.000651194	   -19.947	   16.2798	
  -20.1652	0.000584241	  -20.1524	0.00060826	  -20.0455	0.000719265	   -20.121	0.000637255	   -20.121	   15.9314	
  -20.3375	0.000569825	  -20.3245	0.00059406	  -20.2172	0.000705626	  -20.2931	0.00062317	  -20.2931	   15.5793	
  -20.5064	0.00055534	  -20.4909	0.000579615	   -20.385	0.000691897	  -20.4608	0.000608951	  -20.4608	   15.2238	
  -20.6728	0.000540855	  -20.6531	0.00056532	    -20.55	0.000678048	  -20.6253	0.000594741	  -20.6253	   14.8685	
  -20.8355	0.000526329	  -20.8123	0.000551069	  -20.7133	0.000664068	   -20.787	0.000580489	   -20.787	   14.5122	
  -20.9931	0.000511789	  -20.9673	0.000536832	  -20.8686	0.000649961	   -20.943	0.000566194	   -20.943	   14.1548	
  -21.1471	0.000497182	  -21.1169	0.000522659	  -21.0225	0.000635754	  -21.0955	0.000551865	  -21.0955	   13.7966	
   -21.294	0.000482478	  -21.2628	0.000508616	  -21.1712	0.000621426	  -21.2427	0.000537507	  -21.2427	   13.4377	
   -21.438	0.000467645	  -21.4015	0.000494763	  -21.3163	0.000606956	  -21.3853	0.000523121	  -21.3853	    13.078	
  -21.5781	0.000452647	  -21.5421	0.000480915	   -21.459	0.000592396	  -21.5264	0.000508653	  -21.5264	   12.7163	
  -21.7155	0.000437541	  -21.6781	0.000467067	  -21.5983	0.000577763	   -21.664	0.000494124	   -21.664	   12.3531	
  -21.8493	0.000422366	   -21.811	0.000453069	   -21.733	0.000563044	  -21.7978	0.000479493	  -21.7978	   11.9873	
  -21.9785	0.000407174	  -21.9423	0.000438888	  -21.8648	0.000548202	  -21.9285	0.000464755	  -21.9285	   11.6189	
  -22.1048	0.000392021	  -22.0708	0.000424559	  -21.9952	 0.0005334	  -22.0569	0.000449993	  -22.0569	   11.2498	
  -22.2272	0.000376947	  -22.1954	0.000410121	  -22.1204	0.000518714	   -22.181	0.00043526	   -22.181	   10.8815	
  -22.3427	0.000361953	  -22.3131	0.000395597	  -22.2423	0.000504109	  -22.2994	0.000420553	  -22.2994	   10.5138	
  -22.4534	0.000346974	  -22.4307	0.000381046	  -22.3601	0.000489522	  -22.4148	0.000405847	  -22.4148	   10.1462	
  -22.5612	0.000331961	  -22.5422	0.000366541	  -22.4708	0.000474938	  -22.5247	0.000391147	  -22.5247	   9.77866	
  -22.6676	0.00031689	  -22.6497	0.00035199	  -22.5789	0.000460291	  -22.6321	0.000376391	  -22.6321	   9.40976	
  -22.7718	0.000301779	   -22.755	0.000337307	  -22.6813	0.000445498	   -22.736	0.000361528	   -22.736	   9.03819	
  -22.8683	0.000286628	  -22.8479	0.000322439	  -22.7777	0.000430576	  -22.8313	0.000346548	  -22.8313	   8.66369	
  -22.9594	0.000271449	  -22.9385	0.000307398	   -22.868	0.000415543	   -22.922	0.000331464	   -22.922	   8.28659	
  -23.0451	0.00025632	  -23.0239	0.00029218	  -22.9567	0.000400428	  -23.0086	0.000316309	  -23.0086	   7.90773	
  -23.1251	0.00024124	  -23.1087	0.000276793	   -23.041	0.000385307	  -23.0916	0.000301113	  -23.0916	   7.52782	
  -23.2018	0.000226196	   -23.185	0.000261313	  -23.1227	0.000370223	  -23.1698	0.000285911	  -23.1698	   7.14776	
  -23.2725	0.000211111	  -23.2578	0.000245807	  -23.1991	0.000355091	  -23.2432	0.000270669	  -23.2432	   6.76673	
  -23.3421	0.00019595	  -23.3294	0.000230326	  -23.2702	0.000339847	  -23.3139	0.000255374	  -23.3139	   6.38436	
    -23.41	0.000180669	  -23.3967	0.000214872	  -23.3382	0.000324516	  -23.3816	0.000240019	  -23.3816	   6.00048	
  -23.4732	0.000165244	  -23.4596	0.000199414	  -23.3983	0.000309048	  -23.4437	0.000224569	  -23.4437	   5.61421	
  -23.5343	0.000149737	  -23.5182	0.000183888	  -23.4556	0.000293347	  -23.5027	0.000208991	  -23.5027	   5.22477	
  -23.5904	0.000134161	  -23.5771	0.000168265	  -23.5076	0.000277483	  -23.5584	0.000193303	  -23.5584	   4.83257	
  -23.6441	0.000118579	  -23.6333	0.000152523	  -23.5568	0.000261565	  -23.6114	0.000177556	  -23.6114	   4.43889	
  -23.6928	0.000103085	  -23.6843	0.000136656	  -23.6031	0.000245677	  -23.6601	0.000161806	  -23.6601	   4.04515	
   -23.739	8.76844e-05	  -23.7302	0.000120674	  -23.6465	0.000229896	  -23.7053	0.000146085	  -23.7053	   3.65211	
  -23.7827	7.2403e-05	  -23.7713	0.000104664	   -23.687	0.000214322	   -23.747	0.000130463	   -23.747	   3.26157	
  -23.8213	5.71759e-05	  -23.8079	8.86908e-05	   -23.722	0.000198945	  -23.7838	0.000114937	  -23.7838	   2.87343	
  -23.8552	4.20397e-05	  -23.8402	7.27648e-05	  -23.7545	0.000183616	  -23.8167	9.94735e-05	  -23.8167	   2.48684	
  -23.8871	2.69294e-05	  -23.8685	5.68877e-05	  -23.7821	0.000168358	  -23.8459	8.40582e-05	  -23.8459	   2.10146	
  -23.9146	1.18388e-05	  -23.8908	4.10591e-05	  -23.8076	0.000153158	   -23.871	6.86854e-05	   -23.871	   1.71713	
  -23.9333	-3.26637e-06	  -23.9099	2.52735e-05	  -23.8262	0.000137909	  -23.8898	5.33055e-05	  -23.8898	   1.33264	
  -23.9489	-1.84083e-05	  -23.9263	9.48726e-06	  -23.8436	0.00012257	  -23.9063	3.78829e-05	  -23.9063	  0.947073	
  -23.9619	-3.34621e-05	  -23.9377	-6.35992e-06	  -23.8573	0.000107208	  -23.9189	2.24619e-05	  -23.9189	  0.561547	
    -23.97	-4.84663e-05	  -23.9448	-2.22597e-05	  -23.8653	9.18887e-05	  -23.9267	7.05423e-06	  -23.9267	  0.176356	
  -23.9739	-6.34789e-05	  -23.9481	-3.82056e-05	  -23.8709	7.65431e-05	   -23.931	-8.38048e-06	   -23.931	 -0.209512	
  -23.9718	-7.85538e-05	  -23.9457	-5.41928e-05	  -23.8719	6.11718e-05	  -23.9298	-2.38583e-05	  -23.9298	 -0.596457	
  -23.9693	-9.3645e-05	   -23.941	-7.02215e-05	  -23.8689	4.57604e-05	  -23.9264	-3.93687e-05	  -23.9264	 -0.984217	
  -23.9595	-0.000108765	  -23.9318	-8.62456e-05	  -23.8602	3.02958e-05	  -23.9172	-5.49048e-05	  -23.9172	  -1.37262	
  -23.9458	-0.000123978	  -23.9191	-0.000102245	  -23.8492	1.47804e-05	  -23.9047	-7.0481e-05	  -23.9047	  -1.76202	
   -23.929	-0.000139242	  -23.9033	-0.000118264	  -23.8362	-8.24963e-07	  -23.8895	-8.61105e-05	  -23.8895	  -2.15276	
  -23.9073	-0.000154445	  -23.8828	-0.000134262	  -23.8217	-1.64638e-05	  -23.8706	-0.000101723	  -23.8706	  -2.54309	
  -23.8794	-0.000169566	  -23.8585	-0.000150258	  -23.8013	-3.20802e-05	  -23.8464	-0.000117301	  -23.8464	  -2.93253	
  -23.8464	-0.000184604	  -23.8288	-0.00016625	  -23.7762	-4.76025e-05	  -23.8171	-0.000132819	  -23.8171	  -3.32046	
  -23.8094	-0.00019951	  -23.7948	-0.00018226	  -23.7425	-6.30175e-05	  -23.7822	-0.000148262	  -23.7822	  -3.70656	
  -23.7694	-0.000214281	  -23.7599	-0.000198269	  -23.7042	-7.83453e-05	  -23.7445	-0.000163632	  -23.7445	   -4.0908	
  -23.7297	-0.000228993	  -23.7199	-0.000214236	  -23.6648	-9.3562e-05	  -23.7048	-0.00017893	  -23.7048	  -4.47326	
  -23.6858	-0.000243731	  -23.6759	-0.000230228	  -23.6225	-0.000108682	  -23.6614	-0.000194214	  -23.6614	  -4.85534	
  -23.6413	-0.000258406	  -23.6313	-0.000246067	  -23.5758	-0.000123708	  -23.6161	-0.000209394	  -23.6161	  -5.23484	
  -23.5896	-0.000272974	  -23.5821	-0.000261701	  -23.5234	-0.000138701	   -23.565	-0.000224459	   -23.565	  -5.61148	
  -23.5323	-0.000287459	  -23.5293	-0.000277186	  -23.4692	-0.000153623	  -23.5103	-0.000239423	  -23.5103	  -5.98557	
  -23.4708	-0.00030186	  -23.4718	-0.00029252	  -23.4092	-0.000168419	  -23.4506	-0.000254266	  -23.4506	  -6.35666	
   -23.404	-0.000316071	  -23.4037	-0.000307675	   -23.345	-0.00018319	  -23.3842	-0.000268979	  -23.3842	  -6.72447	
  -23.3359	-0.000330131	  -23.3343	-0.000322587	  -23.2778	-0.000197881	   -23.316	-0.000283533	   -23.316	  -7.08832	
  -23.2625	-0.000344072	    -23.26	-0.000337389	  -23.2041	-0.00021256	  -23.2422	-0.000298007	  -23.2422	  -7.45018	
  -23.1879	-0.000357875	  -23.1798	-0.000352097	  -23.1303	-0.000227275	   -23.166	-0.000312415	   -23.166	  -7.81039	
  -23.1082	-0.000371525	  -23.0955	-0.000366621	  -23.0478	-0.000242056	  -23.0838	-0.000326734	  -23.0838	  -8.16835	
  -23.0251	-0.00038504	  -23.0086	-0.000380915	  -22.9635	-0.000256872	   -22.999	-0.000340943	   -22.999	  -8.52356	
  -22.9376	-0.000398399	  -22.9204	-0.000394989	  -22.8738	-0.000271699	  -22.9106	-0.000355029	  -22.9106	  -8.87572	
  -22.8472	-0.00041156	  -22.8272	-0.000408868	  -22.7804	-0.000286587	  -22.8183	-0.000369005	  -22.8183	  -9.22513	
   -22.753	-0.000424577	  -22.7309	-0.000422537	  -22.6802	-0.000301424	  -22.7214	-0.000382846	  -22.7214	  -9.57115	
  -22.6543	-0.000437534	  -22.6305	-0.000436044	  -22.5753	-0.000316114	    -22.62	-0.000396564	    -22.62	   -9.9141	
  -22.5502	-0.000450471	  -22.5277	-0.000449392	  -22.4673	-0.000330648	  -22.5151	-0.000410171	  -22.5151	  -10.2543	
  -22.4405	-0.000463502	  -22.4192	-0.000462671	  -22.3533	-0.00034507	  -22.4043	-0.000423748	  -22.4043	  -10.5937	
  -22.3293	-0.000476662	  -22.3047	-0.000475965	  -22.2353	-0.000359395	  -22.2898	-0.000437341	  -22.2898	  -10.9335	
  -22.2135	-0.000490031	  -22.1862	-0.000489346	  -22.1176	-0.000373613	  -22.1724	-0.000450997	  -22.1724	  -11.2749	
  -22.0949	-0.000503509	  -22.0633	-0.00050276	  -21.9942	-0.000387801	  -22.0508	-0.00046469	  -22.0508	  -11.6172	
  -21.9705	-0.000516939	  -21.9355	-0.000516192	  -21.8696	-0.000401971	  -21.9252	-0.000478367	  -21.9252	  -11.9592	
  -21.8425	-0.000530252	   -21.805	-0.00052964	  -21.7431	-0.000416132	  -21.7969	-0.000492008	  -21.7969	  -12.3002	
   -21.715	-0.000543464	  -21.6711	-0.00054304	  -21.6139	-0.000430254	  -21.6667	-0.000505586	  -21.6667	  -12.6397	
  -21.5824	-0.000556559	  -21.5358	-0.000556295	  -21.4814	-0.000444263	  -21.5332	-0.000519039	  -21.5332	   -12.976	
  -21.4468	-0.000569442	  -21.3961	-0.000569419	  -21.3475	-0.000458126	  -21.3968	-0.000532329	  -21.3968	  -13.3082	
  -21.3054	-0.000582149	  -21.2516	-0.000582431	  -21.2091	-0.000471815	  -21.2553	-0.000545465	  -21.2553	  -13.6366	
  -21.1604	-0.000594807	  -21.1046	-0.000595369	   -21.066	-0.000485345	  -21.1103	-0.000558507	  -21.1103	  -13.9627	
  -21.0117	-0.000607397	  -20.9548	-0.000608213	   -20.918	-0.000498738	  -20.9615	-0.000571449	  -20.9615	  -14.2862	
  -20.8542	-0.00061984	  -20.8017	-0.000621003	  -20.7627	-0.000511974	  -20.8062	-0.000584272	  -20.8062	  -14.6068	
  -20.6933	-0.000632057	  -20.6475	-0.000633734	  -20.6053	-0.000525111	  -20.6487	-0.000596967	  -20.6487	  -14.9242	
  -20.5289	-0.000644068	  -20.4892	-0.000646394	  -20.4429	-0.000538219	   -20.487	-0.00060956	   -20.487	   -15.239	
  -20.3608	-0.000655895	  -20.3245	-0.000658935	  -20.2757	-0.000551337	  -20.3203	-0.000622056	  -20.3203	  -15.5514	
  -20.1891	-0.000667569	  -20.1608	-0.000671324	  -20.1061	-0.000564381	   -20.152	-0.000634425	   -20.152	  -15.8606	
  -20.0137	-0.000679141	  -19.9901	-0.00068359	  -19.9341	-0.000577341	  -19.9793	-0.00064669	  -19.9793	  -16.1673	
  -19.8347	-0.000690689	  -19.8154	-0.000695735	  -19.7569	-0.000590234	  -19.8024	-0.000658886	  -19.8024	  -16.4722	
  -19.6545	-0.00070232	  -19.6344	-0.000707806	  -19.5773	-0.000603009	  -19.6221	-0.000671045	  -19.6221	  -16.7761	
  -19.4706	-0.000714006	    -19.45	-0.000719855	  -19.3953	-0.000615639	  -19.4386	-0.000683167	  -19.4386	  -17.0792	
  -19.2853	-0.000725739	  -19.2622	-0.000731869	  -19.2106	-0.000628121	  -19.2527	-0.000695243	  -19.2527	  -17.3811	
  -19.0986	-0.000737373	  -19.0712	-0.000743862	  -19.0234	-0.000640527	  -19.0644	-0.000707254	  -19.0644	  -17.6813	
  -18.9032	-0.000748829	  -18.8771	-0.000755823	  -18.8337	-0.000652893	  -18.8714	-0.000719182	  -18.8714	  -17.9795	
  -18.7096	-0.00076004	  -18.6802	-0.000767791	  -18.6415	-0.000665238	  -18.6771	-0.000731023	  -18.6771	  -18.2756	
  -18.5148	-0.00077102	  -18.4805	-0.000779727	  -18.4467	-0.000677577	  -18.4807	-0.000742774	  -18.4807	  -18.5694	
  -18.3163	-0.000781779	  -18.2782	-0.000791612	  -18.2473	-0.000689881	  -18.2806	-0.000754424	  -18.2806	  -18.8606	
  -18.1098	-0.000792388	  -18.0736	-0.000803468	  -18.0436	-0.000702127	  -18.0757	-0.000765994	  -18.0757	  -19.1499	
   -17.901	-0.000802968	  -17.8668	-0.000815307	  -17.8337	-0.00071426	  -17.8671	-0.000777511	  -17.8671	  -19.4378	
  -17.6853	-0.000813466	  -17.6556	-0.000827092	  -17.6207	-0.000726221	  -17.6539	-0.000788927	  -17.6539	  -19.7232	
  -17.4685	-0.000823843	  -17.4405	-0.000838732	  -17.4075	-0.000737959	  -17.4388	-0.000800178	  -17.4388	  -20.0045	
  -17.2506	-0.000834094	  -17.2197	-0.00085026	  -17.1891	-0.000749451	  -17.2198	-0.000811268	  -17.2198	  -20.2817	
  -17.0271	-0.000844234	  -16.9987	-0.000861642	  -16.9664	-0.000760741	  -16.9974	-0.000822205	  -16.9974	  -20.5551	
  -16.8059	-0.000854152	  -16.7753	-0.000872782	    -16.74	-0.000771858	  -16.7737	-0.000832931	  -16.7737	  -20.8233	
  -16.5796	-0.000863816	  -16.5474	-0.000883699	  -16.5129	-0.000783007	  -16.5466	-0.000843507	  -16.5466	  -21.0877	
   -16.349	-0.000873333	  -16.3181	-0.000894478	  -16.2851	-0.000794092	  -16.3174	-0.000853968	  -16.3174	  -21.3492	
  -16.1147	-0.000882776	  -16.0853	-0.000905125	  -16.0546	-0.000804934	  -16.0849	-0.000864278	  -16.0849	   -21.607	
  -15.8799	-0.000892144	  -15.8521	-0.000915589	  -15.8195	-0.000815734	  -15.8505	-0.000874489	  -15.8505	  -21.8622	
  -15.6425	-0.000901452	   -15.614	-0.000925889	   -15.583	-0.000826594	  -15.6131	-0.000884645	  -15.6131	  -22.1161	
  -15.4029	-0.000910694	  -15.3741	-0.000936068	   -15.343	-0.0008375	  -15.3733	-0.000894754	  -15.3733	  -22.3688	
   -15.157	-0.000919836	   -15.133	-0.000946078	  -15.1027	-0.000848173	  -15.1309	-0.000904696	  -15.1309	  -22.6174	
  -14.9107	-0.00092881	  -14.8886	-0.000955841	  -14.8623	-0.000858803	  -14.8872	-0.000914485	  -14.8872	  -22.8621	
   -14.662	-0.000937548	  -14.6418	-0.000965345	   -14.622	-0.000869517	  -14.6419	-0.000924137	  -14.6419	  -23.1034	
  -14.4114	-0.000946048	  -14.3908	-0.000974742	  -14.3797	-0.000880145	   -14.394	-0.000933645	   -14.394	  -23.3411	
  -14.1573	-0.000954359	  -14.1412	-0.000984107	  -14.1288	-0.000890476	  -14.1424	-0.000942981	  -14.1424	  -23.5745	
  -13.9029	-0.000962581	  -13.8884	-0.000993413	  -13.8756	-0.000900537	   -13.889	-0.000952177	   -13.889	  -23.8044	
  -13.6462	-0.000970776	  -13.6333	-0.00100266	  -13.6207	-0.000910492	  -13.6334	-0.00096131	  -13.6334	  -24.0327	
   -13.388	-0.00097897	  -13.3765	-0.00101192	  -13.3625	-0.000920388	  -13.3757	-0.000970425	  -13.3757	  -24.2606	
  -13.1335	-0.000987168	  -13.1187	-0.00102115	  -13.0995	-0.000930186	  -13.1173	-0.0009795	  -13.1173	  -24.4875	
  -12.8756	-0.000995283	  -12.8604	-0.00103025	  -12.8375	-0.000939957	  -12.8578	-0.000988496	  -12.8578	  -24.7124	
  -12.6127	-0.00100339	   -12.595	-0.0010391	  -12.5721	-0.000949751	  -12.5933	-0.000997416	  -12.5933	  -24.9354	
  -12.3461	-0.00101129	  -12.3264	-0.00104775	  -12.3019	-0.000959636	  -12.3248	-0.00100623	  -12.3248	  -25.1556	
  -12.0767	-0.00101889	  -12.0556	-0.00105617	  -12.0352	-0.000969535	  -12.0558	-0.00101487	  -12.0558	  -25.3716	
  -11.8078	-0.00102634	  -11.7833	-0.00106439	   -11.765	-0.000979354	  -11.7854	-0.00102336	  -11.7854	   -25.584	
  -11.5376	-0.00103378	  -11.5081	-0.00107242	  -11.4923	-0.000989003	  -11.5127	-0.00103173	  -11.5127	  -25.7933	
  -11.2644	-0.00104119	  -11.2333	-0.00108025	  -11.2179	-0.000998467	  -11.2385	-0.00103997	  -11.2385	  -25.9992	
  -10.9868	-0.00104845	  -10.9594	-0.0010879	  -10.9451	-0.00100777	  -10.9638	-0.00104804	  -10.9638	   -26.201	
  -10.7085	-0.00105576	  -10.6821	-0.00109532	  -10.6695	-0.00101691	  -10.6867	-0.00105599	  -10.6867	  -26.3998	
  -10.4278	-0.00106313	  -10.4049	-0.00110246	   -10.392	-0.00102588	  -10.4082	-0.00106382	  -10.4082	  -26.5956	
  -10.1409	-0.00107038	   -10.126	-0.00110924	  -10.1112	-0.00103478	  -10.1261	-0.00107147	  -10.1261	  -26.7867	
  -9.84949	-0.00107733	  -9.84161	-0.00111573	  -9.82591	-0.00104368	    -9.839	-0.00107891	    -9.839	  -26.9728	
  -9.55733	-0.00108402	  -9.55786	 -0.001122	  -9.53974	-0.00105246	  -9.55164	-0.00108616	  -9.55164	   -27.154	
  -9.26056	-0.00109054	  -9.27301	-0.0011281	  -9.25121	-0.00106099	  -9.26159	-0.00109321	  -9.26159	  -27.3302	
  -8.96305	-0.00109687	  -8.98553	-0.00113407	  -8.96137	-0.00106918	  -8.96998	-0.00110004	  -8.96998	   -27.501	
  -8.66572	-0.00110307	  -8.69653	-0.00113997	  -8.67117	-0.00107699	  -8.67781	-0.00110668	  -8.67781	  -27.6669	
  -8.37174	-0.00110916	  -8.40695	-0.00114586	  -8.37903	-0.00108439	  -8.38591	-0.00111314	  -8.38591	  -27.8284	
  -8.07903	-0.00111525	  -8.11525	-0.0011517	  -8.08599	-0.00109135	  -8.09342	-0.00111943	  -8.09342	  -27.9858	
   -7.7858	-0.00112135	  -7.82251	-0.00115744	  -7.79061	-0.00109798	  -7.79964	-0.00112559	  -7.79964	  -28.1397	
  -7.49057	-0.00112738	  -7.52728	-0.00116307	  -7.48929	-0.00110445	  -7.50238	-0.00113163	  -7.50238	  -28.2908	
  -7.19441	-0.00113323	  -7.22838	-0.00116859	  -7.18849	-0.00111087	  -7.20376	-0.00113756	  -7.20376	  -28.4391	
    -6.903	-0.00113879	  -6.92953	 -0.001174	  -6.89136	-0.00111729	  -6.90797	-0.00114336	  -6.90797	   -28.584	
  -6.60931	-0.00114417	  -6.62682	-0.00117934	  -6.59346	-0.00112368	  -6.60986	-0.00114906	  -6.60986	  -28.7265	
  -6.31681	-0.00114938	   -6.3217	-0.00118459	  -6.29335	-0.00113003	  -6.31062	-0.00115467	  -6.31062	  -28.8667	
  -6.02137	-0.00115431	  -6.01543	-0.00118971	  -5.99221	-0.00113617	  -6.00967	-0.00116007	  -6.00967	  -29.0016	
  -5.72423	-0.00115883	  -5.71146	-0.00119474	  -5.68869	-0.00114225	  -5.70813	-0.00116527	  -5.70813	  -29.1318	
  -5.42645	-0.00116316	  -5.40562	-0.00119964	  -5.38639	-0.00114816	  -5.40615	-0.00117032	  -5.40615	   -29.258	
  -5.12421	-0.00116763	  -5.10146	-0.00120429	    -5.086	-0.00115378	  -5.10389	-0.00117523	  -5.10389	  -29.3809	
  -4.82141	-0.00117218	  -4.79489	-0.00120863	  -4.78574	-0.00115905	  -4.80068	-0.00117995	  -4.80068	  -29.4988	
  -4.51899	-0.00117663	  -4.48717	-0.00121264	  -4.48406	-0.00116405	  -4.49674	-0.00118444	  -4.49674	   -29.611	
  -4.21542	-0.00118094	  -4.17706	-0.00121637	  -4.18205	-0.00116889	  -4.19151	-0.00118873	  -4.19151	  -29.7184	
