# User: ACHyster
# File name: C:/ACHYSTER/ACHyster SENS/SHAMS/CoFe2O4-1gl-water-Zero Glycerol- Sens-07-03-2023/CoFe2O4-1gl-water-zero Glycerol- 10_100F- 12kAm -Sens-07-03-20230001#1.txt
# Saved at: ma. mar. 7 14:33:03 2023
# Hyster Loop (3 iterations). Intensity: 12.0 kA/m; Tuned frequency: 19.8 kHz
# Units x axis: (kA/m)
# Units y axis: "Repeats y" & "Average y" (10^(-3)Am^2); "Mass avg y" (Am^2/kg)
# Magnetic mass: 4e-05 g
# Parameter      	Repeat   1	Repeat   2	Repeat   3	Average   	Sigma     
# H_C (kA/m)     	       5.2	       5.2	       5.2	       5.2	       0.0
# M_R (Am^2/kg)  	      38.0	      38.0	      37.9	      38.0	       0.0
# M_max (Am^2/kg)	      67.7	      68.3	      68.2	      68.1	       0.2
# Area (mJ/kg)   	    1445.6	    1448.9	    1448.7	    1447.7	       1.5
# SAR (W/g)      	      28.6	      28.7	      28.6	      28.6	       0.0
#Repeat 1 x	Repeat 1 y	Repeat 2 x	Repeat 2 y	Repeat 3 x	Repeat 3 y	Average x 	Average y 	Mass avg x 	Mass avg y 
  -1.68746	-0.00185617	   -1.6961	-0.00185196	  -1.68599	-0.00185217	  -1.68985	-0.00185343	  -1.68985	  -46.3358	
  -1.61254	-0.00184306	  -1.62087	-0.00183843	  -1.61097	-0.00183912	  -1.61479	-0.0018402	  -1.61479	  -46.0051	
  -1.53772	-0.00182989	  -1.54573	-0.00182474	  -1.53606	-0.0018259	  -1.53984	-0.00182684	  -1.53984	  -45.6711	
   -1.4627	-0.00181656	  -1.47033	-0.00181098	  -1.46104	-0.00181248	  -1.46469	-0.00181334	  -1.46469	  -45.3334	
  -1.38771	-0.00180298	  -1.39496	-0.00179707	  -1.38599	-0.00179895	  -1.38956	-0.00179967	  -1.38956	  -44.9917	
  -1.31264	-0.00178935	  -1.31955	 -0.001783	   -1.3109	-0.00178532	  -1.31436	-0.00178589	  -1.31436	  -44.6472	
  -1.23747	-0.00177555	  -1.24404	-0.00176884	  -1.23574	-0.00177149	  -1.23908	-0.00177196	  -1.23908	   -44.299	
  -1.16242	-0.00176152	  -1.16865	-0.00175456	  -1.16075	-0.0017575	  -1.16394	-0.00175786	  -1.16394	  -43.9465	
  -1.08713	-0.00174743	  -1.09312	-0.00174013	  -1.08556	-0.00174341	  -1.08861	-0.00174366	  -1.08861	  -43.5914	
  -1.01191	-0.00173317	  -1.01764	-0.0017256	  -1.01045	-0.0017291	  -1.01334	-0.00172929	  -1.01334	  -43.2322	
 -0.936556	-0.00171869	 -0.942141	-0.00171094	 -0.935196	-0.00171465	 -0.937964	-0.00171476	 -0.937964	   -42.869	
 -0.861135	-0.00170409	 -0.866551	-0.00169612	 -0.859796	-0.00170008	 -0.862494	-0.0017001	 -0.862494	  -42.5024	
 -0.785714	-0.00168937	  -0.79105	-0.00168118	 -0.784429	-0.0016853	 -0.787064	-0.00168528	 -0.787064	  -42.1321	
 -0.710155	-0.00167448	 -0.715501	-0.00166613	 -0.708905	-0.00167036	  -0.71152	-0.00167032	  -0.71152	  -41.7581	
 -0.634681	-0.00165948	 -0.640007	-0.00165092	 -0.633445	-0.00165529	 -0.636044	-0.00165523	 -0.636044	  -41.3807	
 -0.559143	-0.00164431	 -0.564474	-0.00163559	 -0.557804	  -0.00164	 -0.560474	-0.00163997	 -0.560474	  -40.9991	
 -0.483557	-0.00162896	 -0.488866	-0.00162016	 -0.482108	-0.00162457	 -0.484844	-0.00162456	 -0.484844	  -40.6141	
 -0.408044	-0.00161351	 -0.413558	-0.00160453	 -0.406477	-0.00160899	  -0.40936	-0.00160901	  -0.40936	  -40.2252	
 -0.332402	-0.0015979	 -0.338028	-0.00158878	 -0.330868	-0.00159322	 -0.333766	-0.0015933	 -0.333766	  -39.8326	
  -0.25686	-0.00158212	 -0.262339	-0.00157298	 -0.255121	-0.00157729	 -0.258107	-0.00157746	 -0.258107	  -39.4366	
 -0.181322	-0.00156619	 -0.186737	-0.00155697	  -0.17943	-0.0015612	 -0.182496	-0.00156145	 -0.182496	  -39.0364	
 -0.105747	-0.00155012	 -0.110856	-0.00154084	 -0.103757	-0.00154497	 -0.106786	-0.00154531	 -0.106786	  -38.6328	
-0.0303555	-0.0015339	-0.0347981	-0.00152461	 -0.028211	-0.00152862	-0.0311215	-0.00152904	-0.0311215	  -38.2261	
 0.0452152	-0.00151751	 0.0408478	-0.00150818	 0.0474628	-0.00151209	 0.0445086	-0.00151259	 0.0445086	  -37.8148	
  0.120737	-0.00150098	  0.116629	-0.00149163	  0.123092	-0.00149538	  0.120153	 -0.001496	  0.120153	  -37.3999	
  0.196251	-0.00148432	  0.192608	-0.00147496	  0.198716	-0.00147856	  0.195858	-0.00147928	  0.195858	   -36.982	
  0.271796	-0.00146749	  0.268346	-0.00145809	  0.274375	-0.00146159	  0.271506	-0.00146239	  0.271506	  -36.5598	
  0.347212	-0.00145048	  0.343906	-0.00144108	  0.349852	-0.00144445	   0.34699	-0.00144534	   0.34699	  -36.1334	
    0.4229	-0.00143341	  0.419543	-0.00142394	  0.425455	-0.00142719	  0.422632	-0.00142818	  0.422632	  -35.7046	
  0.498669	-0.00141621	  0.495339	-0.00140662	  0.500956	-0.0014098	  0.498321	-0.00141087	  0.498321	  -35.2718	
  0.573876	-0.00139873	  0.571033	-0.00138912	  0.576484	-0.00139225	  0.573797	-0.00139337	  0.573797	  -34.8342	
  0.649028	-0.00138116	  0.646702	-0.00137153	  0.652044	-0.00137454	  0.649258	-0.00137574	  0.649258	  -34.3935	
  0.724528	-0.00136354	  0.722386	-0.00135377	  0.727519	-0.00135668	  0.724811	-0.00135799	  0.724811	  -33.9498	
  0.800126	-0.00134567	  0.798004	-0.00133577	  0.802994	-0.00133871	  0.800375	-0.00134005	  0.800375	  -33.5012	
  0.875552	-0.00132765	  0.873517	-0.00131767	  0.878369	-0.00132056	  0.875813	-0.00132196	  0.875813	   -33.049	
  0.950882	-0.00130959	  0.948997	-0.00129946	  0.953607	-0.00130227	  0.951162	-0.00130377	  0.951162	  -32.5943	
   1.02624	-0.00129132	   1.02451	-0.00128106	    1.0289	-0.00128386	   1.02655	-0.00128541	   1.02655	  -32.1353	
   1.10147	-0.00127288	    1.0999	-0.00126251	   1.10407	-0.00126524	   1.10181	-0.00126688	   1.10181	  -31.6719	
   1.17665	-0.00125437	   1.17535	-0.00124379	   1.17926	-0.00124648	   1.17709	-0.00124821	   1.17709	  -31.2053	
   1.25174	-0.0012357	    1.2507	-0.00122494	   1.25438	-0.00122764	   1.25227	-0.00122943	   1.25227	  -30.7357	
   1.32674	-0.00121685	   1.32595	-0.00120598	   1.32946	-0.00120863	   1.32738	-0.00121049	   1.32738	  -30.2622	
   1.40179	-0.00119791	   1.40125	-0.00118682	    1.4046	-0.00118945	   1.40255	-0.00119139	   1.40255	  -29.7848	
   1.47669	-0.00117882	   1.47642	-0.0011675	   1.47959	-0.00117021	   1.47757	-0.00117218	   1.47757	  -29.3045	
   1.55162	-0.00115956	   1.55163	-0.00114807	   1.55467	-0.00115082	   1.55264	-0.00115281	   1.55264	  -28.8204	
   1.62649	-0.00114017	   1.62676	-0.00112847	   1.62968	-0.00113125	   1.62765	-0.0011333	   1.62765	  -28.3324	
   1.70129	-0.00112065	   1.70175	-0.00110874	   1.70452	-0.00111162	   1.70252	-0.00111367	   1.70252	  -27.8417	
   1.77611	-0.00110094	   1.77671	-0.0010889	   1.77939	-0.00109186	    1.7774	-0.0010939	    1.7774	  -27.3474	
   1.85074	-0.00108108	   1.85153	-0.0010689	   1.85407	-0.00107192	   1.85211	-0.00107397	   1.85211	  -26.8492	
   1.92539	-0.00106112	   1.92621	-0.00104876	   1.92884	-0.00105191	   1.92681	-0.00105393	   1.92681	  -26.3483	
   2.00001	-0.00104096	   2.00085	-0.00102852	   2.00356	-0.00103179	   2.00147	-0.00103376	   2.00147	  -25.8439	
   2.07448	-0.00102066	    2.0753	-0.00100812	   2.07799	-0.0010115	   2.07592	-0.00101343	   2.07592	  -25.3357	
   2.14906	-0.00100024	   2.14972	-0.000987592	   2.15243	-0.000991118	   2.15041	-0.000992982	   2.15041	  -24.8246	
   2.22348	-0.000979637	     2.224	-0.000966945	   2.22674	-0.000970612	   2.22474	-0.000972398	   2.22474	    -24.31	
   2.29775	-0.00095888	   2.29809	-0.000946126	   2.30085	-0.00094994	    2.2989	-0.000951649	    2.2989	  -23.7912	
   2.37202	-0.000938023	   2.37215	-0.000925209	     2.375	-0.000929158	   2.37305	-0.000930796	   2.37305	  -23.2699	
   2.44608	-0.000917004	   2.44598	-0.000904192	   2.44895	-0.000908259	   2.44701	-0.000909818	   2.44701	  -22.7455	
    2.5202	-0.000895782	   2.51975	-0.000882947	   2.52294	-0.000887186	   2.52096	-0.000888638	   2.52096	   -22.216	
   2.59421	-0.000874468	   2.59345	-0.000861562	   2.59684	-0.000866013	   2.59483	-0.000867348	   2.59483	  -21.6837	
   2.66803	-0.00085305	   2.66694	-0.000840108	   2.67056	-0.000844747	   2.66851	-0.000845969	   2.66851	  -21.1492	
   2.74186	-0.000831411	   2.74052	-0.000818454	   2.74432	-0.000823283	   2.74223	-0.000824382	   2.74223	  -20.6096	
   2.81548	-0.000809631	   2.81395	-0.000796638	   2.81789	-0.000801714	   2.81577	-0.000802661	   2.81577	  -20.0665	
   2.88905	-0.000787771	   2.88729	-0.000774738	   2.89142	-0.000780049	   2.88925	-0.000780853	   2.88925	  -19.5213	
   2.96258	-0.00076572	   2.96057	-0.000752688	   2.96492	-0.000758191	   2.96269	-0.000758867	   2.96269	  -18.9717	
   3.03592	-0.000743494	    3.0336	-0.000730514	   3.03815	-0.000736211	   3.03589	-0.00073674	   3.03589	  -18.4185	
   3.10923	-0.000721209	   3.10658	-0.000708204	   3.11131	-0.000714141	   3.10904	-0.000714518	   3.10904	  -17.8629	
   3.18241	-0.000698757	   3.17949	-0.000685765	   3.18437	-0.000691883	   3.18209	-0.000692135	   3.18209	  -17.3034	
   3.25532	-0.000676117	   3.25222	-0.000663214	   3.25724	-0.000669499	   3.25493	-0.00066961	   3.25493	  -16.7402	
   3.32823	-0.000653415	   3.32493	-0.000640505	   3.33012	-0.000647029	   3.32776	-0.000646983	   3.32776	  -16.1746	
   3.40092	-0.000630562	   3.39747	-0.000617666	   3.40282	-0.000624402	   3.40041	-0.00062421	   3.40041	  -15.6053	
   3.47345	-0.00060752	   3.46988	-0.000594747	   3.47535	-0.000601648	    3.4729	-0.000601305	    3.4729	  -15.0326	
   3.54596	-0.000584402	   3.54229	-0.000571672	   3.54788	-0.000578816	   3.54538	-0.000578297	   3.54538	  -14.4574	
   3.61818	-0.000561169	   3.61446	-0.000548451	   3.62013	-0.000555854	   3.61759	-0.000555158	   3.61759	   -13.879	
   3.69033	-0.00053776	   3.68641	-0.000525144	   3.69233	-0.000532781	   3.68969	-0.000531895	   3.68969	  -13.2974	
   3.76228	-0.000514278	   3.75826	-0.000501712	   3.76444	-0.000509643	   3.76166	-0.000508545	   3.76166	  -12.7136	
   3.83399	-0.000490746	   3.82984	-0.000478141	   3.83621	-0.000486399	   3.83335	-0.000485096	   3.83335	  -12.1274	
   3.90558	-0.00046702	   3.90139	-0.000454495	    3.9078	-0.00046305	   3.90492	-0.000461521	   3.90492	   -11.538	
   3.97701	-0.000443211	   3.97282	-0.000430737	   3.97926	-0.000439632	   3.97636	-0.00043786	   3.97636	  -10.9465	
   4.04806	-0.00041937	   4.04388	-0.000406847	   4.05044	-0.000416107	   4.04746	-0.000414108	   4.04746	  -10.3527	
   4.11881	-0.000395358	   4.11492	-0.000382883	   4.12153	-0.00039246	   4.11842	-0.000390234	   4.11842	  -9.75584	
   4.18964	-0.000371309	    4.1858	-0.00035884	   4.19244	-0.000368749	   4.18929	-0.000366299	   4.18929	  -9.15748	
   4.26015	-0.000347204	   4.25643	-0.000334675	   4.26314	-0.000344992	   4.25991	-0.00034229	   4.25991	  -8.55725	
   4.33047	-0.000322942	   4.32698	-0.000310413	   4.33385	-0.000321063	   4.33044	-0.000318139	   4.33044	  -7.95348	
   4.40094	-0.000298667	   4.39732	-0.000286109	   4.40473	-0.00029703	     4.401	-0.000293935	     4.401	  -7.34838	
   4.47103	-0.000274349	   4.46744	-0.000261738	   4.47588	-0.000273071	   4.47145	-0.000269719	   4.47145	  -6.74299	
   4.54083	-0.00024988	   4.53749	-0.000237256	   4.54639	-0.000248933	   4.54157	-0.000245356	   4.54157	  -6.13391	
   4.61058	-0.000225437	   4.60729	-0.000212694	   4.61629	-0.000224535	   4.61139	-0.000220889	   4.61139	  -5.52222	
   4.68017	-0.000200948	   4.67694	-0.000188046	   4.68606	-0.000200234	   4.68106	-0.000196409	   4.68106	  -4.91024	
   4.74943	-0.00017628	   4.74643	-0.000163425	    4.7558	-0.000175799	   4.75055	-0.000171835	   4.75055	  -4.29587	
   4.81857	-0.000151626	   4.81569	-0.000138757	   4.82537	-0.000151102	   4.81987	-0.000147162	   4.81987	  -3.67904	
   4.88751	-0.000126981	   4.88466	-0.000113909	   4.89471	-0.0001265	   4.88896	-0.000122463	   4.88896	  -3.06158	
   4.95633	-0.000102195	   4.95352	-8.90971e-05	   4.96388	-0.000101776	   4.95791	-9.76892e-05	   4.95791	  -2.44223	
   5.02488	-7.73868e-05	   5.02208	-6.43161e-05	   5.03275	-7.67802e-05	   5.02657	-7.28277e-05	   5.02657	  -1.82069	
   5.09326	-5.25913e-05	   5.09043	-3.94029e-05	   5.10147	-5.18813e-05	   5.09505	-4.79585e-05	   5.09505	  -1.19896	
   5.16149	-2.76796e-05	   5.15871	-1.45209e-05	      5.17	-2.69576e-05	    5.1634	-2.30527e-05	    5.1634	 -0.576317	
    5.2294	-2.71993e-06	   5.22667	1.03307e-05	   5.23822	-1.82954e-06	   5.23143	1.92707e-06	   5.23143	 0.0481768	
   5.29712	2.22137e-05	   5.29442	3.52565e-05	   5.30618	2.32964e-05	   5.29924	2.69222e-05	   5.29924	  0.673055	
   5.36474	4.72405e-05	   5.36208	6.01691e-05	     5.374	4.84674e-05	   5.36694	5.1959e-05	   5.36694	   1.29898	
   5.43203	7.23297e-05	   5.42948	8.50299e-05	   5.44152	7.37676e-05	   5.43434	7.70424e-05	   5.43434	   1.92606	
   5.49908	9.73873e-05	   5.49671	0.000109937	   5.50882	9.8989e-05	   5.50154	0.000102105	   5.50154	   2.55261	
   5.56594	0.000122512	   5.56379	0.000134852	   5.57594	0.000124277	   5.56856	0.000127213	   5.56856	   3.18033	
   5.63248	0.000147698	   5.63056	0.000159714	   5.64271	0.000149722	   5.63525	0.000152378	   5.63525	   3.80944	
     5.699	0.000172852	   5.69721	0.000184613	   5.70923	0.00017511	   5.70181	0.000177525	   5.70181	   4.43812	
   5.76539	0.000198056	   5.76371	0.000209524	   5.77563	0.000200489	   5.76825	0.00020269	   5.76825	   5.06725	
   5.83151	0.000223325	   5.83002	0.00023439	   5.84171	0.000226016	   5.83441	0.00022791	   5.83441	   5.69776	
   5.89746	0.00024856	   5.89601	0.000259277	    5.9075	0.00025153	   5.90032	0.000253122	   5.90032	   6.32806	
   5.96332	0.00027382	   5.96186	0.000284213	    5.9732	0.000277006	   5.96613	0.000278346	   5.96613	   6.95865	
   6.02888	0.000299132	   6.02742	0.000309107	    6.0386	0.000302598	   6.03164	0.000303612	   6.03164	   7.59031	
   6.09413	0.000324414	   6.09269	0.000333986	   6.10374	0.000328176	   6.09685	0.000328859	   6.09685	   8.22147	
   6.15926	0.000349636	   6.15791	0.000358919	   6.16881	0.000353681	     6.162	0.000354079	     6.162	   8.85197	
   6.22412	0.000374952	   6.22286	0.00038381	    6.2336	0.000379263	   6.22686	0.000379342	   6.22686	   9.48354	
   6.28864	0.000400286	   6.28748	0.00040867	   6.29805	0.000404848	   6.29139	0.000404601	   6.29139	    10.115	
   6.35298	0.000425491	   6.35187	0.000433573	   6.36237	0.000430343	   6.35574	0.000429802	   6.35574	   10.7451	
   6.41708	0.000450751	   6.41604	0.000458456	   6.42644	0.000455867	   6.41985	0.000455025	   6.41985	   11.3756	
    6.4808	0.000476039	   6.47982	0.000483314	   6.49011	0.000481385	   6.48358	0.000480246	   6.48358	   12.0062	
   6.54444	 0.0005012	   6.54348	0.000508159	   6.55364	0.000506809	   6.54718	0.00050539	   6.54718	   12.6347	
   6.60789	0.000526369	   6.60696	0.000533004	   6.61698	0.000532238	   6.61061	0.000530537	   6.61061	   13.2634	
   6.67094	0.000551551	   6.67011	0.000557814	   6.67997	0.000557659	   6.67367	0.000555675	   6.67367	   13.8919	
   6.73377	0.000576612	   6.73298	0.000582534	   6.74269	0.00058298	   6.73648	0.000580709	   6.73648	   14.5177	
   6.79643	0.000601644	   6.79569	0.000607267	   6.80522	0.000608287	   6.79911	0.000605733	   6.79911	   15.1433	
   6.85875	0.000626697	   6.85808	0.000631953	   6.86743	0.000633586	   6.86142	0.000630745	   6.86142	   15.7686	
    6.9206	0.000651649	   6.92005	0.000656522	   6.92931	0.000658777	   6.92332	0.000655649	   6.92332	   16.3912	
   6.98231	0.000676536	   6.98188	0.000681097	   6.99114	0.000683911	   6.98511	0.000680515	   6.98511	   17.0129	
   7.04377	0.000701496	   7.04346	0.000705624	   7.05271	0.000709025	   7.04665	0.000705381	   7.04665	   17.6345	
   7.10535	0.000726307	   7.10465	0.000730016	   7.11381	0.00073403	   7.10794	0.000730118	   7.10794	   18.2529	
   7.16651	0.000750943	   7.16567	0.000754389	   7.17463	0.000758946	   7.16894	0.00075476	   7.16894	    18.869	
    7.2271	0.000775717	   7.22647	0.000778717	   7.23528	0.000783839	   7.22962	0.000779424	   7.22962	   19.4856	
   7.28718	0.000800434	   7.28696	0.000802916	   7.29556	0.000808616	    7.2899	0.000803989	    7.2899	   20.0997	
   7.34704	0.000824885	   7.34701	0.000827073	    7.3554	0.000833281	   7.34982	0.000828413	   7.34982	   20.7103	
   7.40663	0.000849403	   7.40688	0.000851184	   7.41512	0.000857908	   7.40954	0.000852832	   7.40954	   21.3208	
   7.46587	0.000873912	    7.4665	0.000875171	   7.47458	0.000882414	   7.46898	0.000877166	   7.46898	   21.9291	
   7.52475	0.000898168	   7.52573	0.00089909	   7.53359	0.000906799	   7.52802	0.000901352	   7.52802	   22.5338	
   7.58318	0.000922418	   7.58469	0.000922959	   7.59228	0.000931114	   7.58672	0.000925497	   7.58672	   23.1374	
   7.64145	0.000946679	   7.64351	0.000946719	   7.65079	0.000955297	   7.64525	0.000949565	   7.64525	   23.7391	
   7.69943	0.000970696	   7.70199	0.000970391	   7.70902	0.00097937	   7.70348	0.000973486	   7.70348	   24.3371	
   7.75709	0.000994652	    7.7601	0.000993989	   7.76679	0.00100335	   7.76133	0.00099733	   7.76133	   24.9332	
    7.8145	0.00101862	   7.81787	 0.0010175	   7.82429	0.00102718	   7.81889	 0.0010211	   7.81889	   25.5275	
   7.87173	0.00104237	   7.87544	0.00104092	   7.88149	0.00105081	   7.87622	 0.0010447	   7.87622	   26.1175	
    7.9286	  0.001066	   7.93262	0.00106425	   7.93805	0.00107444	   7.93309	0.00106823	   7.93309	   26.7057	
   7.98505	0.00108964	   7.98928	0.00108749	   7.99441	0.00109791	   7.98958	0.00109168	   7.98958	   27.2921	
   8.04123	0.00111309	   8.04566	0.00111066	   8.05055	 0.0011211	   8.04582	0.00111495	   8.04582	   27.8737	
   8.09721	0.00113639	   8.10181	0.00113368	   8.10623	0.00114427	   8.10175	0.00113811	   8.10175	   28.4528	
    8.1528	 0.0011597	    8.1576	0.00115662	   8.16198	0.00116729	   8.15746	 0.0011612	   8.15746	   29.0301	
   8.20789	0.00118282	   8.21298	0.00117946	   8.21733	0.00118998	   8.21274	0.00118409	   8.21274	   29.6021	
   8.26269	0.00120575	   8.26803	0.00120212	   8.27198	0.00121264	   8.26757	0.00120684	   8.26757	   30.1709	
   8.31727	0.00122868	   8.32284	0.00122469	   8.32659	0.00123519	   8.32223	0.00122952	   8.32223	    30.738	
   8.37147	0.00125141	   8.37723	0.00124714	   8.38095	0.00125743	   8.37655	0.00125199	   8.37655	   31.2998	
   8.42517	0.00127391	   8.43115	 0.0012694	   8.43484	 0.0012796	   8.43039	 0.0012743	   8.43039	   31.8576	
   8.47867	 0.0012964	   8.48484	0.00129153	   8.48833	0.00130166	   8.48395	0.00129653	   8.48395	   32.4132	
   8.53198	0.00131874	   8.53826	0.00131354	   8.54151	0.00132343	   8.53725	0.00131857	   8.53725	   32.9643	
   8.58491	0.00134083	   8.59127	0.00133534	   8.59442	0.00134513	    8.5902	0.00134043	    8.5902	   33.5108	
   8.63741	0.00136285	   8.64374	0.00135703	   8.64695	0.00136673	    8.6427	 0.0013622	    8.6427	   34.0551	
   8.68965	0.00138477	   8.69592	0.00137862	   8.69919	 0.0013881	   8.69492	0.00138383	   8.69492	   34.5957	
    8.7417	0.00140641	   8.74792	0.00139997	   8.75118	0.00140934	   8.74693	0.00140524	   8.74693	    35.131	
   8.79341	0.00142794	   8.79956	0.00142116	   8.80282	0.00143044	    8.7986	0.00142651	    8.7986	   35.6629	
   8.84466	0.00144937	   8.85069	0.00144233	     8.854	0.00145139	   8.84978	 0.0014477	   8.84978	   36.1925	
   8.89558	0.00147052	   8.90173	0.00146324	   8.90478	0.00147221	    8.9007	0.00146866	    8.9007	   36.7165	
    8.9463	0.00149151	   8.95267	0.00148389	   8.95538	0.00149289	   8.95145	0.00148943	   8.95145	   37.2357	
   8.99673	 0.0015125	   9.00273	 0.0015046	   9.00567	0.00151339	   9.00171	0.00151016	   9.00171	   37.7541	
   9.04671	0.00153325	   9.05218	0.00152515	   9.05552	 0.0015338	   9.05147	0.00153074	   9.05147	   38.2684	
    9.0962	0.00155367	   9.10154	0.00154537	   9.10482	0.00155407	   9.10085	0.00155104	   9.10085	    38.776	
   9.14542	0.00157409	   9.15079	 0.0015656	   9.15382	0.00157412	   9.15001	0.00157127	   9.15001	   39.2817	
   9.19444	0.00159439	   9.19965	0.00158574	   9.20256	0.00159406	   9.19888	 0.0015914	   9.19888	   39.7849	
   9.24309	0.00161432	   9.24814	0.00160556	   9.25096	0.00161389	    9.2474	0.00161126	    9.2474	   40.2814	
   9.29123	0.00163417	   9.29624	0.00162531	   9.29885	0.00163349	   9.29544	0.00163099	   9.29544	   40.7748	
   9.33907	0.00165392	   9.34386	0.00164503	   9.34635	0.00165295	   9.34309	0.00165063	   9.34309	   41.2658	
   9.38664	0.00167331	   9.39123	0.00166443	   9.39371	 0.0016723	   9.39052	0.00167001	   9.39052	   41.7503	
    9.4339	0.00169257	   9.43834	0.00168372	   9.44082	0.00169141	   9.43768	0.00168923	   9.43768	   42.2308	
   9.48075	0.00171176	   9.48506	0.00170297	   9.48753	0.00171034	   9.48445	0.00170836	   9.48445	    42.709	
   9.52708	0.00173059	   9.53125	0.00172195	   9.53378	0.00172915	    9.5307	0.00172723	    9.5307	   43.1808	
   9.57295	0.00174918	   9.57695	0.00174076	   9.57952	0.00174773	   9.57648	0.00174589	   9.57648	   43.6472	
    9.6186	0.00176772	   9.62232	0.00175953	   9.62494	 0.0017661	   9.62196	0.00176445	   9.62196	   44.1112	
   9.66399	0.00178593	   9.66746	0.00177803	   9.67012	0.00178435	   9.66719	0.00178277	   9.66719	   44.5693	
   9.70899	0.00180384	   9.71222	0.00179632	   9.71492	0.00180237	   9.71204	0.00180084	   9.71204	   45.0211	
   9.75346	0.00182168	   9.75647	0.00181455	   9.75921	0.00182016	   9.75638	 0.0018188	   9.75638	   45.4699	
   9.79745	0.00183923	   9.80021	0.00183252	   9.80309	0.00183781	   9.80025	0.00183652	   9.80025	    45.913	
   9.84103	0.00185646	   9.84355	0.00185024	   9.84667	0.00185525	   9.84375	0.00185398	   9.84375	   46.3496	
   9.88429	0.00187357	    9.8866	0.00186786	   9.88995	0.00187244	   9.88694	0.00187129	   9.88694	   46.7823	
   9.92681	 0.0018905	   9.92933	0.00188526	   9.93289	0.00188948	   9.92968	0.00188841	   9.92968	   47.2103	
   9.96897	0.00190712	   9.97163	0.00190238	   9.97537	0.00190633	   9.97199	0.00190528	   9.97199	    47.632	
   10.0109	0.00192357	   10.0135	0.00191938	   10.0173	0.00192293	   10.0139	0.00192196	   10.0139	    48.049	
   10.0524	0.00193986	   10.0549	0.00193616	   10.0587	0.00193936	   10.0553	0.00193846	   10.0553	   48.4616	
   10.0936	0.00195585	    10.096	0.00195267	   10.0998	0.00195563	   10.0965	0.00195472	   10.0965	   48.8679	
   10.1346	0.00197171	   10.1368	0.00196901	   10.1405	0.00197164	   10.1373	0.00197079	   10.1373	   49.2697	
   10.1747	0.00198745	   10.1772	0.00198517	   10.1809	0.00198748	   10.1776	 0.0019867	   10.1776	   49.6675	
   10.2144	0.00200285	   10.2172	0.00200113	   10.2209	0.00200318	   10.2175	0.00200238	   10.2175	   50.0596	
    10.254	0.00201809	   10.2567	0.00201682	   10.2602	0.00201861	   10.2569	0.00201784	   10.2569	    50.446	
   10.2931	0.00203328	   10.2957	0.00203228	   10.2991	0.00203386	    10.296	0.00203314	    10.296	   50.8285	
   10.3316	0.00204813	   10.3343	0.00204757	   10.3377	0.00204897	   10.3345	0.00204822	   10.3345	   51.2056	
   10.3698	0.00206273	   10.3727	0.00206265	   10.3759	0.00206381	   10.3728	0.00206306	   10.3728	   51.5766	
   10.4076	 0.0020773	   10.4108	0.00207746	   10.4138	0.00207845	   10.4107	0.00207774	   10.4107	   51.9435	
   10.4449	0.00209159	   10.4485	0.00209205	   10.4513	0.00209295	   10.4482	 0.0020922	   10.4482	   52.3049	
   10.4817	0.00210556	   10.4856	0.00210646	   10.4884	 0.0021072	   10.4852	 0.0021064	   10.4852	   52.6601	
    10.518	0.00211946	   10.5222	0.00212065	   10.5248	0.00212122	   10.5217	0.00212045	   10.5217	   53.0112	
   10.5538	0.00213315	   10.5583	0.00213461	   10.5608	0.00213509	   10.5576	0.00213428	   10.5576	   53.3571	
   10.5892	0.00214652	   10.5939	0.00214833	   10.5963	0.00214872	   10.5931	0.00214786	   10.5931	   53.6965	
   10.6243	0.00215977	   10.6292	 0.0021619	   10.6315	0.00216213	   10.6283	0.00216127	   10.6283	   54.0317	
   10.6592	0.00217286	   10.6641	0.00217529	   10.6665	0.00217536	   10.6632	 0.0021745	   10.6632	   54.3626	
   10.6936	0.00218564	   10.6986	0.00218838	    10.701	0.00218841	   10.6978	0.00218748	   10.6978	   54.6869	
   10.7277	0.00219828	   10.7327	0.00220132	   10.7351	 0.0022012	   10.7318	0.00220027	   10.7318	   55.0067	
   10.7611	0.00221079	   10.7664	 0.0022141	   10.7687	0.00221381	   10.7654	 0.0022129	   10.7654	   55.3225	
    10.794	0.00222297	   10.7996	0.00222663	   10.8018	0.00222625	   10.7985	0.00222528	   10.7985	   55.6321	
   10.8264	  0.002235	   10.8323	  0.002239	   10.8343	0.00223844	    10.831	0.00223748	    10.831	    55.937	
   10.8586	0.00224696	   10.8647	0.00225121	   10.8664	0.00225046	   10.8632	0.00224954	   10.8632	   56.2386	
   10.8906	0.00225862	   10.8967	0.00226319	   10.8983	0.00226233	   10.8952	0.00226138	   10.8952	   56.5344	
   10.9223	0.00227007	   10.9282	0.00227501	     10.93	0.00227394	   10.9268	0.00227301	   10.9268	   56.8252	
   10.9536	0.00228147	   10.9593	0.00228667	   10.9612	0.00228534	    10.958	0.00228449	    10.958	   57.1123	
   10.9844	0.00229262	   10.9901	0.00229807	    10.992	0.00229664	   10.9889	0.00229578	   10.9889	   57.3945	
   11.0148	0.00230352	   11.0203	0.00230935	   11.0223	0.00230776	   11.0191	0.00230688	   11.0191	   57.6719	
   11.0445	0.00231434	   11.0504	0.00232044	   11.0519	0.00231863	   11.0489	 0.0023178	   11.0489	   57.9451	
   11.0737	0.00232498	   11.0799	0.00233124	   11.0812	 0.0023294	   11.0783	0.00232854	   11.0783	   58.2135	
   11.1024	0.00233536	    11.109	0.00234194	     11.11	0.00234005	   11.1071	0.00233911	   11.1071	   58.4779	
   11.1307	0.00234563	   11.1377	0.00235256	   11.1385	0.00235044	   11.1356	0.00234954	   11.1356	   58.7386	
   11.1587	0.00235578	    11.166	 0.0023628	   11.1666	 0.0023607	   11.1638	0.00235976	   11.1638	    58.994	
   11.1864	0.00236562	   11.1937	0.00237288	   11.1945	0.00237088	   11.1915	0.00236979	   11.1915	   59.2448	
   11.2137	0.00237534	    11.221	0.00238295	   11.2219	0.00238085	   11.2189	0.00237971	   11.2189	   59.4929	
   11.2407	0.00238494	   11.2476	0.00239271	    11.249	0.00239066	   11.2458	0.00238944	   11.2458	    59.736	
   11.2673	0.00239425	   11.2738	0.00240224	   11.2756	0.00240036	   11.2722	0.00239895	   11.2722	   59.9738	
   11.2933	 0.0024034	   11.2995	0.00241176	   11.3017	0.00240988	   11.2982	0.00240834	   11.2982	   60.2086	
   11.3188	0.00241244	   11.3247	0.00242103	   11.3273	0.00241927	   11.3236	0.00241758	   11.3236	   60.4395	
   11.3437	 0.0024212	   11.3493	0.00243005	   11.3522	0.00242854	   11.3484	 0.0024266	   11.3484	   60.6649	
    11.368	0.00242981	   11.3734	0.00243906	   11.3765	0.00243763	   11.3726	 0.0024355	   11.3726	   60.8874	
   11.3917	0.00243831	    11.397	0.00244787	   11.4003	0.00244659	   11.3963	0.00244426	   11.3963	   61.1064	
   11.4148	0.00244655	   11.4201	0.00245644	   11.4236	0.00245543	   11.4195	0.00245281	   11.4195	   61.3202	
   11.4373	0.00245466	   11.4428	0.00246497	   11.4466	0.00246409	   11.4422	0.00246124	   11.4422	    61.531	
   11.4596	0.00246265	   11.4651	0.00247336	    11.469	 0.0024726	   11.4646	0.00246954	   11.4646	   61.7385	
   11.4815	0.00247042	   11.4871	0.00248153	   11.4911	  0.002481	   11.4866	0.00247765	   11.4866	   61.9412	
   11.5032	0.00247805	   11.5088	0.00248962	    11.513	0.00248921	   11.5083	0.00248563	   11.5083	   62.1407	
   11.5246	0.00248559	   11.5301	0.00249761	   11.5344	0.00249727	   11.5297	0.00249349	   11.5297	   62.3372	
   11.5457	0.00249296	   11.5511	0.00250538	   11.5555	0.00250523	   11.5508	0.00250119	   11.5508	   62.5297	
   11.5664	0.00250017	   11.5717	0.00251306	   11.5761	0.00251301	   11.5714	0.00250875	   11.5714	   62.7187	
   11.5866	0.00250733	    11.592	0.00252064	   11.5964	0.00252062	   11.5917	 0.0025162	   11.5917	   62.9049	
   11.6065	0.00251432	   11.6117	0.00252803	   11.6162	0.00252816	   11.6115	 0.0025235	   11.6115	   63.0876	
   11.6258	0.00252116	    11.631	0.00253524	   11.6356	0.00253559	   11.6308	0.00253066	   11.6308	   63.2666	
   11.6447	0.00252797	   11.6498	0.00254239	   11.6544	0.00254276	   11.6496	0.00253771	   11.6496	   63.4426	
    11.663	0.00253462	   11.6681	0.00254938	   11.6727	0.00254978	   11.6679	 0.0025446	   11.6679	   63.6149	
   11.6808	0.00254112	   11.6858	0.00255618	   11.6904	 0.0025568	   11.6857	0.00255137	   11.6857	   63.7842	
    11.698	0.00254757	    11.703	0.00256293	    11.708	0.00256351	    11.703	  0.002558	    11.703	   63.9501	
   11.7147	0.00255389	   11.7197	0.00256954	   11.7251	   0.00257	   11.7198	0.00256448	   11.7198	   64.1119	
   11.7308	0.00256003	   11.7357	0.00257594	   11.7411	0.00257657	   11.7359	0.00257085	   11.7359	   64.2712	
   11.7462	0.00256609	   11.7511	0.00258227	   11.7566	0.00258292	   11.7513	0.00257709	   11.7513	   64.4273	
   11.7611	0.00257205	    11.766	0.00258847	    11.772	0.00258899	   11.7664	0.00258317	   11.7664	   64.5793	
   11.7755	0.00257781	   11.7803	0.00259448	   11.7869	 0.0025951	   11.7809	0.00258913	   11.7809	   64.7283	
   11.7894	0.00258349	   11.7941	0.00260037	   11.8011	0.00260114	   11.7949	  0.002595	   11.7949	   64.8749	
   11.8028	0.00258909	   11.8073	0.00260619	   11.8147	0.00260692	   11.8083	0.00260073	   11.8083	   65.0183	
   11.8155	0.00259448	     11.82	0.00261181	   11.8278	0.00261271	   11.8211	0.00260633	   11.8211	   65.1583	
   11.8279	0.00259974	   11.8321	0.00261724	   11.8403	0.00261846	   11.8334	0.00261182	   11.8334	   65.2954	
   11.8396	  0.002605	   11.8437	0.00262266	   11.8522	0.00262397	   11.8451	0.00261721	   11.8451	   65.4302	
   11.8508	0.00261004	   11.8548	0.00262789	   11.8636	0.00262947	   11.8564	0.00262247	   11.8564	   65.5617	
   11.8616	0.00261498	   11.8654	0.00263294	   11.8745	0.00263499	   11.8671	0.00262764	   11.8671	   65.6909	
   11.8718	0.00261995	   11.8754	  0.002638	   11.8848	 0.0026403	   11.8774	0.00263275	   11.8774	   65.8187	
   11.8815	0.00262467	    11.885	 0.0026429	   11.8946	0.00264554	    11.887	 0.0026377	    11.887	   65.9426	
   11.8908	0.00262918	   11.8941	0.00264761	   11.9039	0.00265082	   11.8962	0.00264254	   11.8962	   66.0634	
   11.8995	0.00263375	   11.9028	0.00265232	   11.9127	0.00265592	    11.905	0.00264733	    11.905	   66.1832	
   11.9078	0.00263815	   11.9111	0.00265693	   11.9211	0.00266092	   11.9133	  0.002652	   11.9133	      66.3	
   11.9156	0.00264235	    11.919	0.00266135	   11.9289	0.00266594	   11.9212	0.00265655	   11.9212	   66.4137	
   11.9229	0.00264657	   11.9263	0.00266576	   11.9363	0.00267077	   11.9285	0.00266104	   11.9285	   66.5259	
   11.9296	0.00265067	   11.9332	 0.0026701	   11.9432	0.00267548	   11.9353	0.00266542	   11.9353	   66.6354	
   11.9358	0.00265457	   11.9397	0.00267427	   11.9497	0.00268018	   11.9417	0.00266967	   11.9417	   66.7418	
   11.9415	0.00265848	   11.9458	0.00267841	   11.9557	 0.0026847	   11.9477	0.00267386	   11.9477	   66.8466	
   11.9467	 0.0026623	   11.9522	0.00268248	   11.9613	0.00268908	   11.9534	0.00267795	   11.9534	   66.9488	
   11.9516	0.00266595	   11.9581	0.00268644	   11.9664	0.00269341	   11.9587	0.00268193	   11.9587	   67.0484	
   11.9561	0.00266958	    11.963	0.00269036	    11.971	0.00269759	   11.9634	0.00268585	   11.9634	   67.1461	
   11.9602	0.00267316	   11.9676	0.00269424	   11.9752	0.00270161	   11.9677	0.00268967	   11.9677	   67.2418	
   11.9639	0.00267659	   11.9721	0.00269801	   11.9789	0.00270559	   11.9716	 0.0026934	   11.9716	    67.335	
   11.9672	0.00267999	   11.9762	0.00270173	   11.9822	0.00270944	   11.9752	0.00269705	   11.9752	   67.4263	
   11.9702	0.00268336	   11.9798	0.00270543	   11.9852	0.00271312	   11.9784	0.00270064	   11.9784	   67.5159	
   11.9728	0.00268659	    11.983	0.00270903	   11.9877	0.00271675	   11.9812	0.00270412	   11.9812	    67.603	
   11.9751	0.00268977	   11.9859	0.00271255	   11.9899	0.00272026	   11.9836	0.00270753	   11.9836	   67.6882	
    11.977	0.00269293	   11.9884	0.00271605	   11.9918	0.00272365	   11.9857	0.00271087	   11.9857	   67.7718	
   11.9788	0.00269597	   11.9904	0.00271947	   11.9934	0.00272696	   11.9875	0.00271413	   11.9875	   67.8534	
   11.9802	0.00269895	   11.9921	0.00272279	   11.9947	0.00273019	    11.989	0.00271731	    11.989	   67.9328	
   11.9814	0.00270184	   11.9935	0.00272607	   11.9957	0.00273335	   11.9902	0.00272042	   11.9902	   68.0105	
   11.9823	0.00270465	   11.9945	0.00272928	   11.9965	0.00273639	   11.9911	0.00272344	   11.9911	    68.086	
   11.9829	 0.0027074	   11.9952	0.00273237	    11.997	0.00273935	   11.9917	0.00272637	   11.9917	   68.1593	
   11.9833	0.00271007	   11.9954	0.00273539	   11.9971	0.00274226	   11.9919	0.00272924	   11.9919	    68.231	
   11.9832	0.00271262	   11.9953	0.00273835	   11.9968	0.00274511	   11.9918	0.00273203	   11.9918	   68.3007	
   11.9826	 0.0027151	   11.9947	0.00274118	   11.9961	0.00274788	   11.9912	0.00273472	   11.9912	   68.3681	
   11.9816	0.00271751	   11.9935	0.00274394	    11.995	0.00275055	     11.99	0.00273733	     11.99	   68.4334	
   11.9798	0.00271979	   11.9917	0.00274662	   11.9934	0.00275317	   11.9883	0.00273986	   11.9883	   68.4965	
   11.9775	0.00272199	   11.9893	0.00274918	   11.9911	0.00275571	   11.9859	 0.0027423	   11.9859	   68.5574	
   11.9745	0.00272409	   11.9862	0.00275167	   11.9883	0.00275816	    11.983	0.00274464	    11.983	    68.616	
   11.9711	0.00272613	   11.9827	 0.0027541	   11.9849	0.00276052	   11.9795	0.00274692	   11.9795	   68.6729	
   11.9671	0.00272812	   11.9787	 0.0027564	    11.981	0.00276281	   11.9756	0.00274911	   11.9756	   68.7277	
   11.9628	0.00272998	   11.9742	0.00275864	   11.9767	0.00276499	   11.9712	0.00275121	   11.9712	   68.7801	
   11.9581	0.00273177	   11.9693	0.00276082	   11.9718	0.00276712	   11.9664	0.00275324	   11.9664	   68.8309	
    11.953	0.00273356	   11.9641	 0.0027629	   11.9664	0.00276916	   11.9612	0.00275521	   11.9612	   68.8801	
   11.9476	0.00273525	   11.9586	0.00276492	   11.9608	0.00277108	   11.9556	0.00275708	   11.9556	    68.927	
   11.9418	0.00273686	   11.9526	0.00276689	   11.9546	0.00277295	   11.9497	 0.0027589	   11.9497	   68.9725	
   11.9356	0.00273847	   11.9463	0.00276879	   11.9479	0.00277472	   11.9433	0.00276066	   11.9433	   69.0165	
   11.9288	0.00274001	   11.9392	0.00277061	   11.9407	0.00277634	   11.9362	0.00276232	   11.9362	    69.058	
   11.9212	0.00274147	   11.9316	0.00277241	   11.9332	0.00277794	   11.9287	0.00276394	   11.9287	   69.0985	
    11.913	0.00274292	   11.9234	0.00277413	    11.925	0.00277944	   11.9205	 0.0027655	   11.9205	   69.1375	
   11.9043	0.00274435	   11.9146	0.00277578	   11.9164	0.00278082	   11.9117	0.00276699	   11.9117	   69.1746	
   11.8951	0.00274568	   11.9053	0.00277741	   11.9073	0.00278216	   11.9026	0.00276842	   11.9026	   69.2104	
   11.8856	0.00274698	   11.8956	0.00277898	   11.8979	0.00278346	    11.893	 0.0027698	    11.893	   69.2451	
   11.8756	0.00274826	   11.8856	0.00278049	   11.8879	0.00278461	   11.8831	0.00277112	   11.8831	   69.2781	
   11.8654	0.00274945	   11.8753	0.00278197	   11.8775	0.00278572	   11.8727	0.00277238	   11.8727	   69.3095	
   11.8546	0.00275064	   11.8646	 0.0027834	   11.8668	 0.0027868	    11.862	0.00277361	    11.862	   69.3403	
   11.8433	 0.0027518	   11.8535	0.00278478	   11.8555	0.00278774	   11.8508	0.00277477	   11.8508	   69.3693	
   11.8314	0.00275282	   11.8417	0.00278611	   11.8438	0.00278863	    11.839	0.00277585	    11.839	   69.3964	
   11.8189	0.00275385	   11.8293	0.00278739	   11.8314	0.00278953	   11.8265	0.00277692	   11.8265	   69.4231	
    11.806	0.00275492	   11.8164	0.00278861	   11.8184	0.00279026	   11.8136	0.00277793	   11.8136	   69.4483	
   11.7926	0.00275581	    11.803	 0.0027898	    11.805	0.00279095	   11.8002	0.00277885	   11.8002	   69.4713	
   11.7788	0.00275673	   11.7893	0.00279092	   11.7913	0.00279164	   11.7865	0.00277976	   11.7865	    69.494	
   11.7648	0.00275768	   11.7752	0.00279198	   11.7772	0.00279219	   11.7724	0.00278062	   11.7724	   69.5154	
   11.7503	 0.0027585	   11.7607	  0.002793	   11.7627	0.00279267	   11.7579	0.00278139	   11.7579	   69.5348	
    11.735	0.00275933	   11.7458	0.00279395	   11.7477	0.00279315	   11.7429	0.00278214	   11.7429	   69.5536	
   11.7191	0.00276014	   11.7304	0.00279484	   11.7321	0.00279352	   11.7272	0.00278283	   11.7272	   69.5708	
   11.7027	0.00276088	   11.7144	0.00279567	   11.7159	 0.0027938	    11.711	0.00278345	    11.711	   69.5862	
    11.686	0.00276161	    11.698	0.00279645	   11.6992	0.00279408	   11.6944	0.00278405	   11.6944	   69.6012	
   11.6691	0.00276222	    11.681	0.00279715	   11.6821	0.00279428	   11.6774	0.00278455	   11.6774	   69.6137	
   11.6515	0.00276279	   11.6633	0.00279785	   11.6646	0.00279437	   11.6598	0.00278501	   11.6598	   69.6251	
   11.6331	0.00276343	   11.6453	0.00279844	   11.6468	0.00279448	   11.6417	0.00278545	   11.6417	   69.6363	
   11.6144	0.00276396	   11.6268	0.00279897	   11.6283	0.00279451	   11.6232	0.00278581	   11.6232	   69.6453	
   11.5955	0.00276438	   11.6081	0.00279951	   11.6092	0.00279443	   11.6043	0.00278611	   11.6043	   69.6527	
    11.576	0.00276489	    11.589	 0.0027999	   11.5896	0.00279435	   11.5849	0.00278638	   11.5849	   69.6595	
   11.5562	0.00276535	   11.5689	0.00280021	   11.5696	0.00279422	   11.5649	0.00278659	   11.5649	   69.6648	
    11.536	0.00276568	   11.5488	0.00280058	   11.5493	0.00279399	   11.5447	0.00278675	   11.5447	   69.6688	
   11.5154	0.00276609	   11.5281	0.00280076	   11.5286	0.00279374	    11.524	0.00278686	    11.524	   69.6716	
    11.494	0.00276647	   11.5067	0.00280093	   11.5074	0.00279347	   11.5027	0.00278696	   11.5027	   69.6739	
   11.4721	0.00276673	   11.4849	0.00280121	   11.4855	 0.0027931	   11.4808	0.00278701	   11.4808	   69.6754	
   11.4498	0.00276701	   11.4626	0.00280125	   11.4631	 0.0027927	   11.4585	0.00278699	   11.4585	   69.6746	
    11.427	0.00276728	   11.4398	0.00280119	   11.4404	0.00279228	   11.4357	0.00278692	   11.4357	    69.673	
    11.404	0.00276742	   11.4163	 0.0028013	   11.4173	0.00279178	   11.4125	0.00278683	   11.4125	   69.6708	
   11.3806	0.00276753	   11.3924	0.00280127	   11.3937	0.00279121	   11.3889	0.00278667	   11.3889	   69.6668	
   11.3566	0.00276768	   11.3681	0.00280108	   11.3696	0.00279063	   11.3647	0.00278646	   11.3647	   69.6616	
    11.332	0.00276768	   11.3432	0.00280103	   11.3449	0.00278996	     11.34	0.00278622	     11.34	   69.6556	
   11.3071	0.00276763	   11.3179	0.00280091	   11.3197	 0.0027892	   11.3149	0.00278592	   11.3149	   69.6479	
   11.2818	0.00276759	   11.2923	0.00280065	   11.2943	 0.0027885	   11.2895	0.00278558	   11.2895	   69.6396	
   11.2561	0.00276742	   11.2663	0.00280048	   11.2685	0.00278772	   11.2636	0.00278521	   11.2636	   69.6302	
   11.2298	0.00276718	   11.2399	 0.0028003	    11.242	0.00278678	   11.2373	0.00278475	   11.2373	   69.6188	
    11.203	0.00276696	    11.213	0.00279996	   11.2151	0.00278588	   11.2104	0.00278426	   11.2104	   69.6066	
   11.1757	0.00276664	   11.1856	0.00279966	   11.1877	0.00278494	    11.183	0.00278375	    11.183	   69.5936	
   11.1481	0.00276623	   11.1579	0.00279938	     11.16	0.00278383	   11.1553	0.00278315	   11.1553	   69.5786	
   11.1202	0.00276582	   11.1298	0.00279894	   11.1317	0.00278271	   11.1273	0.00278249	   11.1273	   69.5623	
   11.0918	0.00276536	   11.1013	0.00279851	   11.1031	0.00278161	   11.0987	0.00278183	   11.0987	   69.5457	
   11.0628	 0.0027648	   11.0722	 0.0027981	   11.0739	0.00278041	   11.0697	 0.0027811	   11.0697	   69.5276	
   11.0334	0.00276425	   11.0426	0.00279754	   11.0443	0.00277916	   11.0401	0.00278032	   11.0401	    69.508	
   11.0037	 0.0027636	   11.0128	0.00279696	   11.0145	0.00277793	   11.0103	 0.0027795	   11.0103	   69.4874	
   10.9737	0.00276285	   10.9826	0.00279638	   10.9841	0.00277663	   10.9801	0.00277862	   10.9801	   69.4655	
   10.9431	0.00276214	   10.9518	0.00279568	   10.9533	0.00277529	   10.9494	 0.0027777	   10.9494	   69.4426	
   10.9119	0.00276137	   10.9205	0.00279494	    10.922	0.00277395	   10.9182	0.00277675	   10.9182	   69.4188	
   10.8804	0.00276044	   10.8889	0.00279417	   10.8903	0.00277255	   10.8865	0.00277572	   10.8865	    69.393	
   10.8487	0.00275954	    10.857	0.00279326	   10.8583	0.00277111	   10.8546	0.00277464	   10.8546	   69.3659	
   10.8164	0.00275861	   10.8247	0.00279232	   10.8259	0.00276966	   10.8223	0.00277353	   10.8223	   69.3382	
   10.7835	0.00275754	   10.7919	 0.0027914	   10.7931	0.00276817	   10.7895	0.00277237	   10.7895	   69.3093	
   10.7503	0.00275648	   10.7586	0.00279029	   10.7599	0.00276663	   10.7562	0.00277113	   10.7562	   69.2783	
   10.7167	 0.0027554	    10.725	0.00278911	   10.7263	0.00276508	   10.7226	0.00276986	   10.7226	   69.2466	
   10.6828	 0.0027542	    10.691	0.00278803	   10.6922	 0.0027635	   10.6887	0.00276858	   10.6887	   69.2144	
   10.6483	0.00275301	   10.6564	0.00278677	   10.6575	0.00276186	   10.6541	0.00276721	   10.6541	   69.1803	
   10.6133	0.00275182	   10.6214	0.00278533	   10.6225	 0.0027602	   10.6191	0.00276578	   10.6191	   69.1446	
    10.578	0.00275049	    10.586	  0.002784	   10.5871	0.00275851	   10.5837	0.00276433	   10.5837	   69.1083	
   10.5423	 0.0027491	   10.5504	0.00278251	   10.5515	0.00275678	    10.548	 0.0027628	    10.548	   69.0699	
    10.506	0.00274778	   10.5141	0.00278087	   10.5152	0.00275501	   10.5118	0.00276122	   10.5118	   69.0305	
   10.4692	0.00274637	   10.4773	0.00277931	   10.4785	0.00275321	    10.475	0.00275963	    10.475	   68.9908	
   10.4321	0.00274481	   10.4401	0.00277762	   10.4414	0.00275137	   10.4379	0.00275793	   10.4379	   68.9483	
   10.3948	0.00274328	   10.4027	0.00277573	    10.404	0.00274948	   10.4005	0.00275616	   10.4005	   68.9041	
   10.3569	0.00274173	   10.3647	0.00277393	    10.366	0.00274756	   10.3625	0.00275441	   10.3625	   68.8601	
   10.3185	0.00274001	   10.3262	0.00277205	   10.3274	0.00274559	   10.3241	0.00275255	   10.3241	   68.8138	
   10.2797	 0.0027383	   10.2874	0.00277001	   10.2886	0.00274358	   10.2852	0.00275063	   10.2852	   68.7657	
   10.2407	0.00273657	   10.2483	0.00276803	   10.2495	0.00274153	   10.2462	0.00274871	   10.2462	   68.7178	
   10.2014	0.00273468	   10.2086	  0.002766	   10.2099	0.00273944	   10.2066	 0.0027467	   10.2066	   68.6676	
   10.1616	0.00273276	   10.1687	0.00276378	   10.1699	0.00273729	   10.1667	0.00274461	   10.1667	   68.6153	
   10.1216	0.00273085	   10.1283	0.00276163	   10.1296	0.00273513	   10.1265	0.00274254	   10.1265	   68.5634	
   10.0809	0.00272876	   10.0876	0.00275947	   10.0889	0.00273293	   10.0858	0.00274039	   10.0858	   68.5097	
   10.0398	0.00272666	   10.0464	0.00275712	   10.0477	0.00273068	   10.0446	0.00273815	   10.0446	   68.4538	
   9.99845	0.00272456	   10.0048	0.00275477	    10.006	0.00272841	   10.0031	0.00273591	   10.0031	   68.3979	
   9.95655	0.00272231	   9.96271	0.00275247	   9.96412	0.00272613	   9.96113	0.00273364	   9.96113	   68.3409	
    9.9142	0.00272001	   9.92037	0.00274999	   9.92176	0.00272378	   9.91878	0.00273126	   9.91878	   68.2815	
   9.87161	0.00271774	   9.87763	0.00274742	   9.87889	0.00272137	   9.87604	0.00272884	   9.87604	   68.2211	
   9.82854	0.00271534	   9.83452	0.00274493	   9.83568	0.00271901	   9.83292	0.00272643	   9.83292	   68.1606	
   9.78502	0.00271288	   9.79111	 0.0027423	   9.79224	0.00271658	   9.78946	0.00272392	   9.78946	    68.098	
   9.74105	0.00271043	   9.74724	0.00273954	   9.74839	0.00271407	   9.74556	0.00272135	   9.74556	   68.0337	
   9.69663	 0.0027079	   9.70289	0.00273691	   9.70407	0.00271159	   9.70119	 0.0027188	   9.70119	     67.97	
   9.65194	0.00270529	   9.65825	0.00273415	   9.65947	0.00270907	   9.65655	0.00271617	   9.65655	   67.9043	
   9.60697	0.00270269	   9.61326	0.00273123	   9.61452	0.00270646	   9.61158	0.00271346	   9.61158	   67.8366	
   9.56149	0.00270002	   9.56776	0.00272841	   9.56905	0.00270387	    9.5661	0.00271077	    9.5661	   67.7692	
   9.51564	0.00269727	   9.52188	0.00272551	   9.52322	0.00270125	   9.52025	0.00270801	   9.52025	   67.7002	
   9.46948	0.00269452	   9.47577	0.00272245	   9.47716	0.00269854	   9.47414	0.00270517	   9.47414	   67.6293	
    9.4229	0.00269171	   9.42918	0.00271946	   9.43056	0.00269584	   9.42754	0.00270234	   9.42754	   67.5585	
   9.37588	0.00268882	   9.38213	0.00271639	   9.38352	0.00269313	   9.38051	0.00269944	   9.38051	   67.4861	
   9.32862	0.00268592	   9.33473	0.00271318	   9.33623	 0.0026903	    9.3332	0.00269647	    9.3332	   67.4117	
   9.28087	0.00268298	   9.28696	0.00271006	   9.28862	0.00268749	   9.28548	0.00269351	   9.28548	   67.3378	
   9.23277	0.00267995	   9.23872	0.00270689	   9.24048	0.00268465	   9.23732	 0.0026905	   9.23732	   67.2625	
   9.18437	 0.0026769	   9.19018	0.00270353	   9.19204	0.00268171	   9.18886	0.00268738	   9.18886	   67.1846	
   9.13576	0.00267382	   9.14136	0.00270022	   9.14332	0.00267876	   9.14015	0.00268427	   9.14015	   67.1067	
   9.08671	0.00267065	   9.09202	0.00269689	   9.09412	 0.0026758	   9.09095	0.00268111	   9.09095	   67.0278	
    9.0373	0.00266746	   9.04233	0.00269337	   9.04457	0.00267271	    9.0414	0.00267784	    9.0414	   66.9461	
   8.98755	0.00266424	   8.99237	0.00268986	   8.99452	0.00266966	   8.99148	0.00267459	   8.99148	   66.8647	
   8.93733	0.00266093	   8.94195	0.00268633	   8.94417	0.00266661	   8.94115	0.00267129	   8.94115	   66.7823	
    8.8867	0.00265758	   8.89113	0.00268266	   8.89358	0.00266335	   8.89047	0.00266786	   8.89047	   66.6966	
   8.83577	0.00265421	   8.84008	0.00267896	   8.84259	0.00266013	   8.83948	0.00266443	   8.83948	   66.6108	
   8.78429	0.00265075	   8.78869	0.00267526	   8.79146	0.00265693	   8.78815	0.00266098	   8.78815	   66.5245	
   8.73239	0.00264727	   8.73686	0.00267147	   8.74042	0.00265345	   8.73656	0.00265739	   8.73656	   66.4348	
   8.68024	0.00264375	   8.68481	0.00266763	   8.68864	0.00264999	   8.68456	0.00265379	   8.68456	   66.3447	
   8.62778	0.00264014	   8.63244	0.00266376	   8.63605	0.00264662	   8.63209	0.00265017	   8.63209	   66.2544	
   8.57492	0.00263649	   8.57966	0.00265984	   8.58312	0.00264298	   8.57924	0.00264644	   8.57924	   66.1609	
   8.52178	 0.0026328	   8.52664	0.00265584	   8.52996	0.00263927	   8.52613	0.00264264	   8.52613	   66.0659	
   8.46832	0.00262904	   8.47322	0.00265178	   8.47652	0.00263565	   8.47269	0.00263882	   8.47269	   65.9706	
   8.41444	0.00262518	   8.41938	0.00264772	   8.42271	0.00263185	   8.41884	0.00263491	   8.41884	   65.8729	
   8.36032	0.00262128	   8.36528	0.00264357	   8.36865	0.00262791	   8.36475	0.00263092	   8.36475	    65.773	
   8.30595	0.00261735	   8.31087	0.00263937	   8.31437	0.00262405	    8.3104	0.00262692	    8.3104	   65.6731	
    8.2511	0.00261334	   8.25607	0.00263519	    8.2597	0.00262006	   8.25562	0.00262286	   8.25562	   65.5716	
     8.196	0.00260931	   8.20101	0.00263094	    8.2047	0.00261591	   8.20057	0.00261872	   8.20057	    65.468	
   8.14071	0.00260519	   8.14575	0.00262661	   8.14949	0.00261183	   8.14532	0.00261454	   8.14532	   65.3635	
   8.08493	0.00260096	   8.09004	0.00262231	   8.09383	0.00260764	    8.0896	 0.0026103	    8.0896	   65.2576	
   8.02892	0.00259672	   8.03408	0.00261796	   8.03791	 0.0026033	   8.03364	0.00260599	   8.03364	   65.1498	
   7.97271	0.00259242	   7.97791	 0.0026135	   7.98172	  0.002599	   7.97745	0.00260164	   7.97745	    65.041	
   7.91603	  0.002588	   7.92131	0.00260906	   7.92505	0.00259464	   7.92079	0.00259724	   7.92079	   64.9309	
   7.85911	0.00258356	   7.86445	 0.0026046	   7.86813	0.00259013	    7.8639	0.00259276	    7.8639	   64.8191	
   7.80196	0.00257907	   7.80735	0.00260002	   7.81091	0.00258561	   7.80674	0.00258823	   7.80674	   64.7058	
   7.74441	0.00257444	   7.74978	0.00259542	   7.75323	0.00258108	   7.74914	0.00258364	   7.74914	   64.5911	
   7.68658	0.00256978	   7.69198	0.00259081	   7.69533	0.00257645	    7.6913	0.00257901	    7.6913	   64.4753	
   7.62849	0.00256509	   7.63396	0.00258606	   7.63711	0.00257177	   7.63319	0.00257431	   7.63319	   64.3577	
   7.56997	0.00256025	   7.57555	0.00258127	   7.57846	0.00256707	   7.57466	0.00256953	   7.57466	   64.2382	
   7.51127	0.00255535	   7.51693	0.00257648	   7.51957	 0.0025623	   7.51592	0.00256471	   7.51592	   64.1177	
   7.45225	0.00255043	   7.45803	0.00257157	   7.46047	0.00255746	   7.45692	0.00255982	   7.45692	   63.9955	
   7.39284	0.00254537	   7.39872	0.00256658	   7.40099	0.00255261	   7.39752	0.00255485	   7.39752	   63.8714	
   7.33324	0.00254026	   7.33924	0.00256158	   7.34136	0.00254768	   7.33795	0.00254984	   7.33795	    63.746	
   7.27335	0.00253511	   7.27947	0.00255647	   7.28129	0.00254266	   7.27804	0.00254475	   7.27804	   63.6187	
   7.21313	0.00252981	   7.21938	0.00255127	   7.22089	0.00253763	    7.2178	0.00253957	    7.2178	   63.4892	
   7.15279	0.00252445	   7.15906	0.00254606	   7.16033	0.00253252	   7.15739	0.00253434	   7.15739	   63.3585	
   7.09212	0.00251912	   7.09837	0.00254076	   7.09929	0.00252732	    7.0966	0.00252906	    7.0966	   63.2266	
   7.03115	0.00251363	   7.03737	0.00253537	   7.03798	0.00252209	    7.0355	 0.0025237	    7.0355	   63.0924	
   6.97005	0.00250804	   6.97619	0.00252996	   6.97646	 0.0025168	   6.97423	0.00251827	   6.97423	   62.9567	
   6.90856	0.00250251	   6.91451	0.00252449	   6.91457	0.00251141	   6.91255	 0.0025128	   6.91255	     62.82	
   6.84682	0.00249685	   6.85258	0.00251893	   6.85247	0.00250598	   6.85062	0.00250726	   6.85062	   62.6814	
   6.78479	0.00249109	   6.79037	0.00251334	   6.79017	 0.0025005	   6.78844	0.00250164	   6.78844	    62.541	
   6.72238	0.00248537	   6.72784	 0.0025077	   6.72747	 0.0024949	    6.7259	0.00249599	    6.7259	   62.3997	
    6.6598	0.00247959	   6.66513	0.00250201	   6.66461	0.00248925	   6.66318	0.00249028	   6.66318	    62.257	
   6.59748	0.00247359	   6.60223	0.00249623	   6.60144	0.00248355	   6.60038	0.00248446	   6.60038	   62.1114	
   6.53491	0.00246764	   6.53897	0.00249037	   6.53794	0.00247774	   6.53727	0.00247858	   6.53727	   61.9645	
   6.47129	0.00246175	   6.47554	0.00248452	    6.4743	0.00247187	   6.47371	0.00247271	   6.47371	   61.8179	
   6.40736	0.00245566	   6.41203	0.00247858	   6.41047	0.00246595	   6.40996	0.00246673	   6.40996	   61.6683	
   6.34353	0.00244951	   6.34852	0.00247244	   6.34638	0.00245993	   6.34614	0.00246063	   6.34614	   61.5157	
   6.27937	0.00244343	   6.28449	0.00246634	   6.28217	0.00245383	   6.28201	0.00245453	   6.28201	   61.3633	
   6.21481	 0.0024372	   6.21999	0.00246022	   6.21757	0.00244766	   6.21746	0.00244836	   6.21746	    61.209	
   6.14996	0.00243087	   6.15533	0.00245384	   6.15279	0.00244141	   6.15269	0.00244204	   6.15269	    61.051	
     6.085	0.00242457	   6.09059	0.00244741	   6.08785	0.00243516	   6.08781	0.00243571	   6.08781	   60.8928	
   6.01978	0.00241812	   6.02552	0.00244099	   6.02262	0.00242878	   6.02264	 0.0024293	   6.02264	   60.7324	
    5.9544	0.00241154	   5.96031	0.00243434	   5.95728	0.00242223	   5.95733	 0.0024227	   5.95733	   60.5676	
   5.88877	0.00240498	   5.89488	0.00242757	    5.8917	0.00241574	   5.89178	 0.0024161	   5.89178	   60.4024	
   5.82286	0.00239834	   5.82915	0.00242081	   5.82591	0.00240915	   5.82597	0.00240944	   5.82597	   60.2359	
   5.75666	0.00239149	   5.76326	0.00241388	   5.76003	0.00240238	   5.75998	0.00240258	   5.75998	   60.0646	
   5.69013	0.00238461	    5.6969	0.00240682	   5.69377	0.00239564	    5.6936	0.00239569	    5.6936	   59.8923	
   5.62339	0.00237776	   5.63036	0.00239977	   5.62722	0.00238879	   5.62699	0.00238877	   5.62699	   59.7193	
   5.55647	0.00237074	   5.56371	 0.0023926	   5.56043	0.00238176	    5.5602	 0.0023817	    5.5602	   59.5425	
   5.48933	0.00236357	   5.49675	0.00238531	   5.49306	0.00237475	   5.49304	0.00237454	   5.49304	   59.3635	
   5.42192	0.00235644	   5.42964	0.00237803	   5.42544	0.00236767	   5.42567	0.00236738	   5.42567	   59.1844	
   5.35432	0.00234924	    5.3623	0.00237065	   5.35789	0.00236037	   5.35817	0.00236009	   5.35817	   59.0022	
   5.28651	0.00234188	   5.29471	0.00236315	   5.29007	0.00235306	   5.29043	 0.0023527	   5.29043	   58.8174	
   5.21859	0.00233452	   5.22703	0.00235565	   5.22211	0.00234568	   5.22258	0.00234528	   5.22258	   58.6321	
   5.15036	0.00232712	     5.159	 0.0023481	   5.15407	0.00233809	   5.15448	0.00233777	   5.15448	   58.4443	
   5.08204	0.00231957	   5.09082	0.00234042	   5.08566	0.00233047	   5.08617	0.00233015	   5.08617	   58.2538	
    5.0134	0.00231196	   5.02231	0.00233273	   5.01691	0.00232275	   5.01754	0.00232248	   5.01754	    58.062	
   4.94452	0.00230433	   4.95357	0.00232502	   4.94804	0.00231483	   4.94871	0.00231473	   4.94871	   57.8682	
   4.87561	0.00229657	   4.88476	0.00231716	   4.87905	0.00230685	   4.87981	0.00230686	   4.87981	   57.6716	
   4.80629	 0.0022887	   4.81581	0.00230927	   4.80978	0.00229881	   4.81063	0.00229893	   4.81063	   57.4731	
   4.73686	 0.0022808	   4.74657	0.00230132	   4.74029	 0.0022906	   4.74124	0.00229091	   4.74124	   57.2727	
   4.66731	0.00227278	   4.67717	0.00229325	    4.6708	0.00228228	   4.67176	0.00228277	   4.67176	   57.0692	
   4.59749	0.00226463	   4.60752	0.00228518	   4.60115	0.00227391	   4.60205	0.00227457	   4.60205	   56.8644	
   4.52762	 0.0022564	   4.53773	0.00227701	   4.53119	0.00226541	   4.53218	0.00226628	   4.53218	   56.6569	
   4.45743	0.00224807	   4.46764	0.00226864	   4.46109	0.00225678	   4.46205	0.00225783	   4.46205	   56.4457	
   4.38711	0.00223967	   4.39738	0.00226029	   4.39084	0.00224806	   4.39178	0.00224934	   4.39178	   56.2335	
   4.31665	0.00223115	   4.32705	0.00225188	   4.32046	0.00223924	   4.32139	0.00224076	   4.32139	   56.0189	
   4.24591	0.00222245	   4.25645	0.00224322	   4.24981	0.00223034	   4.25072	  0.002232	   4.25072	   55.8001	
   4.17516	0.00221371	   4.18581	0.00223453	   4.17914	 0.0022213	   4.18004	0.00222318	   4.18004	   55.5796	
    4.1042	0.00220486	   4.11501	0.00222579	   4.10831	0.00221214	   4.10917	0.00221426	   4.10917	   55.3566	
   4.03308	0.00219583	   4.04401	 0.0022168	   4.03731	 0.0022029	   4.03814	0.00220518	   4.03814	   55.1294	
   3.96191	0.00218674	   3.97298	0.00220772	   3.96632	0.00219354	   3.96707	  0.002196	   3.96707	      54.9	
   3.89055	0.00217756	   3.90172	0.00219861	   3.89502	0.00218402	   3.89576	0.00218673	   3.89576	   54.6683	
    3.8191	0.00216818	   3.83039	0.00218929	   3.82364	0.00217442	   3.82438	 0.0021773	   3.82438	   54.4325	
   3.74748	 0.0021587	   3.75889	0.00217984	   3.75208	 0.0021647	   3.75282	0.00216775	   3.75282	   54.1936	
   3.67575	0.00214917	    3.6872	0.00217038	   3.68036	0.00215481	    3.6811	0.00215812	    3.6811	    53.953	
   3.60384	0.00213946	   3.61546	0.00216074	   3.60869	0.00214484	   3.60933	0.00214835	   3.60933	   53.7086	
   3.53174	0.00212962	   3.54338	0.00215095	   3.53676	0.00213473	   3.53729	0.00213843	   3.53729	   53.4609	
   3.45961	0.00211973	   3.47119	0.00214119	   3.46474	0.00212447	   3.46518	0.00212846	   3.46518	   53.2116	
   3.38744	0.00210967	   3.39882	0.00213126	   3.39257	0.00211411	   3.39295	0.00211835	   3.39295	   52.9587	
   3.31511	0.00209948	   3.32627	0.00212112	   3.32022	0.00210362	   3.32053	0.00210807	   3.32053	   52.7019	
   3.24276	0.00208924	   3.25366	  0.002111	   3.24783	0.00209296	   3.24808	0.00209773	   3.24808	   52.4433	
   3.17033	0.00207885	   3.18078	0.00210076	   3.17519	 0.0020822	   3.17543	0.00208727	   3.17543	   52.1818	
   3.09776	0.00206832	   3.10787	0.00209027	   3.10242	0.00207133	   3.10268	0.00207664	   3.10268	    51.916	
     3.025	0.00205772	   3.03473	0.00207976	   3.02934	0.00206025	   3.02969	0.00206591	   3.02969	   51.6477	
   2.95202	0.00204697	   2.96143	0.00206918	   2.95613	 0.0020491	   2.95653	0.00205509	   2.95653	   51.3772	
   2.87853	0.00203614	   2.88825	0.00205833	   2.88295	 0.0020379	   2.88324	0.00204412	   2.88324	   51.1031	
   2.80508	 0.0020252	   2.81499	 0.0020474	    2.8095	0.00202648	   2.80985	0.00203302	   2.80985	   50.8256	
   2.73147	0.00201412	   2.74148	0.00203641	   2.73606	0.00201496	   2.73634	0.00202183	   2.73634	   50.5457	
   2.65799	0.00200293	   2.66807	0.00202509	   2.66238	0.00200341	   2.66281	0.00201048	   2.66281	    50.262	
   2.58449	0.00199162	    2.5946	0.00201367	   2.58859	0.00199168	   2.58922	0.00199899	   2.58922	   49.9747	
    2.5105	0.00198019	   2.52082	0.00200218	   2.51475	0.00197983	   2.51535	 0.0019874	   2.51535	    49.685	
   2.43683	0.00196864	   2.44701	0.00199039	   2.44072	0.00196795	   2.44152	0.00197566	   2.44152	   49.3915	
   2.36295	0.00195694	   2.37308	0.00197842	   2.36673	 0.0019559	   2.36759	0.00196375	   2.36759	   49.0938	
   2.28867	0.00194511	   2.29915	 0.0019664	   2.29252	0.00194373	   2.29345	0.00195175	   2.29345	   48.7937	
   2.21441	0.00193318	   2.22503	0.00195408	   2.21823	0.00193152	   2.21922	0.00193959	   2.21922	   48.4898	
   2.14016	 0.0019211	    2.1507	0.00194155	   2.14401	0.00191917	   2.14496	0.00192727	   2.14496	   48.1818	
   2.06583	0.00190886	   2.07623	0.00192898	   2.06962	0.00190669	   2.07056	0.00191484	   2.07056	   47.8711	
   1.99123	0.00189649	   2.00173	0.00191618	   1.99523	0.00189412	   1.99606	0.00190226	   1.99606	   47.5566	
   1.91668	0.00188399	   1.92708	0.00190314	   1.92065	0.00188143	   1.92147	0.00188952	   1.92147	    47.238	
   1.84216	0.00187135	   1.85233	0.00189003	   1.84601	0.00186859	   1.84683	0.00187666	   1.84683	   46.9164	
   1.76765	0.00185854	   1.77759	0.00187676	   1.77134	0.00185564	   1.77219	0.00186365	   1.77219	   46.5912	
   1.69297	0.00184564	   1.70278	0.00186326	   1.69648	0.00184257	   1.69741	0.00185049	   1.69741	   46.2622	
   1.61836	0.00183254	   1.62797	0.00184969	   1.62171	0.00182932	   1.62268	0.00183719	   1.62268	   45.9296	
   1.54358	0.00181929	    1.5532	  0.001836	   1.54689	0.00181597	   1.54789	0.00182375	   1.54789	   45.5938	
   1.46878	0.00180592	   1.47834	0.00182204	   1.47203	0.00180248	   1.47305	0.00181015	   1.47305	   45.2538	
   1.39403	0.00179237	   1.40347	  0.001808	   1.39713	0.00178882	   1.39821	 0.0017964	   1.39821	   44.9099	
    1.3192	0.00177865	   1.32838	 0.0017939	   1.32205	0.00177504	   1.32321	0.00178253	   1.32321	   44.5633	
   1.24439	0.00176483	   1.25331	0.00177955	   1.24698	0.00176112	   1.24822	 0.0017685	   1.24822	   44.2126	
    1.1694	0.00175084	   1.17817	0.00176506	   1.17176	0.00174702	   1.17311	 0.0017543	   1.17311	   43.8576	
   1.09436	0.00173665	   1.10296	 0.0017505	   1.09653	0.00173279	   1.09795	0.00173998	   1.09795	   43.4995	
   1.01945	0.00172234	   1.02782	 0.0017357	   1.02139	0.00171848	   1.02289	 0.0017255	   1.02289	   43.1376	
  0.944392	 0.0017079	   0.95249	0.00172077	  0.946095	0.00170397	  0.947659	0.00171088	  0.947659	   42.7719	
  0.869425	0.00169329	  0.877195	0.00170578	  0.870868	0.00168931	  0.872496	0.00169613	  0.872496	   42.4031	
  0.794345	0.00167854	  0.801749	0.00169055	  0.795719	0.00167456	  0.797271	0.00168122	  0.797271	   42.0304	
  0.719224	0.00166366	  0.726275	0.00167522	  0.720716	0.00165959	  0.722071	0.00166616	  0.722071	   41.6539	
  0.644126	0.00164863	  0.650789	0.00165977	  0.645437	0.00164455	  0.646784	0.00165098	  0.646784	   41.2746	
  0.568907	0.00163342	  0.575201	0.00164411	  0.569812	0.00162947	  0.571307	0.00163567	  0.571307	   40.8916	
  0.493791	0.00161811	   0.49968	0.00162832	  0.494288	0.00161413	   0.49592	0.00162019	   0.49592	   40.5046	
  0.418578	0.00160268	  0.424084	0.00161241	   0.41882	0.00159866	  0.420494	0.00160458	  0.420494	   40.1146	
  0.343287	0.00158706	  0.348481	 0.0015963	  0.343315	0.00158317	  0.345028	0.00158884	  0.345028	    39.721	
  0.268018	0.00157139	   0.27303	0.00158004	  0.267761	0.00156745	  0.269603	0.00157296	  0.269603	    39.324	
  0.192645	0.00155555	  0.197428	0.00156367	  0.192147	0.00155157	  0.194074	0.00155693	  0.194074	   38.9232	
   0.11739	0.00153948	  0.121957	0.00154712	  0.116594	0.00153564	  0.118647	0.00154075	  0.118647	   38.5187	
 0.0421243	0.00152344	 0.0463759	 0.0015304	 0.0409135	0.00151953	 0.0431379	0.00152446	 0.0431379	   38.1115	
 -0.033161	0.00150725	-0.0292043	0.00151356	-0.0347272	0.00150322	-0.0323642	0.00150801	-0.0323642	   37.7002	
 -0.108418	0.00149079	 -0.104571	0.00149655	 -0.110229	0.00148686	 -0.107739	 0.0014914	 -0.107739	   37.2849	
 -0.183776	0.00147429	 -0.179981	 0.0014794	 -0.185732	0.00147033	 -0.183163	0.00147467	 -0.183163	   36.8669	
  -0.25906	0.00145769	 -0.255268	0.00146208	 -0.261122	0.00145359	 -0.258484	0.00145779	 -0.258484	   36.4447	
 -0.334458	0.00144082	 -0.330562	 0.0014446	 -0.336535	0.00143679	 -0.333852	0.00144074	 -0.333852	   36.0184	
 -0.409861	0.00142386	 -0.405874	0.00142702	 -0.411924	0.00141981	  -0.40922	0.00142356	  -0.40922	    35.589	
 -0.485207	0.00140681	 -0.481141	0.00140925	 -0.487329	0.00140258	 -0.484559	0.00140621	 -0.484559	   35.1554	
 -0.560694	0.00138951	 -0.556504	0.00139133	  -0.56273	0.00138533	 -0.559976	0.00138872	 -0.559976	   34.7181	
 -0.636043	0.00137209	 -0.631744	0.00137332	 -0.637973	0.00136792	 -0.635253	0.00137111	 -0.635253	   34.2778	
 -0.711456	0.00135459	 -0.706912	0.00135513	 -0.713263	0.00135023	 -0.710543	0.00135332	 -0.710543	   33.8329	
 -0.786866	0.00133686	 -0.782103	0.00133675	 -0.788532	0.00133247	 -0.785834	0.00133536	 -0.785834	   33.3841	
 -0.862211	0.00131897	 -0.857152	0.00131831	  -0.86377	0.00131458	 -0.861044	0.00131729	 -0.861044	   32.9322	
 -0.937534	0.00130101	 -0.932264	0.00129975	 -0.939072	0.00129637	  -0.93629	0.00129904	  -0.93629	    32.476	
  -1.01273	0.00128283	  -1.00727	0.00128098	  -1.01427	0.00127806	  -1.01142	0.00128062	  -1.01142	   32.0156	
  -1.08804	0.00126447	  -1.08233	0.00126209	  -1.08947	0.00125971	  -1.08661	0.00126209	  -1.08661	   31.5523	
  -1.16336	0.00124605	  -1.15742	0.00124311	  -1.16465	0.00124108	  -1.16181	0.00124341	  -1.16181	   31.0852	
  -1.23851	0.00122743	  -1.23232	0.00122397	  -1.23971	0.00122222	  -1.23685	0.00122454	  -1.23685	   30.6135	
  -1.31366	0.00120863	  -1.30736	0.00120468	  -1.31479	0.00120337	  -1.31194	0.00120556	  -1.31194	    30.139	
  -1.38868	0.00118974	  -1.38229	0.00118529	  -1.38974	0.00118431	  -1.38691	0.00118645	  -1.38691	   29.6612	
  -1.46374	 0.0011707	  -1.45703	0.00116575	  -1.46465	0.00116503	  -1.46181	0.00116716	  -1.46181	   29.1791	
  -1.53882	0.00115144	  -1.53183	0.00114606	  -1.53957	0.00114576	  -1.53674	0.00114775	  -1.53674	   28.6939	
  -1.61377	0.00113208	  -1.60653	0.00112625	  -1.61434	 0.0011263	  -1.61155	0.00112821	  -1.61155	   28.2053	
  -1.68882	0.00111259	  -1.68133	 0.0011063	  -1.68911	0.00110659	  -1.68642	0.00110849	  -1.68642	   27.7123	
  -1.76376	0.00109288	  -1.75605	0.00108619	  -1.76377	0.00108688	   -1.7612	0.00108865	   -1.7612	   27.2162	
  -1.83856	0.00107303	  -1.83072	0.00106595	  -1.83834	0.00106702	  -1.83588	0.00106867	  -1.83588	   26.7166	
   -1.9133	0.00105313	  -1.90547	0.00104559	  -1.91296	0.00104694	  -1.91058	0.00104855	  -1.91058	   26.2138	
  -1.98787	0.00103306	  -1.98007	0.00102508	  -1.98736	0.00102682	   -1.9851	0.00102832	   -1.9851	    25.708	
  -2.06259	0.00101274	   -2.0546	0.00100442	  -2.06178	0.00100653	  -2.05966	 0.0010079	  -2.05966	   25.1974	
  -2.13723	0.000992326	  -2.12909	0.00098365	  -2.13613	0.000986021	  -2.13415	0.000987332	  -2.13415	   24.6833	
  -2.21159	0.000971832	  -2.20345	0.000962757	  -2.21027	0.000965438	  -2.20844	0.000966676	  -2.20844	   24.1669	
  -2.28593	0.000951129	   -2.2772	0.000941638	   -2.2844	0.000944688	  -2.28251	0.000945818	  -2.28251	   23.6454	
  -2.36011	0.000930306	  -2.35096	0.000920382	  -2.35835	0.000923672	  -2.35647	0.000924787	  -2.35647	   23.1197	
  -2.43424	0.00090941	  -2.42501	0.000899127	  -2.43222	0.000902562	  -2.43049	 0.0009037	  -2.43049	   22.5925	
  -2.50836	0.00088833	  -2.49918	0.000877672	  -2.50608	0.00088132	  -2.50454	0.000882441	  -2.50454	    22.061	
  -2.58221	0.000867114	  -2.57304	0.000856002	  -2.57983	0.000859816	  -2.57836	0.000860977	  -2.57836	   21.5244	
  -2.65604	0.000845824	  -2.64674	0.000834292	  -2.65355	0.000838193	  -2.65211	0.000839436	  -2.65211	   20.9859	
  -2.72975	0.000824375	  -2.72026	0.000812414	  -2.72716	0.000816451	  -2.72572	0.000817747	  -2.72572	   20.4437	
  -2.80316	0.000802771	  -2.79371	0.00079032	  -2.80061	0.000794502	  -2.79916	0.000795864	  -2.79916	   19.8966	
  -2.87646	0.000781072	  -2.86703	0.000768159	  -2.87412	0.00077243	  -2.87254	0.000773887	  -2.87254	   19.3472	
  -2.94959	0.000759225	  -2.94019	0.000745845	  -2.94736	0.000750231	  -2.94571	0.000751767	  -2.94571	   18.7942	
  -3.02259	0.000737239	  -3.01335	0.000723324	  -3.02046	0.000727854	   -3.0188	0.000729473	   -3.0188	   18.2368	
  -3.09553	0.000715128	  -3.08651	0.000700711	  -3.09342	0.000705363	  -3.09182	0.000707067	  -3.09182	   17.6767	
   -3.1682	0.000692872	  -3.15946	0.000677979	  -3.16625	0.000682748	  -3.16464	0.000684533	  -3.16464	   17.1133	
  -3.24093	0.000670469	   -3.2323	0.000655053	  -3.23872	0.000659991	  -3.23731	0.000661838	  -3.23731	   16.5459	
  -3.31356	0.000647944	  -3.30505	0.000632031	   -3.3112	0.000637133	  -3.30994	0.000639036	  -3.30994	   15.9759	
  -3.38595	0.000625306	  -3.37767	0.000608914	  -3.38359	0.000614181	   -3.3824	0.000616134	   -3.3824	   15.4033	
  -3.45825	0.00060254	  -3.45026	0.000585627	  -3.45589	0.000591098	   -3.4548	0.000593089	   -3.4548	   14.8272	
  -3.53039	0.000579628	  -3.52269	0.000562248	  -3.52796	0.000567923	  -3.52701	0.000569933	  -3.52701	   14.2483	
  -3.60243	0.000556617	  -3.59485	0.000538803	  -3.59997	0.000544669	  -3.59908	0.000546697	  -3.59908	   13.6674	
  -3.67437	0.000533495	  -3.66703	0.000515208	  -3.67176	0.000521291	  -3.67105	0.000523331	  -3.67105	   13.0833	
  -3.74607	0.000510229	  -3.73898	0.000491519	  -3.74337	0.000497807	  -3.74281	0.000499851	  -3.74281	   12.4963	
  -3.81766	0.000486857	  -3.81081	0.00046778	  -3.81491	0.000474239	  -3.81446	0.000476292	  -3.81446	   11.9073	
   -3.8892	0.00046339	  -3.88252	0.000443912	  -3.88645	0.000450554	  -3.88606	0.000452619	  -3.88606	   11.3155	
  -3.96055	0.000439831	  -3.95394	0.000419949	  -3.95789	0.000426755	  -3.95746	0.000428845	  -3.95746	   10.7211	
  -4.03166	0.000416165	  -4.02518	0.000395947	  -4.02918	0.000402867	  -4.02867	0.000404993	  -4.02867	   10.1248	
  -4.10267	0.000392359	  -4.09633	0.000371836	  -4.10034	0.000378866	  -4.09978	0.000381021	  -4.09978	   9.52551	
  -4.17344	0.000368487	  -4.16718	0.000347633	  -4.17123	0.000354746	  -4.17062	0.000356955	  -4.17062	   8.92388	
  -4.24424	0.000344508	  -4.23801	0.000323395	  -4.24196	0.000330545	  -4.24141	0.000332816	  -4.24141	    8.3204	
  -4.31492	0.000320385	   -4.3087	0.000299064	  -4.31248	0.000306237	  -4.31203	0.000308562	  -4.31203	   7.71404	
  -4.38541	0.000296222	  -4.37919	0.000274641	  -4.38274	0.000281798	  -4.38245	0.00028422	  -4.38245	   7.10551	
  -4.45575	0.000272015	  -4.44961	0.000250159	  -4.45298	0.00025731	  -4.45278	0.000259828	  -4.45278	    6.4957	
  -4.52589	0.000247665	  -4.51983	 0.0002256	  -4.52301	0.000232741	  -4.52291	0.000235335	  -4.52291	   5.88338	
  -4.59569	0.000223192	  -4.58982	0.000200981	  -4.59285	0.000208059	  -4.59279	0.000210744	  -4.59279	    5.2686	
  -4.66532	0.000198697	  -4.65964	0.000176275	  -4.66257	0.000183335	  -4.66251	0.000186102	  -4.66251	   4.65255	
  -4.73473	0.000174114	  -4.72923	0.000151497	  -4.73205	0.000158471	    -4.732	0.000161361	    -4.732	   4.03402	
  -4.80388	0.000149396	  -4.79866	0.000126686	   -4.8013	0.000133549	  -4.80128	0.000136543	  -4.80128	   3.41359	
  -4.87297	0.000124634	    -4.868	0.000101797	  -4.87047	0.000108681	  -4.87048	0.000111704	  -4.87048	   2.79261	
  -4.94185	9.98449e-05	  -4.93708	7.68514e-05	  -4.93936	8.3695e-05	  -4.93943	8.67971e-05	  -4.93943	   2.16993	
  -5.01025	7.49676e-05	  -5.00592	5.1872e-05	  -5.00821	5.85607e-05	  -5.00813	6.18001e-05	  -5.00813	     1.545	
  -5.07819	4.99307e-05	  -5.07466	2.68304e-05	    -5.077	3.35225e-05	  -5.07662	3.67612e-05	  -5.07662	  0.919029	
  -5.14621	2.48998e-05	  -5.14312	1.76837e-06	  -5.14553	8.44384e-06	  -5.14495	1.1704e-05	  -5.14495	    0.2926	
  -5.21444	-9.23241e-08	  -5.21146	-2.33272e-05	  -5.21376	-1.67853e-05	  -5.21322	-1.34016e-05	  -5.21322	  -0.33504	
  -5.28229	-2.52378e-05	  -5.27973	-4.85199e-05	   -5.2819	-4.19022e-05	  -5.28131	-3.85533e-05	  -5.28131	 -0.963833	
  -5.34982	-5.04246e-05	   -5.3477	-7.37074e-05	  -5.34974	-6.70706e-05	  -5.34909	-6.37342e-05	  -5.34909	  -1.59336	
  -5.41732	-7.55172e-05	  -5.41542	-9.88962e-05	  -5.41732	-9.23388e-05	  -5.41669	-8.89174e-05	  -5.41669	  -2.22294	
  -5.48476	-0.000100708	  -5.48307	-0.000124209	  -5.48482	-0.00011753	  -5.48421	-0.000114149	  -5.48421	  -2.85373	
  -5.55191	-0.000125966	   -5.5504	-0.000149511	  -5.55205	-0.000142718	  -5.55145	-0.000139398	  -5.55145	  -3.48496	
  -5.61866	-0.000151132	  -5.61733	-0.000174774	  -5.61898	-0.000167984	  -5.61832	-0.00016463	  -5.61832	  -4.11575	
  -5.68528	-0.00017635	  -5.68409	-0.000200067	  -5.68577	-0.000193216	  -5.68505	-0.000189878	  -5.68505	  -4.74694	
  -5.75163	-0.000201679	  -5.75062	-0.000225386	  -5.75232	-0.000218434	  -5.75152	-0.000215167	  -5.75152	  -5.37916	
  -5.81761	-0.000226888	  -5.81699	-0.000250758	  -5.81862	-0.000243685	  -5.81774	-0.000240444	  -5.81774	  -6.01109	
  -5.88353	-0.000252106	  -5.88319	-0.000276168	  -5.88481	-0.000268924	  -5.88384	-0.000265733	  -5.88384	  -6.64331	
   -5.9492	-0.000277431	  -5.94929	-0.000301514	  -5.95076	-0.000294109	  -5.94975	-0.000291018	  -5.94975	  -7.27545	
  -6.01453	-0.000302663	   -6.0153	-0.000326864	  -6.01636	-0.00031932	   -6.0154	-0.000316282	   -6.0154	  -7.90705	
  -6.07965	-0.000327918	  -6.08088	-0.000352296	  -6.08177	-0.000344512	  -6.08077	-0.000341575	  -6.08077	  -8.53938	
  -6.14457	-0.00035327	  -6.14621	-0.000377671	  -6.14691	-0.000369647	   -6.1459	-0.000366863	   -6.1459	  -9.17156	
  -6.20912	-0.000378547	  -6.21133	-0.000403013	   -6.2118	-0.000394779	  -6.21075	-0.000392113	  -6.21075	  -9.80282	
  -6.27341	-0.000403838	  -6.27617	-0.000428428	  -6.27657	-0.000419908	  -6.27538	-0.000417391	  -6.27538	  -10.4348	
  -6.33754	-0.000429208	  -6.34057	-0.00045376	  -6.34111	-0.000444971	  -6.33974	-0.000442646	  -6.33974	  -11.0662	
   -6.4013	-0.000454526	  -6.40481	-0.000479062	  -6.40521	-0.000470019	  -6.40377	-0.000467869	  -6.40377	  -11.6967	
   -6.4648	-0.000479814	  -6.46882	-0.000504409	  -6.46893	-0.000495055	  -6.46752	-0.000493093	  -6.46752	  -12.3273	
  -6.52814	-0.000505169	   -6.5325	-0.000529682	  -6.53249	-0.000520027	  -6.53105	-0.000518293	  -6.53105	  -12.9573	
  -6.59116	-0.00053048	  -6.59591	-0.000554908	  -6.59569	-0.000544982	  -6.59426	-0.000543457	  -6.59426	  -13.5864	
  -6.65383	-0.000555746	  -6.65916	-0.000580158	  -6.65868	-0.000569927	  -6.65722	-0.00056861	  -6.65722	  -14.2153	
  -6.71634	-0.000581058	  -6.72207	-0.000605343	  -6.72157	-0.000594815	  -6.71999	-0.000593738	  -6.71999	  -14.8435	
  -6.77861	-0.000606318	  -6.78468	-0.000630463	  -6.78413	-0.000619676	  -6.78247	-0.000618819	  -6.78247	  -15.4705	
  -6.84054	-0.000631512	   -6.8471	-0.000655591	  -6.84624	-0.000644489	  -6.84463	-0.000643864	  -6.84463	  -16.0966	
  -6.90224	-0.000656708	  -6.90927	-0.000680661	  -6.90817	-0.000669267	  -6.90656	-0.000668879	  -6.90656	   -16.722	
  -6.96377	-0.000681851	   -6.9711	-0.000705641	  -6.96986	-0.000694047	  -6.96824	-0.000693846	  -6.96824	  -17.3462	
  -7.02492	-0.000706899	  -7.03249	-0.000730619	  -7.03118	-0.000718753	  -7.02953	-0.000718757	  -7.02953	  -17.9689	
  -7.08582	-0.000731917	  -7.09356	-0.000755546	  -7.09234	-0.000743399	  -7.09058	-0.000743621	  -7.09058	  -18.5905	
  -7.14653	-0.000756871	  -7.15439	-0.000780368	  -7.15334	-0.000768008	  -7.15142	-0.000768416	  -7.15142	  -19.2104	
    -7.207	-0.00078171	  -7.21488	-0.000805146	  -7.21403	-0.000792531	  -7.21197	-0.000793129	  -7.21197	  -19.8282	
  -7.26713	-0.00080649	   -7.2749	-0.00082987	  -7.27449	-0.000817017	  -7.27217	-0.000817793	  -7.27217	  -20.4448	
  -7.32711	-0.00083118	  -7.33463	-0.000854482	  -7.33481	-0.000841458	  -7.33218	-0.000842373	  -7.33218	  -21.0593	
  -7.38688	-0.000855771	  -7.39414	-0.000879013	  -7.39485	-0.000865785	  -7.39196	-0.000866856	  -7.39196	  -21.6714	
  -7.44625	-0.000880286	  -7.45324	-0.000903539	  -7.45452	-0.000890039	  -7.45134	-0.000891288	  -7.45134	  -22.2822	
  -7.50526	-0.000904726	  -7.51206	-0.000927885	  -7.51395	-0.000914258	  -7.51042	-0.000915623	  -7.51042	  -22.8906	
  -7.56401	-0.000929066	  -7.57061	-0.000952057	  -7.57321	-0.00093836	  -7.56927	-0.000939828	  -7.56927	  -23.4957	
  -7.62248	-0.000953244	  -7.62886	-0.000976325	  -7.63209	-0.000962353	  -7.62781	-0.000963974	  -7.62781	  -24.0994	
  -7.68055	-0.000977364	   -7.6867	-0.00100047	   -7.6906	-0.000986297	  -7.68595	-0.000988045	  -7.68595	  -24.7011	
   -7.7384	-0.00100143	  -7.74436	-0.00102432	  -7.74889	-0.0010101	  -7.74388	-0.00101195	  -7.74388	  -25.2988	
   -7.7961	-0.00102528	   -7.8018	-0.00104823	  -7.80693	-0.00103376	  -7.80161	-0.00103576	  -7.80161	  -25.8939	
  -7.85346	-0.00104905	  -7.85888	-0.0010721	  -7.86455	-0.00105738	  -7.85896	-0.00105951	  -7.85896	  -26.4877	
   -7.9104	-0.00107277	  -7.91555	-0.00109564	  -7.92172	-0.00108085	  -7.91589	-0.00108309	  -7.91589	  -27.0771	
  -7.96711	-0.00109628	  -7.97199	-0.00111917	  -7.97873	-0.00110415	  -7.97261	-0.00110653	  -7.97261	  -27.6633	
  -8.02363	-0.00111968	  -8.02822	-0.00114268	  -8.03546	-0.00112739	   -8.0291	-0.00112992	   -8.0291	   -28.248	
  -8.07975	-0.00114305	  -8.08406	-0.00116581	  -8.09177	-0.00115048	  -8.08519	-0.00115311	  -8.08519	  -28.8279	
  -8.13568	-0.00116616	   -8.1395	-0.00118887	   -8.1477	-0.00117339	  -8.14096	-0.00117614	  -8.14096	  -29.4035	
  -8.19127	-0.00118914	  -8.19473	-0.00121197	  -8.20345	-0.0011962	  -8.19648	-0.0011991	  -8.19648	  -29.9776	
  -8.24636	-0.0012121	  -8.24967	-0.0012347	  -8.25888	-0.00121884	  -8.25164	-0.00122188	  -8.25164	   -30.547	
  -8.30116	-0.00123478	  -8.30422	-0.00125728	  -8.31382	-0.00124129	   -8.3064	-0.00124445	   -8.3064	  -31.1112	
  -8.35546	-0.00125731	  -8.35843	-0.0012799	  -8.36841	-0.00126365	  -8.36076	-0.00126695	  -8.36076	  -31.6739	
  -8.40961	-0.00127984	  -8.41232	-0.00130221	   -8.4227	-0.00128586	  -8.41488	-0.0012893	  -8.41488	  -32.2325	
  -8.46359	-0.00130208	  -8.46599	-0.0013243	   -8.4767	-0.00130787	  -8.46876	-0.00131142	  -8.46876	  -32.7854	
  -8.51702	-0.00132413	  -8.51932	-0.00134646	  -8.53027	-0.00132974	   -8.5222	-0.00133344	   -8.5222	   -33.336	
  -8.57025	-0.00134619	   -8.5722	-0.00136835	  -8.58337	-0.00135146	  -8.57528	-0.00135533	  -8.57528	  -33.8833	
  -8.62322	-0.00136804	  -8.62482	-0.00138997	  -8.63626	-0.00137298	   -8.6281	 -0.001377	   -8.6281	  -34.4249	
  -8.67576	-0.00138959	  -8.67724	-0.00141169	  -8.68887	-0.00139435	  -8.68062	-0.00139855	  -8.68062	  -34.9637	
  -8.72794	-0.0014111	  -8.72929	-0.00143317	  -8.74104	-0.00141559	  -8.73276	-0.00141995	  -8.73276	  -35.4988	
   -8.7797	-0.0014325	  -8.78081	-0.00145433	  -8.79268	-0.00143659	   -8.7844	-0.00144114	   -8.7844	  -36.0285	
  -8.83126	-0.00145361	  -8.83208	-0.00147555	    -8.844	-0.00145743	  -8.83578	-0.0014622	  -8.83578	  -36.5549	
  -8.88243	-0.00147459	  -8.88304	-0.00149653	  -8.89506	-0.00147812	  -8.88684	-0.00148308	  -8.88684	   -37.077	
  -8.93329	-0.00149545	  -8.93368	-0.00151719	  -8.94579	-0.0014986	  -8.93759	-0.00150375	  -8.93759	  -37.5937	
  -8.98373	-0.00151604	  -8.98386	-0.00153786	  -8.99599	-0.00151889	  -8.98786	-0.00152426	  -8.98786	  -38.1065	
   -9.0337	-0.00153646	  -9.03348	-0.00155831	  -9.04574	-0.00153904	  -9.03764	-0.0015446	  -9.03764	  -38.6151	
  -9.08336	-0.00155676	  -9.08292	-0.00157843	  -9.09535	-0.00155898	  -9.08721	-0.00156472	  -9.08721	  -39.1181	
  -9.13278	-0.0015768	  -9.13208	-0.00159849	  -9.14467	-0.00157873	  -9.13651	-0.00158467	  -9.13651	  -39.6168	
   -9.1818	-0.00159665	  -9.18086	-0.0016184	  -9.19354	-0.00159833	   -9.1854	-0.00160446	   -9.1854	  -40.1114	
  -9.23035	-0.00161637	  -9.22913	-0.00163797	  -9.24187	-0.00161772	  -9.23378	-0.00162402	  -9.23378	  -40.6005	
  -9.27848	-0.00163585	  -9.27705	-0.00165744	  -9.28991	-0.0016369	  -9.28181	-0.0016434	  -9.28181	   -41.085	
  -9.32636	-0.00165513	  -9.32474	-0.00167678	  -9.33775	-0.00165593	  -9.32962	-0.00166261	  -9.32962	  -41.5653	
  -9.37396	-0.00167427	  -9.37215	-0.0016958	  -9.38525	-0.00167477	  -9.37712	-0.00168161	  -9.37712	  -42.0403	
  -9.42113	-0.00169318	  -9.41915	-0.00171471	  -9.43227	-0.00169339	  -9.42418	-0.00170043	  -9.42418	  -42.5107	
  -9.46779	-0.00171188	   -9.4656	-0.00173349	  -9.47885	-0.00171185	  -9.47075	-0.00171907	  -9.47075	  -42.9768	
  -9.51407	-0.00173044	  -9.51169	-0.00175198	  -9.52515	-0.00173012	  -9.51697	-0.00173751	  -9.51697	  -43.4379	
  -9.55995	-0.00174879	  -9.55759	-0.00177032	  -9.57124	-0.00174819	  -9.56293	-0.00175577	  -9.56293	  -43.8942	
  -9.60556	-0.00176691	  -9.60321	-0.00178856	  -9.61697	-0.00176608	  -9.60858	-0.00177385	  -9.60858	  -44.3463	
  -9.65074	-0.00178489	  -9.64841	-0.00180651	  -9.66226	-0.00178379	  -9.65381	-0.00179173	  -9.65381	  -44.7932	
  -9.69549	-0.00180267	  -9.69312	-0.00182434	  -9.70699	-0.0018013	  -9.69853	-0.00180944	  -9.69853	  -45.2359	
  -9.73995	-0.00182022	   -9.7375	-0.00184205	  -9.75139	-0.00181864	  -9.74295	-0.00182697	  -9.74295	  -45.6743	
  -9.78413	-0.00183762	   -9.7817	-0.00185944	  -9.79559	-0.00183577	  -9.78714	-0.00184428	  -9.78714	  -46.1069	
  -9.82804	-0.00185483	  -9.82563	-0.00187666	  -9.83947	-0.00185271	  -9.83104	-0.0018614	  -9.83104	   -46.535	
  -9.87155	-0.00187181	  -9.86915	-0.0018938	  -9.88288	-0.00186947	  -9.87453	-0.00187836	  -9.87453	   -46.959	
  -9.91455	-0.00188863	  -9.91216	-0.00191064	  -9.92573	-0.00188603	  -9.91748	-0.0018951	  -9.91748	  -47.3775	
  -9.95696	-0.00190528	   -9.9547	-0.00192724	  -9.96817	-0.00190239	  -9.95995	-0.00191164	  -9.95995	   -47.791	
  -9.99901	-0.00192169	  -9.99691	-0.00194373	  -10.0103	-0.00191859	  -10.0021	 -0.001928	  -10.0021	  -48.2001	
  -10.0409	-0.00193794	  -10.0389	-0.00195997	  -10.0521	-0.00193461	  -10.0439	-0.00194417	  -10.0439	  -48.6044	
  -10.0824	-0.00195402	  -10.0805	-0.00197598	  -10.0935	-0.00195032	  -10.0855	-0.00196011	  -10.0855	  -49.0027	
  -10.1235	-0.00196985	  -10.1217	-0.00199182	  -10.1345	-0.00196592	  -10.1266	-0.00197586	  -10.1266	  -49.3966	
  -10.1641	-0.00198553	  -10.1624	-0.0020074	  -10.1749	-0.00198145	  -10.1671	-0.00199146	  -10.1671	  -49.7864	
  -10.2041	-0.00200103	  -10.2026	-0.00202276	  -10.2148	-0.00199668	  -10.2072	-0.00200682	  -10.2072	  -50.1705	
  -10.2437	-0.00201627	  -10.2423	-0.00203793	  -10.2545	-0.00201176	  -10.2468	-0.00202199	  -10.2468	  -50.5497	
  -10.2829	-0.00203136	  -10.2818	-0.00205287	   -10.294	-0.00202673	  -10.2862	-0.00203699	  -10.2862	  -50.9246	
  -10.3219	-0.00204627	   -10.321	-0.00206759	  -10.3331	-0.00204144	  -10.3253	-0.00205177	  -10.3253	  -51.2942	
  -10.3604	-0.00206095	  -10.3597	-0.00208214	  -10.3717	-0.00205599	  -10.3639	-0.00206636	  -10.3639	  -51.6589	
  -10.3984	-0.00207544	  -10.3979	-0.00209644	  -10.4097	-0.00207047	   -10.402	-0.00208078	   -10.402	  -52.0195	
  -10.4359	-0.00208976	  -10.4357	-0.00211057	  -10.4473	-0.00208469	  -10.4396	-0.00209501	  -10.4396	  -52.3751	
   -10.473	-0.00210385	   -10.473	-0.00212453	  -10.4844	-0.00209872	  -10.4768	-0.00210903	  -10.4768	  -52.7258	
  -10.5097	-0.00211772	    -10.51	-0.00213827	  -10.5213	-0.00211267	  -10.5137	-0.00212289	  -10.5137	  -53.0722	
  -10.5462	-0.00213146	  -10.5467	-0.00215181	  -10.5579	-0.0021264	  -10.5503	-0.00213656	  -10.5503	  -53.4139	
  -10.5823	-0.00214501	  -10.5831	-0.0021652	  -10.5941	-0.00213992	  -10.5865	-0.00215004	  -10.5865	  -53.7511	
   -10.618	-0.00215829	  -10.6191	-0.00217837	  -10.6298	-0.00215331	  -10.6223	-0.00216333	  -10.6223	  -54.0832	
  -10.6532	-0.00217141	  -10.6545	-0.00219137	   -10.665	-0.00216649	  -10.6576	-0.00217643	  -10.6576	  -54.4106	
  -10.6879	-0.00218441	  -10.6893	-0.00220419	  -10.6996	-0.00217947	  -10.6923	-0.00218936	  -10.6923	  -54.7339	
   -10.722	-0.00219717	  -10.7236	-0.00221682	  -10.7339	-0.00219232	  -10.7265	-0.0022021	  -10.7265	  -55.0525	
  -10.7556	-0.0022097	  -10.7575	-0.00222926	  -10.7678	-0.00220496	  -10.7603	-0.00221464	  -10.7603	   -55.366	
   -10.789	-0.00222211	  -10.7912	-0.00224153	  -10.8015	-0.00221735	  -10.7939	-0.00222699	  -10.7939	  -55.6748	
  -10.8221	-0.00223431	  -10.8247	-0.00225359	  -10.8348	-0.00222957	  -10.8272	-0.00223916	  -10.8272	  -55.9789	
  -10.8548	-0.00224628	  -10.8577	-0.00226547	  -10.8672	-0.0022417	  -10.8599	-0.00225115	  -10.8599	  -56.2788	
  -10.8871	-0.00225814	  -10.8902	-0.00227717	  -10.8992	-0.00225357	  -10.8922	-0.00226296	  -10.8922	   -56.574	
  -10.9189	-0.00226982	  -10.9222	-0.00228868	  -10.9315	-0.00226519	  -10.9242	-0.00227456	  -10.9242	  -56.8641	
  -10.9501	-0.00228126	  -10.9535	-0.00230001	  -10.9633	-0.00227671	  -10.9556	-0.00228599	  -10.9556	  -57.1498	
  -10.9807	-0.00229257	  -10.9844	-0.00231114	  -10.9944	-0.00228807	  -10.9865	-0.00229726	  -10.9865	  -57.4315	
  -11.0108	-0.00230372	  -11.0147	-0.00232208	  -11.0251	-0.00229918	  -11.0169	-0.00230832	  -11.0169	  -57.7081	
  -11.0406	-0.00231463	  -11.0448	-0.00233289	  -11.0554	-0.0023102	  -11.0469	-0.00231924	  -11.0469	   -57.981	
  -11.0701	-0.00232542	  -11.0746	-0.0023435	  -11.0854	-0.00232106	  -11.0767	-0.00232999	  -11.0767	  -58.2498	
  -11.0993	-0.00233605	  -11.1041	-0.00235388	   -11.115	-0.00233168	  -11.1061	-0.00234053	  -11.1061	  -58.5134	
  -11.1282	-0.00234645	  -11.1328	-0.00236419	  -11.1441	-0.0023422	  -11.1351	-0.00235095	  -11.1351	  -58.7737	
  -11.1567	-0.0023567	  -11.1612	-0.00237434	  -11.1727	-0.0023526	  -11.1636	-0.00236122	  -11.1636	  -59.0304	
  -11.1847	-0.00236685	  -11.1897	-0.00238418	  -11.2008	-0.00236277	  -11.1918	-0.00237127	  -11.1918	  -59.2816	
  -11.2122	-0.00237677	  -11.2178	-0.00239391	  -11.2282	-0.0023728	  -11.2194	-0.00238116	  -11.2194	   -59.529	
  -11.2391	-0.00238649	  -11.2451	-0.00240356	  -11.2552	-0.0023827	  -11.2465	-0.00239092	  -11.2465	  -59.7729	
  -11.2654	-0.00239609	   -11.272	-0.00241289	  -11.2817	-0.00239237	   -11.273	-0.00240045	   -11.273	  -60.0112	
  -11.2911	-0.00240553	  -11.2986	-0.00242204	  -11.3076	-0.00240187	  -11.2991	-0.00240982	  -11.2991	  -60.2454	
  -11.3165	-0.00241477	  -11.3245	-0.00243113	  -11.3332	-0.00241126	  -11.3248	-0.00241905	  -11.3248	  -60.4763	
  -11.3416	-0.00242388	    -11.35	-0.00243992	  -11.3585	-0.00242041	    -11.35	-0.00242807	    -11.35	  -60.7017	
  -11.3664	-0.00243284	  -11.3751	-0.0024485	  -11.3834	-0.00242937	   -11.375	-0.0024369	   -11.375	  -60.9226	
  -11.3907	-0.0024416	  -11.3999	-0.00245702	   -11.408	-0.00243823	  -11.3995	-0.00244562	  -11.3995	  -61.1404	
  -11.4146	-0.00245022	  -11.4242	-0.00246531	  -11.4322	-0.00244687	  -11.4237	-0.00245413	  -11.4237	  -61.3533	
  -11.4382	-0.0024587	  -11.4482	-0.00247335	  -11.4559	-0.00245531	  -11.4474	-0.00246245	  -11.4474	  -61.5613	
  -11.4613	-0.00246701	  -11.4717	-0.00248131	  -11.4791	-0.00246363	  -11.4707	-0.00247065	  -11.4707	  -61.7662	
  -11.4841	-0.00247516	  -11.4946	-0.0024891	  -11.5018	-0.00247176	  -11.4935	-0.00247867	  -11.4935	  -61.9668	
  -11.5063	-0.00248312	   -11.517	-0.00249665	  -11.5239	-0.00247967	  -11.5157	-0.00248648	  -11.5157	   -62.162	
   -11.528	-0.00249094	  -11.5388	-0.00250409	  -11.5454	-0.00248748	  -11.5374	-0.00249417	  -11.5374	  -62.3543	
  -11.5491	-0.00249866	    -11.56	-0.00251142	  -11.5663	-0.00249512	  -11.5585	-0.00250174	  -11.5585	  -62.5434	
  -11.5697	-0.00250618	  -11.5805	-0.00251851	  -11.5866	-0.00250256	  -11.5789	-0.00250908	  -11.5789	  -62.7271	
  -11.5897	-0.00251352	  -11.6005	-0.0025255	  -11.6063	-0.00250988	  -11.5988	-0.0025163	  -11.5988	  -62.9075	
  -11.6092	-0.00252077	  -11.6198	-0.0025324	  -11.6254	-0.00251708	  -11.6181	-0.00252342	  -11.6181	  -63.0855	
   -11.628	-0.00252787	  -11.6384	-0.0025391	  -11.6439	-0.00252408	  -11.6368	-0.00253035	  -11.6368	  -63.2587	
  -11.6464	-0.00253478	  -11.6565	-0.00254568	   -11.662	-0.00253101	  -11.6549	-0.00253715	  -11.6549	  -63.4289	
  -11.6643	-0.00254147	   -11.674	-0.00255221	  -11.6798	-0.00253782	  -11.6727	-0.00254383	  -11.6727	  -63.5958	
  -11.6816	-0.00254805	  -11.6911	-0.00255858	  -11.6972	-0.0025444	    -11.69	-0.00255035	    -11.69	  -63.7586	
  -11.6981	-0.00255463	  -11.7079	-0.00256475	  -11.7142	-0.00255092	  -11.7067	-0.00255676	  -11.7067	  -63.9191	
  -11.7145	-0.00256095	  -11.7243	-0.00257086	  -11.7307	-0.00255736	  -11.7232	-0.00256306	  -11.7232	  -64.0764	
  -11.7312	-0.00256705	  -11.7403	-0.00257692	  -11.7469	-0.00256362	  -11.7395	-0.0025692	  -11.7395	  -64.2299	
  -11.7472	-0.00257321	  -11.7559	-0.00258276	  -11.7629	-0.00256973	  -11.7553	-0.00257523	  -11.7553	  -64.3808	
  -11.7626	-0.00257924	  -11.7714	-0.00258847	  -11.7785	-0.00257578	  -11.7708	-0.00258117	  -11.7708	  -64.5291	
  -11.7776	-0.00258504	  -11.7865	-0.00259416	  -11.7937	-0.0025817	   -11.786	-0.00258697	   -11.786	  -64.6741	
  -11.7922	-0.00259082	  -11.8014	-0.00259968	  -11.8087	-0.00258745	  -11.8007	-0.00259265	  -11.8007	  -64.8162	
  -11.8062	-0.00259651	  -11.8158	-0.00260506	  -11.8233	-0.00259313	  -11.8151	-0.00259823	  -11.8151	  -64.9559	
  -11.8198	-0.00260196	  -11.8299	-0.00261042	  -11.8375	-0.0025987	  -11.8291	-0.00260369	  -11.8291	  -65.0923	
  -11.8332	-0.00260733	  -11.8436	-0.00261564	  -11.8512	-0.0026041	  -11.8427	-0.00260903	  -11.8427	  -65.2257	
  -11.8461	-0.00261269	   -11.857	-0.00262073	  -11.8645	-0.00260945	  -11.8559	-0.00261429	  -11.8559	  -65.3572	
  -11.8587	-0.00261784	    -11.87	-0.00262579	  -11.8774	-0.00261467	  -11.8687	-0.00261943	  -11.8687	  -65.4859	
  -11.8709	-0.00262284	  -11.8826	-0.00263076	  -11.8898	-0.00261979	  -11.8811	-0.00262446	  -11.8811	  -65.6115	
  -11.8829	-0.00262778	  -11.8947	-0.00263559	  -11.9018	-0.00262483	  -11.8931	-0.0026294	  -11.8931	   -65.735	
  -11.8944	-0.00263252	  -11.9065	-0.00264038	  -11.9133	-0.00262975	  -11.9048	-0.00263422	  -11.9048	  -65.8555	
  -11.9056	-0.00263709	  -11.9179	-0.00264509	  -11.9245	-0.00263457	   -11.916	-0.00263892	   -11.916	  -65.9729	
  -11.9164	-0.00264163	  -11.9288	-0.00264968	  -11.9351	-0.0026393	  -11.9268	-0.00264354	  -11.9268	  -66.0884	
  -11.9268	-0.00264593	  -11.9393	-0.00265421	  -11.9452	-0.00264392	  -11.9371	-0.00264802	  -11.9371	  -66.2006	
  -11.9367	-0.00265004	  -11.9493	-0.00265867	  -11.9549	-0.00264844	   -11.947	-0.00265239	   -11.947	  -66.3096	
  -11.9462	-0.00265414	  -11.9588	-0.00266303	  -11.9641	-0.00265291	  -11.9564	-0.00265669	  -11.9564	  -66.4173	
  -11.9553	-0.00265805	  -11.9678	-0.0026673	  -11.9728	-0.00265725	  -11.9653	-0.00266087	  -11.9653	  -66.5217	
   -11.964	-0.00266177	  -11.9763	-0.00267148	  -11.9813	-0.00266144	  -11.9739	-0.0026649	  -11.9739	  -66.6224	
  -11.9723	-0.00266548	  -11.9844	-0.00267558	  -11.9891	-0.00266563	  -11.9819	-0.0026689	  -11.9819	  -66.7225	
  -11.9801	-0.00266905	  -11.9921	-0.00267961	  -11.9961	-0.00266976	  -11.9895	-0.0026728	  -11.9895	  -66.8201	
  -11.9874	-0.00267239	  -11.9994	-0.0026835	  -12.0026	-0.00267372	  -11.9965	-0.00267653	  -11.9965	  -66.9133	
  -11.9943	-0.00267575	  -12.0061	-0.00268737	  -12.0084	-0.00267762	   -12.003	-0.00268025	   -12.003	  -67.0062	
  -12.0007	-0.00267907	   -12.012	-0.00269116	  -12.0135	-0.00268146	  -12.0087	-0.0026839	  -12.0087	  -67.0974	
  -12.0064	-0.00268215	  -12.0173	-0.00269481	  -12.0181	-0.00268519	  -12.0139	-0.00268738	  -12.0139	  -67.1846	
  -12.0116	-0.00268522	   -12.022	-0.00269842	  -12.0224	-0.00268883	  -12.0186	-0.00269082	  -12.0186	  -67.2706	
  -12.0161	-0.00268827	  -12.0262	-0.00270201	   -12.026	-0.00269241	  -12.0228	-0.00269423	  -12.0228	  -67.3558	
  -12.0199	-0.00269113	  -12.0297	-0.00270549	  -12.0289	-0.00269591	  -12.0262	-0.00269751	  -12.0262	  -67.4378	
   -12.023	-0.00269396	  -12.0328	-0.0027089	  -12.0315	-0.00269933	  -12.0291	-0.00270073	  -12.0291	  -67.5183	
  -12.0256	-0.00269677	  -12.0354	-0.00271227	  -12.0336	-0.00270271	  -12.0315	-0.00270392	  -12.0315	  -67.5979	
  -12.0275	-0.0026994	  -12.0373	-0.00271556	  -12.0352	-0.00270603	  -12.0334	 -0.002707	  -12.0334	  -67.6749	
  -12.0288	-0.00270198	  -12.0388	-0.00271879	  -12.0364	-0.00270925	  -12.0347	  -0.00271	  -12.0347	  -67.7501	
  -12.0295	-0.00270456	  -12.0397	-0.00272197	  -12.0372	-0.00271237	  -12.0355	-0.00271296	  -12.0355	  -67.8241	
  -12.0296	-0.00270699	  -12.0401	-0.00272506	  -12.0374	-0.00271545	  -12.0357	-0.00271583	  -12.0357	  -67.8958	
  -12.0292	-0.00270934	  -12.0399	-0.00272808	   -12.037	-0.00271851	  -12.0354	-0.00271864	  -12.0354	  -67.9661	
  -12.0284	-0.0027117	  -12.0391	-0.00273104	  -12.0361	-0.00272143	  -12.0345	-0.00272139	  -12.0345	  -68.0348	
   -12.027	-0.00271394	  -12.0379	-0.00273391	  -12.0347	-0.00272423	  -12.0332	-0.00272403	  -12.0332	  -68.1007	
  -12.0253	-0.00271611	  -12.0362	-0.0027367	  -12.0329	 -0.002727	  -12.0315	-0.0027266	  -12.0315	  -68.1651	
  -12.0232	-0.00271825	  -12.0341	-0.00273942	  -12.0307	-0.00272967	  -12.0293	-0.00272911	  -12.0293	  -68.2278	
  -12.0208	-0.00272029	  -12.0316	-0.00274208	  -12.0281	-0.00273221	  -12.0268	-0.00273153	  -12.0268	  -68.2882	
  -12.0179	-0.00272225	  -12.0287	-0.00274465	  -12.0252	-0.00273472	  -12.0239	-0.00273387	  -12.0239	  -68.3468	
  -12.0146	-0.00272416	  -12.0254	-0.00274713	  -12.0219	-0.00273713	  -12.0206	-0.00273614	  -12.0206	  -68.4035	
  -12.0108	-0.00272598	  -12.0218	-0.00274953	  -12.0182	-0.00273943	  -12.0169	-0.00273832	  -12.0169	  -68.4579	
  -12.0063	-0.00272771	  -12.0175	-0.0027519	  -12.0139	-0.00274169	  -12.0126	-0.00274043	  -12.0126	  -68.5108	
  -12.0013	-0.00272937	  -12.0127	-0.00275418	   -12.009	-0.00274388	  -12.0076	-0.00274248	  -12.0076	  -68.5619	
  -11.9956	-0.00273097	  -12.0072	-0.00275636	  -12.0035	-0.00274598	  -12.0021	-0.00274444	  -12.0021	   -68.611	
  -11.9894	-0.00273252	  -12.0011	-0.00275854	  -11.9973	-0.00274803	   -11.996	-0.00274636	   -11.996	  -68.6591	
  -11.9827	-0.00273394	  -11.9945	-0.00276065	  -11.9906	-0.00275002	  -11.9893	-0.0027482	  -11.9893	   -68.705	
  -11.9756	-0.00273535	  -11.9874	-0.00276265	  -11.9834	-0.00275197	  -11.9821	-0.00274999	  -11.9821	  -68.7497	
  -11.9681	-0.00273671	  -11.9799	-0.00276466	  -11.9757	-0.00275383	  -11.9746	-0.00275173	  -11.9746	  -68.7933	
  -11.9603	-0.00273792	  -11.9719	-0.00276659	  -11.9675	-0.00275566	  -11.9666	-0.00275339	  -11.9666	  -68.8347	
  -11.9523	-0.00273909	  -11.9636	-0.0027684	  -11.9586	-0.0027575	  -11.9582	 -0.002755	  -11.9582	  -68.8749	
  -11.9437	-0.00274027	   -11.955	-0.00277022	  -11.9494	-0.0027592	  -11.9494	-0.00275656	  -11.9494	  -68.9141	
  -11.9345	-0.00274131	  -11.9459	-0.00277195	  -11.9402	-0.00276078	  -11.9402	-0.00275801	  -11.9402	  -68.9503	
  -11.9246	-0.00274231	  -11.9361	-0.00277353	  -11.9303	-0.00276243	  -11.9303	-0.00275942	  -11.9303	  -68.9856	
  -11.9145	-0.00274335	  -11.9258	-0.00277509	  -11.9199	-0.00276397	  -11.9201	-0.0027608	  -11.9201	  -69.0201	
  -11.9037	-0.00274422	  -11.9149	-0.00277663	  -11.9089	-0.00276537	  -11.9092	-0.00276207	  -11.9092	  -69.0517	
  -11.8923	-0.00274503	  -11.9035	-0.00277798	  -11.8975	-0.00276678	  -11.8978	-0.00276327	  -11.8978	  -69.0817	
  -11.8806	-0.00274594	  -11.8916	-0.00277927	  -11.8856	-0.00276815	   -11.886	-0.00276445	   -11.886	  -69.1113	
  -11.8685	-0.00274667	  -11.8794	-0.00278056	  -11.8734	-0.00276937	  -11.8738	-0.00276553	  -11.8738	  -69.1383	
  -11.8556	-0.00274732	  -11.8669	-0.00278172	  -11.8609	-0.00277057	  -11.8611	-0.00276653	  -11.8611	  -69.1633	
  -11.8425	-0.00274806	  -11.8538	-0.00278279	  -11.8481	-0.00277173	  -11.8482	-0.00276753	  -11.8482	  -69.1882	
   -11.829	-0.00274872	  -11.8402	-0.00278385	  -11.8349	-0.00277278	  -11.8347	-0.00276845	  -11.8347	  -69.2112	
  -11.8151	-0.00274923	   -11.826	-0.00278482	  -11.8212	-0.00277376	  -11.8208	-0.00276927	  -11.8208	  -69.2317	
  -11.8006	-0.00274982	  -11.8113	-0.00278569	   -11.807	-0.00277468	  -11.8063	-0.00277006	  -11.8063	  -69.2516	
  -11.7858	-0.00275035	  -11.7961	-0.00278655	  -11.7922	-0.00277553	  -11.7914	-0.00277081	  -11.7914	  -69.2703	
  -11.7705	-0.00275075	  -11.7805	-0.00278733	   -11.777	-0.00277637	   -11.776	-0.00277148	   -11.776	  -69.2871	
  -11.7549	-0.0027512	  -11.7645	-0.00278802	  -11.7615	-0.00277712	  -11.7603	-0.00277212	  -11.7603	  -69.3029	
  -11.7388	-0.00275164	  -11.7482	-0.00278869	  -11.7456	-0.00277777	  -11.7442	-0.0027727	  -11.7442	  -69.3175	
  -11.7221	-0.00275193	  -11.7316	-0.0027893	  -11.7294	-0.00277841	  -11.7277	-0.00277321	  -11.7277	  -69.3303	
  -11.7049	-0.00275225	  -11.7143	-0.00278984	  -11.7126	-0.00277899	  -11.7106	-0.00277369	  -11.7106	  -69.3423	
   -11.687	-0.00275256	  -11.6966	-0.00279029	  -11.6952	-0.00277947	   -11.693	-0.00277411	   -11.693	  -69.3527	
  -11.6688	-0.00275274	  -11.6783	-0.00279069	  -11.6773	-0.00277992	  -11.6748	-0.00277445	  -11.6748	  -69.3612	
  -11.6501	-0.00275293	  -11.6596	-0.00279107	   -11.659	-0.00278034	  -11.6562	-0.00277478	  -11.6562	  -69.3695	
   -11.631	-0.00275313	  -11.6406	-0.00279136	  -11.6403	-0.00278063	  -11.6373	-0.00277504	  -11.6373	  -69.3761	
  -11.6115	-0.0027532	  -11.6213	-0.00279157	  -11.6212	-0.00278091	   -11.618	-0.00277522	   -11.618	  -69.3806	
  -11.5916	-0.00275324	  -11.6015	-0.00279175	  -11.6018	-0.00278115	  -11.5983	-0.00277538	  -11.5983	  -69.3846	
  -11.5711	-0.00275332	  -11.5811	-0.00279187	  -11.5819	-0.00278128	   -11.578	-0.00277549	   -11.578	  -69.3873	
    -11.55	-0.00275332	  -11.5603	-0.00279187	  -11.5614	-0.00278137	  -11.5572	-0.00277552	  -11.5572	   -69.388	
  -11.5286	-0.00275321	   -11.539	-0.00279186	  -11.5405	-0.00278144	   -11.536	-0.0027755	   -11.536	  -69.3876	
  -11.5069	-0.00275312	  -11.5173	-0.0027918	  -11.5191	-0.00278141	  -11.5144	-0.00277544	  -11.5144	  -69.3861	
  -11.4847	 -0.002753	  -11.4953	-0.00279164	  -11.4975	-0.00278133	  -11.4925	-0.00277532	  -11.4925	   -69.383	
   -11.462	-0.00275278	  -11.4729	-0.00279144	  -11.4753	-0.00278122	  -11.4701	-0.00277515	  -11.4701	  -69.3786	
  -11.4387	-0.00275255	  -11.4498	-0.00279122	  -11.4525	-0.00278102	   -11.447	-0.00277493	   -11.447	  -69.3732	
   -11.415	-0.00275231	  -11.4263	-0.00279091	  -11.4291	-0.00278076	  -11.4235	-0.00277466	  -11.4235	  -69.3665	
  -11.3909	-0.00275199	  -11.4024	-0.00279057	  -11.4053	-0.00278048	  -11.3995	-0.00277435	  -11.3995	  -69.3587	
  -11.3666	-0.00275167	  -11.3782	-0.0027902	  -11.3812	-0.00278014	  -11.3753	 -0.002774	  -11.3753	  -69.3501	
  -11.3419	-0.00275134	  -11.3536	-0.00278976	  -11.3567	-0.00277972	  -11.3507	-0.00277361	  -11.3507	  -69.3402	
  -11.3168	-0.00275096	  -11.3286	-0.00278928	  -11.3315	-0.0027793	  -11.3256	-0.00277318	  -11.3256	  -69.3295	
  -11.2912	-0.00275056	   -11.303	-0.00278878	  -11.3058	-0.0027788	     -11.3	-0.00277271	     -11.3	  -69.3178	
  -11.2651	-0.00275014	  -11.2769	-0.00278821	  -11.2796	-0.00277822	  -11.2739	-0.00277219	  -11.2739	  -69.3048	
  -11.2388	-0.00274967	  -11.2506	-0.00278762	   -11.253	-0.00277766	  -11.2475	-0.00277165	  -11.2475	  -69.2913	
   -11.212	-0.00274917	  -11.2239	-0.00278702	  -11.2262	-0.00277704	  -11.2207	-0.00277108	  -11.2207	  -69.2769	
  -11.1848	-0.00274865	  -11.1968	-0.00278632	  -11.1988	-0.00277635	  -11.1935	-0.00277044	  -11.1935	   -69.261	
  -11.1571	-0.00274807	   -11.169	-0.00278562	  -11.1709	-0.00277565	  -11.1657	-0.00276978	  -11.1657	  -69.2445	
  -11.1289	-0.00274745	  -11.1408	-0.00278488	  -11.1426	-0.00277492	  -11.1374	-0.00276908	  -11.1374	  -69.2271	
  -11.1004	-0.00274681	  -11.1122	-0.00278406	  -11.1139	-0.00277412	  -11.1088	-0.00276833	  -11.1088	  -69.2083	
  -11.0715	-0.00274611	  -11.0833	-0.00278321	  -11.0848	-0.0027733	  -11.0798	-0.00276754	  -11.0798	  -69.1885	
   -11.042	-0.00274534	  -11.0538	-0.00278234	  -11.0553	-0.00277247	  -11.0503	-0.00276672	  -11.0503	  -69.1679	
   -11.012	-0.00274455	  -11.0237	-0.00278138	  -11.0253	-0.00277155	  -11.0203	-0.00276583	  -11.0203	  -69.1457	
  -10.9816	-0.00274369	  -10.9931	-0.00278037	  -10.9949	-0.00277055	  -10.9899	-0.00276487	  -10.9899	  -69.1218	
   -10.951	-0.00274277	  -10.9624	-0.00277934	   -10.964	-0.00276964	  -10.9591	-0.00276392	  -10.9591	   -69.098	
    -10.92	-0.00274183	  -10.9312	-0.00277824	  -10.9327	-0.00276862	   -10.928	-0.00276289	   -10.928	  -69.0724	
  -10.8885	-0.00274082	  -10.8995	-0.00277708	  -10.9011	-0.00276737	  -10.8964	-0.00276176	  -10.8964	  -69.0439	
  -10.8565	-0.00273978	  -10.8674	-0.00277589	  -10.8688	-0.00276627	  -10.8642	-0.00276065	  -10.8642	  -69.0162	
  -10.8241	-0.00273871	  -10.8349	-0.00277465	   -10.836	-0.0027652	  -10.8317	-0.00275952	  -10.8317	  -68.9879	
  -10.7914	-0.00273756	   -10.802	-0.00277338	  -10.8032	-0.00276384	  -10.7988	-0.00275826	  -10.7988	  -68.9565	
   -10.758	-0.00273638	  -10.7685	-0.00277206	  -10.7697	-0.00276254	  -10.7654	 -0.002757	  -10.7654	  -68.9249	
  -10.7242	-0.00273524	  -10.7346	-0.00277065	  -10.7357	-0.00276132	  -10.7315	-0.00275574	  -10.7315	  -68.8934	
  -10.6901	-0.00273398	  -10.6997	-0.00276932	  -10.7014	-0.00275985	  -10.6971	-0.00275439	  -10.6971	  -68.8596	
  -10.6556	-0.00273261	  -10.6645	-0.00276797	  -10.6667	-0.00275837	  -10.6623	-0.00275298	  -10.6623	  -68.8246	
  -10.6208	-0.00273132	  -10.6294	-0.00276642	  -10.6316	-0.00275699	  -10.6273	-0.00275158	  -10.6273	  -68.7895	
  -10.5854	-0.00273003	   -10.594	-0.0027649	  -10.5959	-0.00275545	  -10.5918	-0.00275013	  -10.5918	  -68.7533	
  -10.5496	-0.00272861	  -10.5579	-0.00276342	  -10.5598	-0.00275386	  -10.5558	-0.00274863	  -10.5558	  -68.7157	
  -10.5134	-0.0027272	  -10.5213	-0.00276175	  -10.5233	-0.00275233	  -10.5193	-0.00274709	  -10.5193	  -68.6773	
  -10.4768	-0.00272582	  -10.4843	-0.00276006	  -10.4865	-0.00275072	  -10.4825	-0.00274553	  -10.4825	  -68.6383	
  -10.4396	-0.00272434	   -10.447	-0.00275838	  -10.4491	-0.00274908	  -10.4453	-0.00274393	  -10.4453	  -68.5984	
  -10.4021	-0.00272285	  -10.4093	-0.00275654	  -10.4114	-0.00274747	  -10.4076	-0.00274228	  -10.4076	  -68.5571	
  -10.3642	-0.0027214	  -10.3712	-0.00275461	  -10.3734	-0.00274577	  -10.3696	-0.00274059	  -10.3696	  -68.5149	
  -10.3259	-0.00271988	  -10.3327	-0.0027527	   -10.335	-0.00274405	  -10.3312	-0.00273888	  -10.3312	  -68.4719	
   -10.287	-0.0027183	  -10.2937	-0.00275068	   -10.296	-0.00274235	  -10.2922	-0.00273711	  -10.2922	  -68.4278	
  -10.2478	-0.00271678	  -10.2543	-0.0027485	  -10.2567	-0.00274059	  -10.2529	-0.00273529	  -10.2529	  -68.3823	
  -10.2083	-0.00271519	  -10.2146	-0.00274634	  -10.2171	-0.0027388	  -10.2133	-0.00273344	  -10.2133	  -68.3361	
  -10.1684	-0.00271353	  -10.1747	-0.00274409	  -10.1771	-0.00273705	  -10.1734	-0.00273156	  -10.1734	   -68.289	
   -10.128	-0.0027119	  -10.1342	-0.00274169	  -10.1365	-0.00273521	  -10.1329	-0.0027296	  -10.1329	    -68.24	
  -10.0872	-0.00271021	  -10.0933	-0.00273931	  -10.0956	-0.00273328	   -10.092	-0.0027276	   -10.092	    -68.19	
  -10.0461	-0.00270846	  -10.0521	-0.00273688	  -10.0545	-0.00273142	  -10.0509	-0.00272559	  -10.0509	  -68.1396	
  -10.0044	-0.00270669	  -10.0106	-0.0027343	  -10.0128	-0.00272947	  -10.0093	-0.00272349	  -10.0093	  -68.0872	
  -9.96228	-0.00270487	  -9.96849	-0.00273174	  -9.97071	-0.0027274	  -9.96716	-0.00272134	  -9.96716	  -68.0334	
  -9.91987	-0.00270298	  -9.92611	-0.00272917	  -9.92824	-0.00272538	  -9.92474	-0.00271918	  -9.92474	  -67.9794	
   -9.8772	-0.00270109	  -9.88344	-0.00272648	  -9.88552	-0.00272328	  -9.88205	-0.00271695	  -9.88205	  -67.9237	
  -9.83398	-0.00269908	   -9.8402	-0.00272378	  -9.84241	-0.00272103	  -9.83886	-0.00271463	  -9.83886	  -67.8657	
  -9.79036	-0.00269697	  -9.79658	-0.00272109	  -9.79884	-0.0027188	  -9.79526	-0.00271229	  -9.79526	  -67.8072	
  -9.74649	-0.00269494	  -9.75272	-0.00271826	  -9.75501	-0.00271652	  -9.75141	-0.00270991	  -9.75141	  -67.7476	
  -9.70207	-0.00269279	  -9.70854	-0.0027154	  -9.71064	-0.00271408	  -9.70708	-0.00270743	  -9.70708	  -67.6856	
   -9.6571	-0.00269052	  -9.66387	-0.0027126	  -9.66572	-0.00271163	  -9.66223	-0.00270492	  -9.66223	   -67.623	
  -9.61154	-0.00268834	  -9.61885	-0.00270967	   -9.6204	-0.00270916	  -9.61693	-0.00270239	  -9.61693	  -67.5597	
   -9.5661	 -0.002686	  -9.57362	-0.00270665	  -9.57483	-0.00270654	  -9.57151	-0.00269973	  -9.57151	  -67.4933	
   -9.5204	-0.00268346	  -9.52786	-0.00270375	  -9.52879	-0.00270389	  -9.52568	-0.00269704	  -9.52568	  -67.4259	
  -9.47405	-0.00268104	  -9.48166	-0.00270075	  -9.48233	-0.00270123	  -9.47935	-0.00269434	  -9.47935	  -67.3585	
  -9.42734	-0.00267854	  -9.43523	-0.00269758	  -9.43558	-0.00269844	  -9.43272	-0.00269152	  -9.43272	  -67.2881	
  -9.38048	-0.00267581	  -9.38849	-0.00269452	  -9.38849	-0.00269562	  -9.38582	-0.00268865	  -9.38582	  -67.2162	
  -9.33315	-0.00267315	  -9.34127	-0.00269143	  -9.34089	-0.00269278	  -9.33844	-0.00268579	  -9.33844	  -67.1447	
  -9.28543	-0.00267048	  -9.29363	-0.00268823	    -9.293	-0.00268985	  -9.29069	-0.00268285	  -9.29069	  -67.0713	
   -9.2374	-0.00266759	  -9.24572	-0.00268505	   -9.2448	-0.00268686	  -9.24264	-0.00267984	  -9.24264	  -66.9959	
  -9.18892	-0.00266474	  -9.19732	-0.00268179	  -9.19608	-0.00268388	  -9.19411	-0.0026768	  -9.19411	  -66.9201	
  -9.14012	-0.00266191	  -9.14855	-0.00267845	  -9.14701	-0.00268081	  -9.14523	-0.00267372	  -9.14523	  -66.8431	
  -9.09104	-0.00265888	  -9.09961	-0.00267518	  -9.09768	-0.00267767	  -9.09611	-0.00267058	  -9.09611	  -66.7644	
  -9.04146	-0.00265584	  -9.05023	-0.00267179	  -9.04794	-0.00267454	  -9.04654	-0.00266739	  -9.04654	  -66.6848	
   -8.9915	-0.00265284	  -9.00047	-0.00266827	  -8.99779	-0.00267133	  -8.99659	-0.00266415	  -8.99659	  -66.6037	
  -8.94127	-0.00264966	  -8.95048	-0.00266479	  -8.94739	-0.00266804	  -8.94638	-0.00266083	  -8.94638	  -66.5207	
  -8.89062	-0.00264649	  -8.90015	-0.00266122	  -8.89669	-0.00266475	  -8.89582	-0.00265749	  -8.89582	  -66.4372	
   -8.8396	-0.00264339	  -8.84933	-0.0026575	  -8.84553	-0.00266141	  -8.84482	-0.0026541	  -8.84482	  -66.3525	
  -8.78832	-0.00264009	   -8.7982	-0.00265379	  -8.79414	-0.00265798	  -8.79356	-0.00265062	  -8.79356	  -66.2656	
  -8.73666	-0.00263673	  -8.74674	-0.00265005	  -8.74244	-0.00265454	  -8.74195	-0.0026471	  -8.74195	  -66.1776	
  -8.68459	-0.00263346	   -8.6948	-0.00264616	  -8.69035	-0.00265106	  -8.68992	-0.00264356	  -8.68992	   -66.089	
   -8.6323	-0.00263005	  -8.64263	-0.00264226	  -8.63799	-0.00264751	  -8.63764	-0.00263994	  -8.63764	  -65.9985	
  -8.57964	-0.00262653	  -8.59015	-0.00263835	  -8.58534	-0.00264393	  -8.58504	-0.00263627	  -8.58504	  -65.9067	
   -8.5265	-0.00262309	  -8.53719	-0.00263433	  -8.53223	-0.00264028	  -8.53197	-0.00263257	  -8.53197	  -65.8142	
  -8.47307	-0.00261954	  -8.48386	-0.00263028	  -8.47882	-0.00263658	  -8.47858	-0.0026288	  -8.47858	    -65.72	
  -8.41943	-0.00261586	  -8.43033	-0.00262626	  -8.42517	-0.00263284	  -8.42498	-0.00262499	  -8.42498	  -65.6246	
   -8.3653	-0.00261222	  -8.37681	-0.00262212	  -8.37109	-0.00262904	  -8.37107	-0.00262113	  -8.37107	  -65.5282	
  -8.31092	-0.00260851	  -8.32273	-0.00261794	   -8.3167	-0.0026252	  -8.31678	-0.00261722	  -8.31678	  -65.4304	
  -8.25632	-0.00260471	  -8.26826	-0.00261383	  -8.26212	-0.00262137	  -8.26223	-0.0026133	  -8.26223	  -65.3326	
  -8.20128	-0.00260091	  -8.21363	-0.00260962	   -8.2071	-0.00261744	  -8.20734	-0.00260932	  -8.20734	  -65.2331	
  -8.14597	-0.00259704	  -8.15823	-0.00260539	  -8.15178	-0.00261341	    -8.152	-0.00260528	    -8.152	   -65.132	
   -8.0904	-0.00259309	  -8.10247	-0.00260121	  -8.09626	-0.00260942	  -8.09638	-0.00260124	  -8.09638	  -65.0309	
  -8.03434	-0.00258907	  -8.04679	-0.00259694	   -8.0403	-0.00260538	  -8.04048	-0.00259713	  -8.04048	  -64.9282	
  -7.97802	-0.00258498	  -7.99067	-0.00259266	  -7.98404	-0.00260123	  -7.98424	-0.00259296	  -7.98424	  -64.8239	
  -7.92142	-0.00258084	  -7.93393	-0.00258836	  -7.92755	-0.00259709	  -7.92763	-0.00258876	  -7.92763	  -64.7191	
  -7.86435	-0.00257663	  -7.87698	-0.00258397	  -7.87069	-0.0025929	  -7.87067	-0.0025845	  -7.87067	  -64.6126	
  -7.80705	-0.00257234	  -7.81985	-0.00257959	  -7.81353	-0.0025886	  -7.81348	-0.00258018	  -7.81348	  -64.5044	
  -7.74943	-0.00256796	  -7.76238	-0.00257521	  -7.75627	-0.00258429	  -7.75603	-0.00257582	  -7.75603	  -64.3955	
  -7.69137	-0.00256356	  -7.70441	-0.00257072	  -7.69853	-0.00257995	   -7.6981	-0.00257141	   -7.6981	  -64.2852	
  -7.63311	-0.00255908	  -7.64611	-0.00256609	  -7.64047	-0.00257546	   -7.6399	-0.00256688	   -7.6399	   -64.172	
  -7.57452	-0.00255449	  -7.58754	-0.00256148	  -7.58201	-0.00257096	  -7.58136	-0.00256231	  -7.58136	  -64.0578	
  -7.51553	-0.00254988	  -7.52855	-0.00255684	  -7.52319	-0.00256642	  -7.52242	-0.00255771	  -7.52242	  -63.9428	
  -7.45638	-0.00254521	  -7.46923	-0.00255203	  -7.46415	-0.00256176	  -7.46325	 -0.002553	  -7.46325	   -63.825	
  -7.39692	-0.00254044	  -7.40958	-0.00254718	   -7.4048	-0.00255704	  -7.40377	-0.00254822	  -7.40377	  -63.7055	
  -7.33711	-0.00253562	  -7.34952	-0.0025423	  -7.34503	-0.00255231	  -7.34389	-0.00254341	  -7.34389	  -63.5853	
  -7.27712	-0.00253076	  -7.28931	-0.00253729	  -7.28509	-0.00254743	  -7.28384	-0.0025385	  -7.28384	  -63.4624	
  -7.21676	-0.00252583	   -7.2287	-0.00253219	  -7.22488	-0.00254245	  -7.22345	-0.00253349	  -7.22345	  -63.3373	
   -7.1561	-0.00252084	  -7.16775	-0.00252712	   -7.1643	-0.00253747	  -7.16271	-0.00252848	  -7.16271	  -63.2119	
   -7.0953	-0.00251579	  -7.10664	-0.00252194	  -7.10353	-0.0025324	  -7.10182	-0.00252338	  -7.10182	  -63.0844	
  -7.03429	-0.00251072	  -7.04524	-0.00251665	   -7.0425	-0.0025272	  -7.04068	-0.00251819	  -7.04068	  -62.9548	
  -6.97306	-0.00250556	  -6.98355	-0.00251135	  -6.98114	-0.00252197	  -6.97925	-0.00251296	  -6.97925	  -62.8241	
  -6.91152	-0.00250032	  -6.92165	-0.00250595	  -6.91964	-0.00251667	   -6.9176	-0.00250765	   -6.9176	  -62.6912	
  -6.84962	-0.00249509	  -6.85937	-0.00250045	  -6.85767	-0.00251125	  -6.85555	-0.00250226	  -6.85555	  -62.5566	
  -6.78745	-0.00248973	  -6.79686	-0.00249503	  -6.79545	-0.00250583	  -6.79325	-0.00249686	  -6.79325	  -62.4216	
  -6.72504	-0.00248429	  -6.73432	-0.00248951	   -6.7329	-0.00250032	  -6.73075	-0.00249137	  -6.73075	  -62.2843	
  -6.66244	-0.00247886	  -6.67134	-0.00248388	  -6.66997	-0.00249466	  -6.66792	-0.0024858	  -6.66792	   -62.145	
  -6.59941	-0.00247328	   -6.6082	-0.00247831	  -6.60686	-0.00248901	  -6.60482	-0.0024802	  -6.60482	  -62.0051	
  -6.53601	-0.00246764	  -6.54482	-0.0024727	  -6.54334	-0.00248329	  -6.54139	-0.00247454	  -6.54139	  -61.8636	
  -6.47253	-0.00246199	  -6.48115	-0.00246693	  -6.47949	-0.00247743	  -6.47772	-0.00246878	  -6.47772	  -61.7196	
  -6.40866	-0.00245622	  -6.41732	-0.00246121	  -6.41549	-0.00247154	  -6.41382	-0.00246299	  -6.41382	  -61.5747	
  -6.34446	-0.00245035	  -6.35312	-0.00245551	  -6.35112	-0.00246559	  -6.34956	-0.00245715	  -6.34956	  -61.4288	
  -6.28008	-0.00244448	  -6.28864	-0.0024496	   -6.2865	-0.0024595	  -6.28508	-0.00245119	  -6.28508	  -61.2798	
  -6.21547	-0.00243851	  -6.22405	-0.00244369	  -6.22171	-0.00245337	  -6.22041	-0.00244519	  -6.22041	  -61.1297	
  -6.15055	-0.00243241	  -6.15912	-0.0024378	  -6.15665	-0.00244718	  -6.15544	-0.00243913	  -6.15544	  -60.9783	
  -6.08544	-0.00242631	  -6.09401	-0.00243169	  -6.09142	-0.00244086	  -6.09029	-0.00243295	  -6.09029	  -60.8238	
  -6.02012	-0.00242012	   -6.0287	-0.00242555	  -6.02605	-0.00243446	  -6.02496	-0.00242671	  -6.02496	  -60.6677	
  -5.95449	-0.0024138	  -5.96309	-0.00241942	  -5.96038	-0.00242802	  -5.95932	-0.00242041	  -5.95932	  -60.5103	
  -5.88869	-0.00240746	  -5.89733	-0.00241309	  -5.89456	-0.00242145	  -5.89352	 -0.002414	  -5.89352	  -60.3499	
  -5.82252	-0.00240103	   -5.8312	-0.00240669	  -5.82843	-0.00241479	  -5.82738	-0.0024075	  -5.82738	  -60.1876	
  -5.75614	-0.00239447	  -5.76482	-0.0024003	  -5.76205	-0.00240808	    -5.761	-0.00240095	    -5.761	  -60.0237	
  -5.68959	-0.00238788	  -5.69828	-0.00239372	  -5.69556	-0.00240124	  -5.69448	-0.00239428	  -5.69448	   -59.857	
  -5.62272	-0.00238119	  -5.63143	-0.00238703	  -5.62881	-0.00239431	  -5.62765	-0.00238751	  -5.62765	  -59.6877	
  -5.55574	-0.00237437	  -5.56438	-0.00238034	   -5.5619	-0.00238731	  -5.56067	-0.00238067	  -5.56067	  -59.5168	
  -5.48849	-0.0023675	  -5.49713	-0.00237348	  -5.49472	-0.00238018	  -5.49345	-0.00237372	  -5.49345	   -59.343	
  -5.42099	-0.00236056	  -5.42957	-0.0023665	  -5.42724	-0.00237295	  -5.42593	-0.00236667	  -5.42593	  -59.1668	
  -5.35342	-0.00235347	  -5.36198	-0.00235951	  -5.35966	-0.00236566	  -5.35835	-0.00235955	  -5.35835	  -58.9887	
  -5.28559	-0.00234626	  -5.29408	-0.00235238	  -5.29171	-0.00235825	  -5.29046	-0.0023523	  -5.29046	  -58.8075	
  -5.21755	-0.00233903	    -5.226	-0.00234512	  -5.22357	-0.00235074	  -5.22237	-0.00234496	  -5.22237	  -58.6241	
  -5.14938	-0.00233171	  -5.15769	-0.00233783	  -5.15528	-0.00234315	  -5.15412	-0.00233757	  -5.15412	  -58.4391	
  -5.08091	-0.00232424	   -5.0892	-0.00233044	  -5.08664	-0.00233545	  -5.08558	-0.00233004	  -5.08558	  -58.2511	
  -5.01238	-0.00231671	  -5.02063	-0.00232291	  -5.01788	-0.00232762	  -5.01696	-0.00232241	  -5.01696	  -58.0604	
  -4.94356	-0.0023091	  -4.95172	-0.00231533	  -4.94897	-0.00231973	  -4.94808	-0.00231472	  -4.94808	   -57.868	
  -4.87455	-0.00230136	  -4.88264	-0.00230769	  -4.87983	-0.00231172	  -4.87901	-0.00230692	  -4.87901	  -57.6731	
  -4.80529	-0.00229351	  -4.81344	-0.0022999	  -4.81057	-0.00230357	  -4.80977	-0.00229899	  -4.80977	  -57.4748	
  -4.73582	-0.00228559	  -4.74392	-0.00229202	  -4.74116	-0.00229533	   -4.7403	-0.00229098	   -4.7403	  -57.2745	
  -4.66622	-0.00227753	   -4.6743	-0.00228411	  -4.67164	-0.00228706	  -4.67072	-0.0022829	  -4.67072	  -57.0725	
  -4.59637	-0.00226937	  -4.60444	-0.00227606	  -4.60199	-0.00227868	  -4.60094	-0.0022747	  -4.60094	  -56.8675	
  -4.52637	-0.00226118	  -4.53439	-0.00226789	  -4.53207	-0.00227016	  -4.53095	-0.00226641	  -4.53095	  -56.6603	
  -4.45631	-0.00225285	  -4.46416	-0.0022597	  -4.46211	-0.00226155	  -4.46086	-0.00225803	  -4.46086	  -56.4508	
   -4.3859	-0.00224435	  -4.39371	-0.00225141	   -4.3918	-0.00225286	  -4.39047	-0.00224954	  -4.39047	  -56.2384	
  -4.31536	-0.00223583	   -4.3232	-0.00224294	  -4.32136	-0.00224408	  -4.31997	-0.00224095	  -4.31997	  -56.0238	
  -4.24459	-0.00222723	  -4.25267	-0.00223451	  -4.25084	-0.00223517	  -4.24937	-0.0022323	  -4.24937	  -55.8075	
  -4.17366	-0.00221845	  -4.18188	-0.00222597	  -4.18005	-0.00222616	  -4.17853	-0.00222353	  -4.17853	  -55.5882	
  -4.10268	-0.00220963	  -4.11098	-0.00221717	   -4.1092	-0.0022171	  -4.10762	-0.00221463	  -4.10762	  -55.3658	
  -4.03145	-0.00220074	  -4.03983	-0.00220837	  -4.03814	-0.0022079	  -4.03647	-0.00220567	  -4.03647	  -55.1418	
  -3.96013	-0.00219171	  -3.96856	-0.00219951	  -3.96694	-0.0021986	  -3.96521	-0.00219661	  -3.96521	  -54.9152	
  -3.88868	-0.00218263	  -3.89717	-0.00219037	  -3.89561	-0.00218924	  -3.89382	-0.00218741	  -3.89382	  -54.6853	
  -3.81702	-0.00217344	  -3.82555	-0.00218116	  -3.82405	-0.00217975	  -3.82221	-0.00217812	  -3.82221	  -54.4529	
  -3.74528	-0.00216411	  -3.75378	-0.0021719	  -3.75249	-0.00217021	  -3.75052	-0.00216874	  -3.75052	  -54.2184	
  -3.67335	-0.00215474	  -3.68176	-0.00216234	  -3.68071	-0.00216049	  -3.67861	-0.00215919	  -3.67861	  -53.9797	
  -3.60133	-0.00214526	  -3.60963	-0.00215267	  -3.60879	-0.00215063	  -3.60658	-0.00214952	  -3.60658	   -53.738	
  -3.52923	-0.00213563	  -3.53744	-0.00214296	  -3.53683	-0.00214079	   -3.5345	-0.0021398	   -3.5345	  -53.4949	
  -3.45691	-0.00212596	  -3.46509	-0.00213302	  -3.46464	-0.00213078	  -3.46221	-0.00212992	  -3.46221	  -53.2479	
  -3.38447	-0.00211619	  -3.39265	-0.00212291	  -3.39244	-0.00212057	  -3.38985	-0.00211989	  -3.38985	  -52.9972	
  -3.31178	-0.00210624	  -3.32002	-0.00211276	  -3.32003	-0.00211033	  -3.31728	-0.00210978	  -3.31728	  -52.7445	
  -3.23903	-0.00209621	  -3.24728	-0.00210239	  -3.24747	   -0.0021	  -3.24459	-0.00209953	  -3.24459	  -52.4884	
  -3.16619	-0.0020861	  -3.17458	-0.00209184	  -3.17476	-0.00208944	  -3.17184	-0.00208913	  -3.17184	  -52.2282	
  -3.09314	-0.00207582	  -3.10163	-0.00208128	  -3.10189	-0.00207879	  -3.09889	-0.00207863	  -3.09889	  -51.9658	
  -3.02007	-0.00206542	   -3.0286	-0.00207052	  -3.02891	-0.00206808	  -3.02586	-0.00206801	  -3.02586	  -51.7002	
  -2.94688	-0.00205493	   -2.9553	-0.00205954	  -2.95577	-0.00205715	  -2.95265	-0.00205721	  -2.95265	  -51.4301	
  -2.87362	-0.00204428	   -2.8819	-0.00204854	   -2.8825	-0.00204608	  -2.87934	-0.0020463	  -2.87934	  -51.1575	
  -2.80026	-0.00203349	  -2.80847	-0.00203743	  -2.80912	-0.00203499	  -2.80595	-0.0020353	  -2.80595	  -50.8826	
   -2.7267	-0.00202263	  -2.73482	-0.00202605	   -2.7355	-0.00202369	  -2.73234	-0.00202412	  -2.73234	  -50.6031	
  -2.65317	-0.00201162	  -2.66111	-0.00201458	  -2.66187	-0.00201222	  -2.65872	-0.00201281	  -2.65872	  -50.3202	
  -2.57949	-0.00200042	  -2.58705	-0.00200308	  -2.58808	-0.00200071	  -2.58487	-0.0020014	  -2.58487	  -50.0351	
   -2.5057	-0.00198915	  -2.51295	-0.00199136	  -2.51421	-0.00198904	  -2.51095	-0.00198985	  -2.51095	  -49.7462	
  -2.43172	-0.00197779	  -2.43905	-0.0019794	  -2.44025	-0.00197717	  -2.43701	-0.00197812	  -2.43701	   -49.453	
  -2.35758	-0.00196624	  -2.36516	-0.00196739	  -2.36608	-0.00196525	  -2.36294	-0.00196629	  -2.36294	  -49.1573	
  -2.28355	-0.00195456	  -2.29082	-0.00195523	  -2.29191	-0.00195319	  -2.28876	-0.00195433	  -2.28876	  -48.8582	
  -2.20936	-0.0019428	  -2.21626	-0.00194283	  -2.21771	-0.00194094	  -2.21445	-0.00194219	  -2.21445	  -48.5548	
  -2.13515	-0.00193087	  -2.14168	-0.00193031	  -2.14344	-0.00192862	  -2.14009	-0.00192993	  -2.14009	  -48.2483	
  -2.06082	-0.00191879	  -2.06702	-0.00191767	  -2.06915	-0.00191618	  -2.06566	-0.00191755	  -2.06566	  -47.9387	
  -1.98633	-0.00190663	  -1.99226	-0.00190478	  -1.99465	-0.00190355	  -1.99108	-0.00190499	  -1.99108	  -47.6247	
  -1.91186	-0.00189431	   -1.9175	-0.00189176	  -1.92017	-0.00189082	  -1.91651	-0.0018923	  -1.91651	  -47.3074	
  -1.83726	-0.00188182	  -1.84256	-0.00187862	  -1.84552	-0.00187799	  -1.84178	-0.00187948	  -1.84178	   -46.987	
  -1.76267	-0.00186909	  -1.76762	-0.00186532	  -1.77082	-0.00186516	  -1.76704	-0.00186652	  -1.76704	  -46.6631	
