# User: ACHyster
# File name: C:/ACHYSTER/ACHyster SENS/SHAMS/CoFe2O4-1gl-water-Zero Glycerol- Sens-07-03-2023/CoFe2O4-1gl-water-Zero Glycerol- 10_100F- 12kAm -Sens-07-03-20230003#1
# Saved at: ma. mar. 7 14:16:38 2023
# Hyster Loop (3 iterations). Intensity: 12.0 kA/m; Tuned frequency: 41.9 kHz
# Units x axis: (kA/m)
# Units y axis: "Repeats y" & "Average y" (10^(-3)Am^2); "Mass avg y" (Am^2/kg)
# Magnetic mass: 4e-05 g
# Parameter      	Repeat   1	Repeat   2	Repeat   3	Average   	Sigma     
# H_C (kA/m)     	       8.1	       7.7	       8.0	       7.9	       0.2
# M_R (Am^2/kg)  	      45.2	      43.9	      44.3	      44.5	       0.5
# M_max (Am^2/kg)	      51.7	      54.0	      51.5	      52.4	       1.1
# Area (mJ/kg)   	    2040.3	    1948.2	    1982.2	    1990.2	      38.0
# SAR (W/g)      	      85.5	      81.7	      83.1	      83.4	       1.6
#Repeat 1 x	Repeat 1 y	Repeat 2 x	Repeat 2 y	Repeat 3 x	Repeat 3 y	Average x 	Average y 	Mass avg x 	Mass avg y 
  -1.75058	-0.00201692	  -1.74568	-0.00198905	   -1.7402	-0.00198728	  -1.74549	-0.00199775	  -1.74549	  -49.9438	
  -1.67562	-0.00200874	  -1.67091	-0.00198009	   -1.6653	-0.00197924	  -1.67061	-0.00198936	  -1.67061	  -49.7339	
  -1.60076	-0.00200049	  -1.59622	-0.00197104	   -1.5905	-0.0019711	  -1.59582	-0.00198088	  -1.59582	  -49.5219	
  -1.52581	-0.00199211	  -1.52143	-0.00196185	  -1.51563	-0.00196277	  -1.52096	-0.00197225	  -1.52096	  -49.3062	
  -1.45084	-0.00198356	   -1.4466	-0.00195255	  -1.44075	-0.00195425	  -1.44606	-0.00196345	  -1.44606	  -49.0863	
  -1.37578	-0.00197489	  -1.37167	-0.00194314	  -1.36588	-0.0019456	  -1.37111	-0.00195454	  -1.37111	  -48.8636	
  -1.30057	-0.00196618	  -1.29657	-0.00193367	  -1.29086	-0.00193692	    -1.296	-0.00194559	    -1.296	  -48.6398	
  -1.22538	-0.00195747	  -1.22148	-0.00192416	  -1.21596	-0.00192828	  -1.22094	-0.00193664	  -1.22094	  -48.4159	
  -1.15004	-0.00194873	  -1.14633	-0.00191459	   -1.1409	-0.00191962	  -1.14575	-0.00192765	  -1.14575	  -48.1911	
   -1.0747	-0.0019399	  -1.07117	-0.00190489	  -1.06582	-0.00191088	  -1.07056	-0.00191856	  -1.07056	   -47.964	
 -0.999301	-0.00193092	 -0.996032	-0.00189507	 -0.990888	-0.00190198	 -0.995407	-0.00190933	 -0.995407	  -47.7332	
 -0.923795	-0.00192179	 -0.920759	-0.00188514	 -0.915814	-0.00189289	 -0.920122	-0.00189994	 -0.920122	  -47.4986	
 -0.848337	-0.00191256	 -0.845613	-0.00187513	 -0.840759	-0.00188366	 -0.844903	-0.00189045	 -0.844903	  -47.2612	
 -0.772861	-0.00190329	 -0.770204	-0.00186507	 -0.765552	-0.00187438	 -0.769539	-0.00188091	 -0.769539	  -47.0228	
 -0.697412	 -0.001894	 -0.694808	-0.00185496	 -0.690353	-0.0018651	 -0.694191	-0.00187135	 -0.694191	  -46.7838	
 -0.621926	-0.00188465	 -0.619364	-0.00184476	 -0.615205	-0.00185581	 -0.618832	-0.00186174	 -0.618832	  -46.5435	
 -0.546344	-0.00187518	 -0.543812	-0.00183443	 -0.539936	-0.00184644	 -0.543364	-0.00185202	 -0.543364	  -46.3004	
 -0.470929	-0.00186555	 -0.468313	-0.00182398	 -0.464808	-0.00183689	 -0.468017	-0.00184214	 -0.468017	  -46.0536	
  -0.39529	-0.0018558	 -0.392799	-0.00181344	 -0.389538	-0.00182717	 -0.392542	-0.00183214	 -0.392542	  -45.8034	
 -0.319698	-0.00184597	 -0.317315	-0.00180283	 -0.314283	-0.00181736	 -0.317099	-0.00182205	 -0.317099	  -45.5513	
 -0.243988	-0.00183612	  -0.24201	-0.00179217	 -0.239089	-0.00180754	 -0.241696	-0.00181194	 -0.241696	  -45.2985	
 -0.168213	-0.00182623	 -0.166596	-0.00178144	 -0.163889	-0.00179773	 -0.166233	-0.0018018	 -0.166233	  -45.0449	
-0.0924244	-0.00181624	-0.0913363	-0.0017706	-0.0888301	-0.00178787	-0.0908636	-0.00179157	-0.0908636	  -44.7892	
-0.0164559	-0.00180612	-0.0160519	-0.00175963	-0.0136285	-0.00177786	-0.0153788	-0.00178121	-0.0153788	  -44.5302	
 0.0594218	-0.00179585	 0.0592132	-0.00174855	 0.0616598	-0.00176767	 0.0600983	-0.00177069	 0.0600983	  -44.2673	
  0.135275	-0.00178546	  0.134416	-0.00173737	   0.13688	-0.0017573	  0.135524	-0.00176005	  0.135524	  -44.0011	
  0.211167	-0.00177501	  0.209731	-0.00172612	  0.212206	-0.00174684	  0.211035	-0.00174932	  0.211035	  -43.7331	
   0.28684	-0.00176453	  0.284895	-0.00171481	  0.287503	-0.00173633	  0.286412	-0.00173856	  0.286412	  -43.4639	
  0.362688	-0.00175399	  0.360193	-0.00170342	  0.362918	-0.00172582	  0.361933	-0.00172774	  0.361933	  -43.1936	
   0.43844	-0.00174335	  0.435361	-0.00169194	  0.438294	-0.00171524	  0.437365	-0.00171684	  0.437365	  -42.9211	
  0.514269	-0.00173257	  0.510471	-0.00168034	  0.513588	-0.00170454	  0.512776	-0.00170582	  0.512776	  -42.6454	
  0.590122	-0.00172164	  0.585694	-0.00166865	   0.58887	-0.00169366	  0.588229	-0.00169465	  0.588229	  -42.3662	
  0.665952	-0.0017106	  0.660769	-0.00165685	  0.663991	-0.00168263	  0.663571	-0.00168336	  0.663571	  -42.0841	
  0.741822	-0.00169952	  0.735874	-0.00164496	  0.739027	-0.00167151	  0.738908	-0.00167199	  0.738908	  -41.7999	
   0.81758	-0.00168839	  0.810965	-0.00163297	  0.814048	-0.00166037	  0.814198	-0.00166057	  0.814198	  -41.5144	
  0.893081	-0.00167719	  0.885895	-0.00162089	  0.888907	-0.0016492	  0.889294	-0.00164909	  0.889294	  -41.2273	
  0.968621	-0.00166587	  0.960951	-0.00160873	  0.963892	-0.00163795	  0.964488	-0.00163752	  0.964488	  -40.9379	
   1.04415	-0.00165441	   1.03587	-0.00159648	   1.03874	-0.00162656	   1.03959	-0.00162582	   1.03959	  -40.6454	
   1.11974	-0.00164283	   1.11094	-0.00158412	   1.11364	-0.00161499	   1.11477	-0.00161398	   1.11477	  -40.3494	
   1.19522	-0.00163116	     1.186	-0.00157165	   1.18853	-0.00160328	   1.18992	-0.00160203	   1.18992	  -40.0507	
   1.27068	-0.00161945	   1.26079	-0.00155907	   1.26327	-0.0015915	   1.26491	-0.00159001	   1.26491	  -39.7502	
   1.34616	-0.00160768	   1.33562	-0.00154641	   1.33804	-0.00157971	   1.33994	-0.00157793	   1.33994	  -39.4483	
   1.42142	-0.00159583	   1.41033	-0.00153368	   1.41269	-0.00156788	   1.41481	-0.0015658	   1.41481	  -39.1449	
   1.49664	-0.00158384	   1.48499	-0.00152088	   1.48741	-0.00155595	   1.48968	-0.00155355	   1.48968	  -38.8389	
   1.57179	-0.00157173	   1.55967	-0.00150796	   1.56214	-0.00154384	   1.56453	-0.00154118	   1.56453	  -38.5294	
   1.64671	-0.0015595	   1.63413	-0.00149491	   1.63673	-0.00153157	   1.63919	-0.00152866	   1.63919	  -38.2165	
    1.7217	-0.0015472	   1.70864	-0.00148174	   1.71148	-0.00151918	   1.71394	-0.00151604	   1.71394	   -37.901	
   1.79651	-0.00153485	   1.78308	-0.00146846	   1.78612	-0.00150675	   1.78857	-0.00150335	   1.78857	  -37.5838	
   1.87131	-0.00152242	   1.85749	-0.00145511	   1.86061	-0.00149429	   1.86314	-0.00149061	   1.86314	  -37.2652	
   1.94607	-0.0015099	   1.93196	-0.00144167	   1.93514	-0.00148177	   1.93772	-0.00147778	   1.93772	  -36.9445	
   2.02075	-0.00149724	   2.00622	-0.00142814	   2.00956	-0.00146913	   2.01218	-0.00146484	   2.01218	  -36.6209	
   2.09552	-0.00148445	   2.08047	-0.00141449	   2.08395	-0.00145631	   2.08664	-0.00145175	   2.08664	  -36.2938	
   2.17023	-0.00147156	   2.15466	-0.00140071	   2.15825	-0.00144334	   2.16105	-0.00143854	   2.16105	  -35.9634	
   2.24494	-0.00145858	   2.22886	-0.00138683	   2.23234	-0.00143027	   2.23538	-0.00142523	   2.23538	  -35.6307	
   2.31962	-0.00144554	   2.30289	-0.00137287	   2.30652	-0.00141714	   2.30968	-0.00141185	   2.30968	  -35.2962	
   2.39402	-0.00143241	   2.37676	-0.00135884	   2.38051	-0.00140396	   2.38377	-0.0013984	   2.38377	  -34.9601	
   2.46833	-0.0014192	   2.45035	-0.0013447	   2.45441	-0.00139073	    2.4577	-0.00138488	    2.4577	  -34.6219	
   2.54251	-0.00140587	   2.52395	-0.00133043	   2.52819	-0.0013774	   2.53155	-0.00137123	   2.53155	  -34.2808	
   2.61655	-0.00139242	   2.59731	-0.00131601	   2.60181	-0.00136395	   2.60522	-0.00135746	   2.60522	  -33.9365	
   2.69062	-0.00137888	   2.67074	-0.00130148	   2.67546	-0.00135037	   2.67894	-0.00134357	   2.67894	  -33.5893	
   2.76447	-0.00136523	   2.74409	-0.00128689	     2.749	-0.00133667	   2.75252	-0.0013296	   2.75252	    -33.24	
   2.83818	-0.0013515	   2.81732	-0.00127226	   2.82219	-0.00132288	    2.8259	-0.00131555	    2.8259	  -32.8887	
   2.91184	-0.00133768	   2.89062	-0.00125759	   2.89533	-0.00130902	   2.89926	-0.00130143	   2.89926	  -32.5357	
   2.98519	-0.00132379	   2.96374	-0.00124279	   2.96829	-0.00129508	   2.97241	-0.00128722	   2.97241	  -32.1806	
   3.05844	-0.00130981	   3.03686	-0.00122786	   3.04115	-0.00128105	   3.04549	-0.00127291	   3.04549	  -31.8227	
   3.13157	-0.00129573	   3.10996	-0.0012128	   3.11389	-0.00126693	   3.11847	-0.00125849	   3.11847	  -31.4621	
   3.20443	-0.00128155	   3.18278	-0.00119765	   3.18637	-0.0012527	   3.19119	-0.00124397	   3.19119	  -31.0991	
   3.27733	-0.00126726	   3.25552	-0.00118243	    3.2588	-0.00123837	   3.26388	-0.00122935	   3.26388	  -30.7338	
   3.35012	-0.00125288	   3.32816	-0.00116715	   3.33114	-0.00122397	   3.33647	-0.00121467	   3.33647	  -30.3667	
   3.42258	-0.00123845	   3.40056	-0.00115181	   3.40326	-0.00120949	    3.4088	-0.00119992	    3.4088	  -29.9979	
   3.49501	-0.00122394	   3.47282	-0.00113636	   3.47537	-0.00119496	   3.48106	-0.00118509	   3.48106	  -29.6272	
   3.56738	-0.00120933	   3.54491	-0.0011208	   3.54731	-0.00118035	    3.5532	-0.00117016	    3.5532	  -29.2541	
   3.63976	-0.00119462	   3.61692	-0.00110513	   3.61929	-0.00116564	   3.62532	-0.00115513	   3.62532	  -28.8782	
   3.71212	-0.00117978	   3.68873	-0.00108936	   3.69127	-0.0011508	   3.69737	-0.00113998	   3.69737	  -28.4995	
   3.78421	-0.00116483	    3.7603	-0.0010735	     3.763	-0.00113587	   3.76917	-0.00112473	   3.76917	  -28.1184	
   3.85614	-0.0011498	   3.83185	-0.00105757	   3.83458	-0.00112087	   3.84086	-0.00110941	   3.84086	  -27.7354	
   3.92799	-0.0011347	   3.90313	-0.00104156	    3.9061	-0.00110582	   3.91241	-0.00109403	   3.91241	  -27.3506	
   3.99963	-0.00111953	   3.97414	-0.00102546	   3.97753	-0.00109067	   3.98377	-0.00107855	   3.98377	  -26.9638	
   4.07125	-0.00110426	   4.04519	-0.00100926	   4.04885	-0.00107541	    4.0551	-0.00106298	    4.0551	  -26.5744	
   4.14262	-0.00108887	   4.11602	-0.000992997	   4.12004	-0.00106002	   4.12623	-0.00104729	   4.12623	  -26.1824	
   4.21394	-0.00107336	   4.18654	-0.000976692	   4.19097	-0.00104452	   4.19715	-0.00103152	   4.19715	  -25.7881	
   4.28518	-0.00105775	   4.25715	-0.000960305	   4.26195	-0.00102894	    4.2681	-0.00101567	    4.2681	  -25.3916	
   4.35611	-0.00104207	   4.32762	-0.000943761	   4.33274	-0.0010133	   4.33883	-0.000999709	   4.33883	  -24.9927	
   4.42673	-0.0010263	   4.39771	-0.000927032	   4.40323	-0.00099759	   4.40922	-0.000983642	   4.40922	  -24.5911	
   4.49724	-0.00101046	   4.46775	-0.00091016	   4.47371	-0.000981769	   4.47957	-0.000967463	   4.47957	  -24.1866	
   4.56752	-0.000994506	   4.53761	-0.000893221	   4.54397	-0.000965831	    4.5497	-0.000951186	    4.5497	  -23.7797	
   4.63766	-0.000978441	   4.60717	-0.000876308	   4.61408	-0.000949793	   4.61964	-0.000934847	   4.61964	  -23.3712	
   4.70766	-0.000962289	   4.67675	-0.000859432	   4.68416	-0.00093368	   4.68952	-0.000918467	   4.68952	  -22.9617	
   4.77739	-0.000946082	   4.74611	-0.000842505	   4.75395	-0.0009175	   4.75915	-0.000902029	   4.75915	  -22.5507	
   4.84695	-0.000929826	   4.81514	-0.000825418	   4.82347	-0.000901247	   4.82852	-0.000885497	   4.82852	  -22.1374	
   4.91624	-0.000913497	   4.88417	-0.000808124	   4.89281	-0.000884901	   4.89774	-0.000868841	   4.89774	   -21.721	
   4.98535	-0.000897056	   4.95297	-0.000790679	   4.96186	-0.00086846	   4.96673	-0.000852065	   4.96673	  -21.3016	
   5.05449	-0.000880487	   5.02152	-0.000773183	   5.03073	-0.000851938	   5.03558	-0.000835203	   5.03558	  -20.8801	
   5.12364	-0.000863811	   5.08983	-0.000755712	   5.09952	-0.000835336	   5.10433	-0.000818286	   5.10433	  -20.4572	
   5.19245	-0.000847053	    5.1579	-0.000738246	     5.168	-0.000818658	   5.17278	-0.000801319	   5.17278	   -20.033	
   5.26114	-0.000830239	   5.22562	-0.000720709	   5.23618	-0.0008019	   5.24098	-0.000784282	   5.24098	  -19.6071	
   5.32959	-0.000813377	   5.29322	-0.000703022	   5.30426	-0.000785056	   5.30902	-0.000767152	   5.30902	  -19.1788	
   5.39791	-0.000796444	   5.36058	-0.000685182	   5.37204	-0.000768141	   5.37684	-0.000749923	   5.37684	  -18.7481	
   5.46599	-0.000779416	    5.4276	-0.000667242	   5.43941	-0.000751164	   5.44433	-0.000732607	   5.44433	  -18.3152	
   5.53382	-0.000762288	    5.4946	-0.000649266	   5.50659	-0.000734115	   5.51167	-0.000715223	   5.51167	  -17.8806	
    5.6014	-0.000745062	   5.56138	-0.000631276	   5.57349	-0.000716996	   5.57876	-0.000697778	   5.57876	  -17.4445	
   5.66875	-0.000727777	   5.62771	-0.000613253	   5.64001	-0.000699804	   5.64549	-0.000680278	   5.64549	  -17.0069	
   5.73587	-0.000710457	   5.69393	-0.000595163	   5.70636	-0.000682534	   5.71205	-0.000662718	   5.71205	  -16.5679	
   5.80275	-0.000693087	   5.76016	-0.000577004	   5.77246	-0.000665192	   5.77846	-0.000645094	   5.77846	  -16.1274	
    5.8694	-0.000675622	   5.82658	-0.000558791	   5.83842	-0.000647788	    5.8448	-0.0006274	    5.8448	   -15.685	
   5.93593	-0.000658036	   5.89296	-0.00054053	   5.90433	-0.000630312	   5.91107	-0.000609626	   5.91107	  -15.2406	
   6.00213	-0.000640324	   5.95908	-0.000522198	   5.96998	-0.000612758	   5.97706	-0.00059176	   5.97706	   -14.794	
   6.06821	-0.000622528	   6.02452	-0.000503761	   6.03538	-0.000595134	    6.0427	-0.000573807	    6.0427	  -14.3452	
   6.13409	-0.000604707	   6.08933	-0.000485201	   6.10063	-0.000577448	   6.10801	-0.000555785	   6.10801	  -13.8946	
   6.19954	-0.00058688	   6.15345	-0.000466557	   6.16564	-0.000559712	   6.17287	-0.000537716	   6.17287	  -13.4429	
   6.26469	-0.000568997	   6.21724	-0.000447891	   6.23021	-0.00054192	   6.23738	-0.000519603	   6.23738	  -12.9901	
   6.32968	-0.000550991	   6.28104	-0.000429249	    6.2947	-0.000524059	   6.30181	-0.000501433	   6.30181	  -12.5358	
   6.39429	-0.000532848	   6.34475	-0.000410607	   6.35888	-0.000506124	   6.36597	-0.000483193	   6.36597	  -12.0798	
   6.45855	-0.00051463	   6.40815	-0.000391904	   6.42267	-0.000488109	   6.42979	-0.000464881	   6.42979	   -11.622	
   6.52269	-0.000496405	   6.47127	-0.000373081	   6.48631	-0.000470038	   6.49342	-0.000446508	   6.49342	  -11.1627	
    6.5865	-0.000478212	   6.53401	-0.000354138	   6.54982	-0.000451932	   6.55678	-0.000428094	   6.55678	  -10.7023	
    6.6499	-0.000460008	   6.59653	-0.000335129	   6.61298	-0.000433785	    6.6198	-0.000409641	    6.6198	   -10.241	
   6.71324	-0.000441704	   6.65862	-0.000316116	   6.67571	-0.000415583	   6.68253	-0.000391134	   6.68253	  -9.77835	
   6.77632	-0.000423241	   6.72054	-0.000297123	   6.73827	-0.000397309	   6.74504	-0.000372557	   6.74504	  -9.31394	
   6.83893	-0.000404643	   6.78229	-0.000278125	   6.80055	-0.000378956	   6.80726	-0.000353908	   6.80726	  -8.84771	
   6.90122	-0.000385999	   6.84379	-0.000259069	   6.86238	-0.00036054	   6.86913	-0.000335203	   6.86913	  -8.38006	
   6.96332	-0.000367385	   6.90517	-0.000239919	   6.92401	-0.000342087	   6.93083	-0.000316464	   6.93083	  -7.91159	
   7.02505	-0.000348818	   6.96643	-0.000220679	   6.98544	-0.000323605	   6.99231	-0.000297701	   6.99231	  -7.44252	
   7.08653	-0.000330238	    7.0274	-0.000201391	   7.04649	-0.00030507	   7.05347	-0.0002789	   7.05347	  -6.97249	
   7.14789	-0.000311563	   7.08797	-0.000182097	   7.10709	-0.000286473	   7.11432	-0.000260044	   7.11432	   -6.5011	
   7.20895	-0.000292762	   7.14852	-0.000162812	    7.1676	-0.000267825	   7.17502	-0.000241133	   7.17502	  -6.02833	
   7.26951	-0.000273873	   7.20884	-0.000143517	   7.22783	-0.000249158	   7.23539	-0.000222183	   7.23539	  -5.55457	
   7.32994	-0.00025497	   7.26875	-0.00012417	   7.28769	-0.000230478	   7.29546	-0.000203206	   7.29546	  -5.08015	
   7.39016	-0.000236104	   7.32838	-0.000104751	   7.34723	-0.000211767	   7.35526	-0.000184207	   7.35526	  -4.60519	
   7.44997	-0.000217269	   7.38789	-8.52731e-05	   7.40659	-0.000192999	   7.41482	-0.00016518	   7.41482	  -4.12951	
   7.50932	-0.000198407	   7.44708	-6.57724e-05	   7.46558	-0.000174168	   7.47399	-0.000146116	   7.47399	  -3.65289	
   7.56857	-0.000179464	   7.50578	-4.62816e-05	   7.52424	-0.000155296	   7.53287	-0.000127014	   7.53287	  -3.17535	
   7.62753	-0.00016043	   7.56436	-2.68034e-05	   7.58284	-0.000136415	   7.59157	-0.000107883	   7.59157	  -2.69707	
   7.68612	-0.000141336	   7.62272	-7.31552e-06	   7.64117	-0.000117496	      7.65	-8.87159e-05	      7.65	   -2.2179	
    7.7445	-0.000122242	   7.68071	1.22133e-05	   7.69916	-9.85307e-05	   7.70812	-6.95199e-05	   7.70812	    -1.738	
   7.80269	-0.000103184	   7.73827	3.17969e-05	   7.75679	-7.95232e-05	   7.76592	-5.03035e-05	   7.76592	  -1.25759	
   7.86052	-8.41468e-05	   7.79575	5.1444e-05	   7.81418	-6.05013e-05	   7.82348	-3.1068e-05	   7.82348	 -0.776701	
   7.91782	-6.5083e-05	   7.85296	7.11246e-05	   7.87125	-4.15114e-05	   7.88068	-1.18233e-05	   7.88068	 -0.295582	
   7.97486	-4.59498e-05	   7.90974	9.07767e-05	   7.92794	-2.25692e-05	   7.93752	7.41922e-06	   7.93752	   0.18548	
   8.03169	-2.6744e-05	   7.96698	0.000110351	    7.9842	-3.61538e-06	   7.99429	2.6664e-05	   7.99429	  0.666601	
   8.08812	-7.50754e-06	   8.02413	0.000129848	   8.04029	1.54138e-05	   8.05085	4.5918e-05	   8.05085	   1.14795	
     8.144	1.17103e-05	   8.08132	0.000149316	   8.09605	3.45297e-05	   8.10712	6.51855e-05	   8.10712	   1.62964	
   8.19971	3.0888e-05	   8.13784	0.000168845	    8.1514	5.36895e-05	   8.16299	8.44741e-05	   8.16299	   2.11185	
   8.25519	5.00404e-05	   8.19375	0.000188494	   8.20653	7.28256e-05	   8.21849	0.000103787	   8.21849	   2.59466	
   8.31027	6.91976e-05	   8.24882	0.000208237	   8.26146	9.18971e-05	   8.27351	0.000123111	   8.27351	   3.07777	
   8.36489	8.84139e-05	   8.30292	0.000227983	   8.31604	0.000110931	   8.32795	0.000142443	   8.32795	   3.56106	
   8.41923	0.000107713	   8.35669	0.000247637	    8.3702	0.000129993	   8.38204	0.000161781	   8.38204	   4.04453	
   8.47334	0.000127057	   8.41008	0.00026717	   8.42413	0.000149129	   8.43585	0.000181119	   8.43585	   4.52797	
   8.52706	0.000146381	   8.46337	0.000286646	   8.47786	0.000168325	   8.48943	0.000200451	   8.48943	   5.01127	
   8.58034	0.000165646	   8.51659	0.000306164	   8.53123	0.000187526	   8.54272	0.000219778	   8.54272	   5.49446	
   8.63334	0.000184845	   8.56936	0.000325771	    8.5842	0.000206678	   8.59564	0.000239098	   8.59564	   5.97746	
   8.68614	0.000204025	   8.62206	0.000345435	   8.63694	0.000225763	   8.64838	0.000258408	   8.64838	   6.46019	
   8.73856	0.000223261	   8.67463	0.000365065	   8.68939	0.000244818	   8.70086	0.000277715	   8.70086	   6.94287	
   8.79057	0.000242558	    8.7269	0.000384592	    8.7415	0.000263904	   8.75299	0.000297018	   8.75299	   7.42546	
   8.84233	0.00026187	   8.77872	0.000404021	   8.79313	0.000283045	   8.80472	0.000316312	   8.80472	    7.9078	
   8.89391	0.00028111	   8.82994	0.000423421	   8.84445	0.000302209	    8.8561	0.00033558	    8.8561	    8.3895	
   8.94515	0.000300246	   8.88099	0.000442863	   8.89533	0.000321339	   8.90715	0.000354816	   8.90715	    8.8704	
    8.9959	0.000319306	   8.93179	0.00046236	   8.94593	0.000340388	   8.95787	0.000374018	   8.95787	   9.35045	
   9.04624	0.000338386	    8.9822	0.000481861	   8.99612	0.00035937	   9.00819	0.000393206	   9.00819	   9.83014	
   9.09635	0.000357549	   9.03209	0.000501292	   9.04576	0.000378357	   9.05807	 0.0004124	   9.05807	     10.31	
   9.14619	 0.0003768	   9.08143	0.000520605	   9.09504	0.000397383	   9.10755	0.000431596	   9.10755	   10.7899	
   9.19562	0.000396066	   9.13052	0.000539818	   9.14403	0.000416446	   9.15672	0.000450777	   9.15672	   11.2694	
   9.24449	0.000415255	   9.17932	0.000558999	   9.19271	0.000435477	    9.2055	0.00046991	    9.2055	   11.7478	
   9.29311	0.000434327	    9.2277	 0.0005782	   9.24102	0.000454415	   9.25394	0.000488981	   9.25394	   12.2245	
   9.34155	0.000453323	   9.27551	0.000597422	   9.28875	0.000473256	   9.30194	  0.000508	   9.30194	      12.7	
   9.38966	0.000472324	   9.32298	0.00061662	    9.3363	0.000492085	   9.34965	0.00052701	   9.34965	   13.1752	
   9.43731	0.000491388	   9.37016	0.000635738	   9.38342	0.000510986	   9.39696	0.000546037	   9.39696	   13.6509	
   9.48437	0.000510499	   9.41704	0.000654751	    9.4302	0.000529976	   9.44387	0.000565075	   9.44387	   14.1269	
   9.53126	0.000529586	   9.46349	0.000673663	    9.4765	0.000548978	   9.49041	0.000584076	   9.49041	   14.6019	
   9.57782	0.000548579	   9.50937	0.000692514	   9.52243	0.000567881	   9.53654	0.000602991	   9.53654	   15.0748	
   9.62405	0.000567465	   9.55479	0.000711359	   9.56806	0.000586645	    9.5823	0.000621823	    9.5823	   15.5456	
    9.6698	0.000586294	   9.60005	0.000730222	   9.61348	0.000605326	   9.62778	0.000640614	   9.62778	   16.0153	
   9.71507	0.000605133	   9.64503	0.000749074	   9.65856	0.000623999	   9.67289	0.000659402	   9.67289	    16.485	
   9.75996	0.000624007	   9.68958	0.000767841	   9.70337	0.000642696	   9.71763	0.000678181	   9.71763	   16.9545	
   9.80466	0.000642879	   9.73359	0.000786464	   9.74779	0.000661375	   9.76201	0.000696906	   9.76201	   17.4227	
   9.84904	0.000661682	   9.77707	0.000804985	   9.79212	0.000679956	   9.80607	0.000715541	   9.80607	   17.8885	
   9.89297	0.00068037	   9.82043	0.000823472	   9.83601	0.000698416	    9.8498	0.000734086	    9.8498	   18.3521	
   9.93634	0.000698954	   9.86354	0.000841989	   9.87914	0.000716832	   9.89301	0.000752592	   9.89301	   18.8148	
   9.97916	0.000717486	   9.90628	0.000860539	   9.92163	0.000735273	   9.93569	 0.0007711	   9.93569	   19.2775	
   10.0216	0.00073602	   9.94854	0.000879035	   9.96319	0.000753753	   9.97779	0.000789602	   9.97779	   19.7401	
   10.0639	0.000754556	    9.9902	0.000897366	   10.0043	0.000772206	   10.0195	0.000808042	   10.0195	   20.2011	
   10.1058	0.000773048	   10.0315	0.000915548	   10.0449	0.000790533	   10.0607	0.000826376	   10.0607	   20.6594	
   10.1472	0.000791436	   10.0725	0.000933648	   10.0854	0.000808679	   10.1017	0.000844588	   10.1017	   21.1147	
    10.188	0.000809704	   10.1133	0.000951753	   10.1257	0.000826695	   10.1423	0.000862718	   10.1423	   21.5679	
   10.2286	0.000827883	   10.1537	0.000969889	   10.1655	0.000844688	   10.1826	0.00088082	   10.1826	   22.0205	
   10.2687	0.000846015	   10.1935	0.000988006	   10.2048	0.000862718	   10.2223	0.000898913	   10.2223	   22.4728	
   10.3086	0.000864131	   10.2328	0.00100601	   10.2436	0.000880773	   10.2617	0.000916972	   10.2617	   22.9243	
   10.3481	0.000882205	   10.2717	0.00102387	    10.282	0.000898769	   10.3006	0.000934947	   10.3006	   23.3737	
   10.3874	0.000900188	   10.3104	0.00104157	   10.3202	0.000916614	   10.3393	0.000952792	   10.3393	   23.8198	
   10.4258	0.00091805	   10.3488	0.00105917	    10.358	0.000934288	   10.3775	0.000970501	   10.3775	   24.2625	
    10.464	0.00093582	   10.3869	0.00107669	   10.3954	0.000951845	   10.4155	0.000988118	   10.4155	   24.7029	
   10.5018	0.000953549	   10.4245	0.00109417	   10.4325	0.000969368	   10.4529	 0.0010057	   10.4529	   25.1424	
    10.539	0.000971264	   10.4616	0.00111159	   10.4689	0.000986899	   10.4899	0.00102325	   10.4899	   25.5813	
   10.5762	0.000988941	    10.498	0.00112894	   10.5051	 0.0010044	   10.5264	0.00104076	   10.5264	   26.0191	
   10.6125	0.00100651	    10.534	0.00114619	   10.5408	0.00102181	   10.5625	0.00105817	   10.5625	   26.4543	
   10.6487	0.00102393	   10.5698	0.00116336	   10.5761	0.00103908	   10.5982	0.00107546	   10.5982	   26.8864	
   10.6843	 0.0010412	   10.6053	0.00118046	   10.6112	0.00105618	   10.6336	0.00109261	   10.6336	   27.3154	
   10.7195	 0.0010584	   10.6405	0.00119749	   10.6458	0.00107317	   10.6686	0.00110969	   10.6686	   27.7422	
   10.7544	0.00107558	   10.6752	0.00121443	   10.6801	0.00109011	   10.7032	0.00112671	   10.7032	   28.1677	
   10.7886	0.00109277	   10.7094	0.00123123	   10.7139	0.00110701	   10.7373	0.00114367	   10.7373	   28.5917	
   10.8226	0.00110989	   10.7431	0.00124785	    10.747	0.00112386	   10.7709	0.00116053	   10.7709	   29.0134	
   10.8559	0.00112687	   10.7762	0.00126436	   10.7799	0.00114061	    10.804	0.00117728	    10.804	    29.432	
   10.8887	0.00114368	    10.809	0.00128081	   10.8126	0.00115725	   10.8368	0.00119391	   10.8368	   29.8478	
   10.9213	0.00116036	   10.8416	0.00129724	   10.8449	0.00117377	   10.8693	0.00121046	   10.8693	   30.2614	
   10.9533	0.00117699	   10.8739	0.00131364	   10.8769	 0.0011902	   10.9014	0.00122695	   10.9014	   30.6736	
   10.9848	0.00119362	   10.9057	0.00132993	   10.9086	0.00120655	   10.9331	0.00124337	   10.9331	   31.0841	
   11.0158	0.00121018	   10.9372	0.00134601	   10.9398	0.00122281	   10.9643	0.00125967	   10.9643	   31.4918	
   11.0464	0.00122662	   10.9681	 0.0013619	   10.9705	0.00123898	    10.995	0.00127584	    10.995	   31.8959	
   11.0766	 0.0012429	   10.9984	0.00137768	   11.0007	0.00125505	   11.0252	0.00129188	   11.0252	    32.297	
   11.1065	0.00125901	   11.0282	0.00139346	   11.0303	0.00127103	    11.055	0.00130783	    11.055	   32.6959	
    11.136	0.00127505	   11.0572	0.00140925	   11.0595	0.00128692	   11.0842	0.00132374	   11.0842	   33.0935	
   11.1651	 0.0012911	   11.0855	0.00142496	   11.0884	0.00130272	    11.113	 0.0013396	    11.113	   33.4899	
   11.1938	0.00130714	   11.1133	0.00144046	    11.117	0.00131844	   11.1414	0.00135534	   11.1414	   33.8836	
   11.2219	 0.0013231	   11.1409	0.00145567	   11.1453	0.00133404	   11.1694	0.00137094	   11.1694	   34.2735	
   11.2494	0.00133891	   11.1684	0.00147068	   11.1732	0.00134953	    11.197	0.00138638	    11.197	   34.6594	
   11.2765	0.00135451	   11.1956	0.00148564	   11.2008	0.00136491	   11.2243	0.00140169	   11.2243	   35.0422	
   11.3028	0.00136992	   11.2225	0.00150068	   11.2279	0.00138018	    11.251	0.00141692	    11.251	   35.4231	
   11.3288	0.00138522	   11.2485	0.00151573	   11.2545	0.00139535	   11.2773	 0.0014321	   11.2773	   35.8025	
   11.3541	0.00140047	   11.2744	0.00153066	   11.2806	0.00141043	    11.303	0.00144719	    11.303	   36.1797	
   11.3794	0.00141569	   11.2995	0.00154533	    11.306	 0.0014254	   11.3283	0.00146214	   11.3283	   36.5535	
   11.4042	0.00143083	   11.3247	0.00155969	   11.3311	0.00144026	   11.3533	0.00147693	   11.3533	   36.9231	
   11.4288	 0.0014458	   11.3495	0.00157389	   11.3555	  0.001455	   11.3779	0.00149156	   11.3779	   37.2891	
    11.453	0.00146057	   11.3733	0.00158811	   11.3795	0.00146963	   11.4019	 0.0015061	   11.4019	   37.6525	
   11.4768	0.00147518	    11.397	0.00160239	   11.4029	0.00148415	   11.4255	0.00152057	   11.4255	   38.0143	
      11.5	0.00148971	   11.4201	0.00161664	   11.4261	0.00149858	   11.4487	0.00153498	   11.4487	   38.3745	
   11.5228	0.00150423	   11.4426	0.00163071	    11.449	0.00151291	   11.4714	0.00154929	   11.4714	   38.7321	
    11.545	0.00151871	   11.4651	 0.0016445	   11.4715	0.00152713	   11.4939	0.00156345	   11.4939	   39.0862	
   11.5667	0.00153305	   11.4868	0.00165806	   11.4937	0.00154124	   11.5157	0.00157745	   11.5157	   39.4362	
   11.5878	0.00154718	   11.5082	0.00167152	   11.5155	0.00155523	   11.5372	0.00159131	   11.5372	   39.7827	
   11.6085	0.00156109	    11.529	  0.001685	   11.5369	0.00156912	   11.5582	0.00160507	   11.5582	   40.1268	
   11.6286	0.00157489	   11.5494	 0.0016985	   11.5579	0.00158291	   11.5787	0.00161877	   11.5787	   40.4692	
   11.6481	0.00158865	   11.5696	 0.0017119	   11.5784	0.00159659	   11.5987	0.00163238	   11.5987	   40.8095	
    11.667	 0.0016024	   11.5891	0.00172508	   11.5985	0.00161016	   11.6182	0.00164588	   11.6182	    41.147	
   11.6858	0.00161609	   11.6083	  0.001738	   11.6179	0.00162361	   11.6373	0.00165923	   11.6373	   41.4809	
   11.7042	0.00162962	   11.6269	0.00175075	   11.6369	0.00163694	    11.656	0.00167244	    11.656	   41.8109	
   11.7224	0.00164294	    11.645	0.00176345	   11.6552	0.00165016	   11.6742	0.00168552	   11.6742	   42.1379	
   11.7403	0.00165608	   11.6626	0.00177618	    11.673	0.00166328	    11.692	0.00169851	    11.692	   42.4627	
   11.7578	 0.0016691	   11.6798	0.00178888	   11.6901	0.00167629	   11.7093	0.00171142	   11.7093	   42.7856	
    11.775	0.00168208	   11.6965	0.00180145	   11.7067	0.00168919	   11.7261	0.00172424	   11.7261	    43.106	
   11.7919	0.00169502	   11.7126	 0.0018138	   11.7226	0.00170197	   11.7424	0.00173693	   11.7424	   43.4233	
   11.8085	0.00170786	   11.7281	0.00182593	    11.738	0.00171463	   11.7582	0.00174947	   11.7582	   43.7368	
   11.8246	0.00172054	   11.7431	0.00183791	   11.7528	0.00172717	   11.7735	0.00176187	   11.7735	   44.0468	
   11.8404	0.00173302	   11.7574	0.00184986	   11.7672	0.00173959	   11.7883	0.00177416	   11.7883	   44.3539	
   11.8557	0.00174534	   11.7712	0.00186181	   11.7813	0.00175187	   11.8028	0.00178634	   11.8028	   44.6585	
   11.8707	0.00175755	   11.7848	0.00187371	   11.7952	0.00176402	   11.8169	0.00179843	   11.8169	   44.9608	
   11.8852	0.00176971	   11.7977	0.00188547	   11.8084	0.00177607	   11.8304	0.00181042	   11.8304	   45.2604	
   11.8993	0.00178181	   11.8102	0.00189703	   11.8212	0.00178801	   11.8436	0.00182228	   11.8436	   45.5571	
   11.9129	0.00179378	   11.8223	 0.0019084	   11.8336	0.00179985	   11.8563	0.00183401	   11.8563	   45.8503	
   11.9261	0.00180559	   11.8338	0.00191967	   11.8454	0.00181158	   11.8684	0.00184561	   11.8684	   46.1403	
   11.9388	0.00181722	    11.845	 0.0019309	    11.857	0.00182316	   11.8803	 0.0018571	   11.8803	   46.4274	
    11.951	0.00182873	   11.8557	0.00194209	    11.868	0.00183461	   11.8916	0.00186848	   11.8916	   46.7119	
   11.9628	0.00184015	   11.8658	0.00195315	   11.8786	0.00184596	   11.9024	0.00187975	   11.9024	   46.9939	
   11.9741	0.00185154	   11.8753	0.00196405	   11.8889	0.00185721	   11.9128	0.00189093	   11.9128	   47.2733	
   11.9849	0.00186284	   11.8842	0.00197479	   11.8986	0.00186835	   11.9226	0.00190199	   11.9226	   47.5499	
   11.9952	  0.001874	   11.8921	0.00198544	   11.9081	0.00187933	   11.9318	0.00191292	   11.9318	   47.8231	
   12.0051	0.00188496	   11.8996	0.00199604	    11.917	0.00189013	   11.9406	0.00192371	   11.9406	   48.0928	
   12.0145	0.00189575	   11.9066	0.00200658	   11.9255	0.00190079	   11.9489	0.00193437	   11.9489	   48.3593	
   12.0235	0.00190644	   11.9137	0.00201698	   11.9337	0.00191141	   11.9569	0.00194494	   11.9569	   48.6236	
    12.032	 0.0019171	   11.9203	0.00202723	   11.9412	0.00192201	   11.9645	0.00195544	   11.9645	   48.8861	
   12.0401	 0.0019277	   11.9266	0.00203731	   11.9484	0.00193256	   11.9717	0.00196586	   11.9717	   49.1465	
   12.0477	 0.0019382	   11.9326	0.00204728	   11.9552	0.00194295	   11.9785	0.00197614	   11.9785	   49.4036	
   12.0549	0.00194851	    11.938	0.00205717	   11.9613	 0.0019531	   11.9847	0.00198626	   11.9847	   49.6564	
   12.0617	0.00195864	   11.9432	0.00206695	   11.9671	0.00196299	   11.9907	 0.0019962	   11.9907	   49.9049	
   12.0679	0.00196865	   11.9486	0.00207663	   11.9723	0.00197274	   11.9962	0.00200601	   11.9962	   50.1502	
   12.0735	0.00197859	   11.9528	0.00208618	   11.9771	0.00198247	   12.0011	0.00201574	   12.0011	   50.3936	
   12.0785	0.00198847	   11.9572	 0.0020956	   11.9814	0.00199222	   12.0057	0.00202543	   12.0057	   50.6358	
   12.0827	0.00199827	   11.9605	 0.0021049	   11.9851	0.00200194	   12.0094	0.00203504	   12.0094	   50.8759	
   12.0863	 0.0020079	   11.9634	0.00211405	   11.9883	 0.0020115	   12.0127	0.00204449	   12.0127	   51.1121	
   12.0893	0.00201735	   11.9668	 0.0021231	   11.9911	0.00202081	   12.0157	0.00205375	   12.0157	   51.3438	
   12.0914	0.00202662	   11.9689	0.00213206	   11.9934	0.00202987	   12.0179	0.00206285	   12.0179	   51.5712	
    12.093	0.00203579	   11.9714	0.00214095	   11.9953	0.00203878	   12.0199	0.00207184	   12.0199	    51.796	
   12.0941	0.00204492	    11.973	0.00214973	   11.9969	0.00204766	   12.0213	0.00208077	   12.0213	   52.0193	
   12.0945	0.00205399	   11.9739	0.00215836	    11.998	0.00205656	   12.0221	0.00208964	   12.0221	    52.241	
   12.0942	0.00206295	   11.9747	0.00216678	   11.9989	0.00206538	   12.0226	0.00209837	   12.0226	   52.4592	
   12.0934	0.00207172	   11.9749	0.00217503	   11.9992	0.00207399	   12.0225	0.00210691	   12.0225	   52.6728	
   12.0921	0.00208031	   11.9748	0.00218318	   11.9991	0.00208232	    12.022	0.00211527	    12.022	   52.8818	
   12.0904	0.00208876	   11.9741	0.00219132	   11.9987	0.00209043	   12.0211	 0.0021235	   12.0211	   53.0876	
   12.0882	0.00209716	    11.973	0.00219941	   11.9977	0.00209848	   12.0196	0.00213168	   12.0196	   53.2921	
   12.0856	0.00210551	   11.9716	0.00220741	    11.996	0.00210663	   12.0177	0.00213985	   12.0177	   53.4962	
   12.0827	0.00211377	   11.9697	0.00221522	   11.9935	0.00211487	   12.0153	0.00214795	   12.0153	   53.6988	
   12.0795	 0.0021219	   11.9674	0.00222285	   11.9905	0.00212299	   12.0124	0.00215592	   12.0124	   53.8979	
   12.0758	0.00212987	   11.9646	0.00223034	    11.987	 0.0021308	   12.0091	0.00216367	   12.0091	   54.0917	
   12.0716	0.00213769	   11.9612	0.00223773	    11.983	0.00213822	   12.0053	0.00217121	   12.0053	   54.2803	
   12.0669	0.00214542	   11.9574	0.00224504	   11.9789	0.00214544	   12.0011	0.00217863	   12.0011	   54.4658	
   12.0617	 0.0021531	   11.9531	0.00225224	   11.9743	 0.0021527	   11.9964	0.00218601	   11.9964	   54.6503	
   12.0558	0.00216071	   11.9485	0.00225934	   11.9693	0.00216012	   11.9912	0.00219339	   11.9912	   54.8347	
   12.0494	0.00216821	   11.9434	0.00226632	   11.9639	0.00216759	   11.9856	0.00220071	   11.9856	   55.0177	
   12.0424	0.00217557	   11.9379	0.00227319	    11.958	 0.0021749	   11.9795	0.00220789	   11.9795	   55.1971	
    12.035	0.00218279	   11.9322	0.00227996	   11.9518	0.00218185	    11.973	0.00221486	    11.973	   55.3716	
   12.0272	0.00218989	   11.9258	0.00228662	   11.9452	0.00218849	   11.9661	0.00222167	   11.9661	   55.5417	
    12.019	0.00219692	   11.9189	0.00229317	   11.9376	0.00219503	   11.9585	0.00222837	   11.9585	   55.7094	
   12.0104	0.00220389	   11.9113	 0.0022996	   11.9301	0.00220166	   11.9506	0.00223505	   11.9506	   55.8763	
   12.0014	0.00221079	   11.9031	 0.0023059	   11.9217	0.00220841	   11.9421	 0.0022417	   11.9421	   56.0424	
   11.9918	0.00221756	   11.8945	0.00231209	   11.9129	0.00221511	    11.933	0.00224825	    11.933	   56.2064	
   11.9817	 0.0022242	   11.8853	0.00231819	   11.9041	0.00222158	   11.9237	0.00225466	   11.9237	   56.3664	
   11.9711	 0.0022307	   11.8758	0.00232422	   11.8945	0.00222773	   11.9138	0.00226088	   11.9138	   56.5221	
   11.9599	0.00223712	    11.866	0.00233016	   11.8844	0.00223361	   11.9034	0.00226696	   11.9034	   56.6741	
   11.9482	0.00224347	   11.8559	0.00233599	   11.8737	0.00223942	   11.8926	0.00227296	   11.8926	    56.824	
   11.9361	0.00224976	   11.8453	0.00234169	   11.8625	0.00224526	   11.8813	 0.0022789	   11.8813	   56.9726	
   11.9237	0.00225594	   11.8343	0.00234727	   11.8509	0.00225112	   11.8696	0.00228478	   11.8696	   57.1194	
    11.911	0.00226198	   11.8226	0.00235276	   11.8387	0.00225687	   11.8574	0.00229054	   11.8574	   57.2634	
   11.8978	0.00226788	   11.8103	0.00235819	   11.8263	0.00226238	   11.8448	0.00229615	   11.8448	   57.4037	
   11.8841	0.00227367	   11.7975	0.00236354	   11.8132	0.00226764	   11.8316	0.00230162	   11.8316	   57.5405	
   11.8699	0.00227942	   11.7843	0.00236878	   11.7997	0.00227276	    11.818	0.00230699	    11.818	   57.6747	
   11.8551	0.00228511	   11.7708	0.00237387	   11.7859	 0.0022779	   11.8039	0.00231229	   11.8039	   57.8073	
   11.8399	0.00229071	   11.7569	 0.0023788	   11.7715	0.00228307	   11.7894	0.00231753	   11.7894	   57.9382	
   11.8243	0.00229619	   11.7422	0.00238365	   11.7568	0.00228822	   11.7744	0.00232269	   11.7744	   58.0672	
   11.8084	0.00230154	   11.7269	0.00238848	   11.7415	0.00229322	   11.7589	0.00232775	   11.7589	   58.1937	
   11.7921	0.00230678	    11.711	0.00239326	   11.7257	  0.002298	   11.7429	0.00233268	   11.7429	    58.317	
   11.7752	0.00231196	   11.6946	0.00239795	   11.7094	 0.0023026	   11.7264	 0.0023375	   11.7264	   58.4376	
   11.7577	0.00231709	   11.6778	0.00240249	   11.6925	0.00230712	   11.7093	0.00234223	   11.7093	   58.5558	
   11.7398	0.00232215	   11.6607	0.00240686	   11.6753	0.00231162	   11.6919	0.00234688	   11.6919	   58.6719	
   11.7214	0.00232711	   11.6433	0.00241113	   11.6574	0.00231612	    11.674	0.00235145	    11.674	   58.7863	
   11.7027	0.00233194	   11.6254	0.00241536	   11.6388	0.00232053	   11.6556	0.00235595	   11.6556	   58.8986	
   11.6837	0.00233666	   11.6068	0.00241955	   11.6195	0.00232481	   11.6367	0.00236034	   11.6367	   59.0085	
   11.6642	0.00234129	   11.5877	0.00242366	   11.5997	0.00232892	   11.6172	0.00236462	   11.6172	   59.1156	
   11.6443	0.00234588	   11.5681	0.00242766	   11.5795	0.00233292	   11.5973	0.00236882	   11.5973	   59.2205	
   11.6237	0.00235043	   11.5482	0.00243154	   11.5589	0.00233688	   11.5769	0.00237295	   11.5769	   59.3237	
   11.6027	0.00235488	   11.5277	0.00243532	    11.538	0.00234083	   11.5561	0.00237701	   11.5561	   59.4252	
   11.5814	0.00235919	   11.5068	0.00243902	   11.5166	0.00234475	   11.5349	0.00238099	   11.5349	   59.5247	
   11.5596	0.00236338	   11.4854	0.00244264	   11.4947	0.00234857	   11.5132	0.00238487	   11.5132	   59.6216	
   11.5377	0.00236747	   11.4635	0.00244617	   11.4722	0.00235225	   11.4911	0.00238863	   11.4911	   59.7157	
   11.5153	0.00237153	   11.4411	0.00244957	   11.4493	0.00235577	   11.4685	0.00239229	   11.4685	   59.8073	
   11.4922	0.00237558	   11.4184	0.00245287	    11.426	 0.0023592	   11.4456	0.00239588	   11.4456	    59.897	
   11.4687	0.00237956	   11.3953	0.00245606	   11.4026	0.00236258	   11.4222	 0.0023994	   11.4222	   59.9851	
   11.4449	0.00238345	   11.3717	 0.0024592	   11.3785	0.00236595	   11.3983	0.00240287	   11.3983	   60.0717	
   11.4208	0.00238721	   11.3475	0.00246231	   11.3538	0.00236927	    11.374	0.00240626	    11.374	   60.1565	
   11.3964	0.00239085	   11.3228	0.00246536	   11.3286	0.00237248	   11.3493	0.00240956	   11.3493	   60.2391	
   11.3714	0.00239444	   11.2978	0.00246833	   11.3031	0.00237556	   11.3241	0.00241278	   11.3241	   60.3194	
   11.3459	0.00239802	   11.2725	0.00247116	   11.2773	0.00237853	   11.2986	 0.0024159	   11.2986	   60.3976	
   11.3201	0.00240156	   11.2467	0.00247387	   11.2513	0.00238144	   11.2727	0.00241895	   11.2727	   60.4739	
   11.2938	  0.002405	   11.2203	0.00247649	   11.2247	0.00238432	   11.2463	0.00242194	   11.2463	   60.5485	
   11.2672	 0.0024083	   11.1934	0.00247908	   11.1976	0.00238718	   11.2194	0.00242486	   11.2194	   60.6214	
     11.24	0.00241145	   11.1661	0.00248165	   11.1701	0.00238998	   11.1921	0.00242769	   11.1921	   60.6923	
   11.2122	0.00241451	   11.1384	0.00248416	   11.1424	0.00239265	   11.1643	0.00243044	   11.1643	    60.761	
    11.184	0.00241755	   11.1103	0.00248654	   11.1143	0.00239521	   11.1362	 0.0024331	   11.1362	   60.8275	
   11.1555	0.00242061	   11.0816	0.00248878	   11.0857	0.00239767	   11.1076	0.00243569	   11.1076	   60.8922	
   11.1266	0.00242365	   11.0525	0.00249093	   11.0565	 0.0024001	   11.0785	0.00243823	   11.0785	   60.9557	
   11.0972	0.00242658	   11.0229	0.00249305	   11.0269	0.00240252	    11.049	0.00244072	    11.049	   61.0179	
   11.0673	0.00242935	   10.9931	0.00249515	   10.9969	 0.0024049	   11.0191	0.00244314	   11.0191	   61.0784	
   11.0369	0.00243195	   10.9625	0.00249722	   10.9664	0.00240721	   10.9886	0.00244546	   10.9886	   61.1364	
   11.0062	0.00243446	   10.9314	0.00249919	   10.9353	0.00240939	   10.9576	0.00244768	   10.9576	    61.192	
   10.9749	0.00243698	   10.8999	0.00250104	   10.9039	0.00241146	   10.9262	0.00244982	   10.9262	   61.2456	
   10.9432	0.00243952	   10.8681	0.00250278	   10.8721	0.00241346	   10.8945	0.00245192	   10.8945	    61.298	
    10.911	0.00244203	   10.8359	0.00250447	   10.8402	0.00241544	   10.8624	0.00245398	   10.8624	   61.3495	
   10.8786	0.00244441	   10.8033	0.00250613	   10.8077	0.00241741	   10.8299	0.00245598	   10.8299	   61.3995	
   10.8455	0.00244659	   10.7701	0.00250775	   10.7748	0.00241934	   10.7968	0.00245789	   10.7968	   61.4474	
   10.8121	0.00244861	   10.7366	0.00250932	   10.7414	0.00242118	   10.7634	 0.0024597	   10.7634	   61.4925	
   10.7781	0.00245057	   10.7029	0.00251078	   10.7079	0.00242289	   10.7296	0.00246141	   10.7296	   61.5353	
   10.7439	0.00245259	   10.6686	0.00251212	   10.6737	 0.0024245	   10.6954	0.00246307	   10.6954	   61.5767	
   10.7091	0.00245469	   10.6337	0.00251337	    10.639	0.00242604	   10.6606	 0.0024647	   10.6606	   61.6175	
   10.6738	0.00245681	   10.5984	0.00251456	    10.604	0.00242756	   10.6254	0.00246631	   10.6254	   61.6577	
   10.6379	0.00245883	   10.5629	 0.0025157	   10.5686	0.00242906	   10.5898	0.00246786	   10.5898	   61.6966	
   10.6018	0.00246062	   10.5268	0.00251681	   10.5329	0.00243051	   10.5538	0.00246931	   10.5538	   61.7328	
   10.5652	0.00246221	   10.4904	0.00251784	   10.4968	0.00243186	   10.5175	0.00247063	   10.5175	   61.7659	
   10.5282	 0.0024637	   10.4535	0.00251877	   10.4603	 0.0024331	   10.4806	0.00247186	   10.4806	   61.7964	
   10.4906	0.00246524	   10.4164	 0.0025196	   10.4235	0.00243425	   10.4435	0.00247303	   10.4435	   61.8258	
   10.4528	0.00246687	   10.3789	0.00252035	   10.3862	0.00243537	    10.406	 0.0024742	    10.406	   61.8549	
   10.4146	0.00246852	   10.3408	0.00252107	   10.3484	0.00243647	   10.3679	0.00247535	   10.3679	   61.8839	
    10.376	0.00247005	   10.3023	0.00252176	   10.3102	0.00243755	   10.3295	0.00247645	   10.3295	   61.9113	
   10.3369	0.00247138	   10.2635	 0.0025224	   10.2717	0.00243857	   10.2907	0.00247745	   10.2907	   61.9361	
   10.2975	0.00247251	   10.2241	0.00252296	   10.2328	0.00243948	   10.2515	0.00247832	   10.2515	   61.9579	
   10.2577	0.00247358	   10.1842	0.00252342	   10.1934	 0.0024403	   10.2118	 0.0024791	   10.2118	   61.9774	
   10.2172	0.00247469	    10.144	0.00252378	   10.1536	0.00244102	   10.1716	0.00247983	   10.1716	   61.9957	
   10.1764	0.00247586	   10.1035	0.00252407	   10.1135	 0.0024417	   10.1312	0.00248054	   10.1312	   62.0136	
   10.1353	  0.002477	   10.0624	0.00252431	   10.0728	 0.0024424	   10.0902	0.00248124	   10.0902	   62.0309	
   10.0936	0.00247801	   10.0208	0.00252451	   10.0317	 0.0024431	   10.0487	0.00248187	   10.0487	   62.0468	
   10.0515	0.00247882	   9.97902	0.00252465	    9.9903	0.00244376	   10.0069	0.00248241	   10.0069	   62.0603	
   10.0091	0.00247949	   9.93676	0.00252471	   9.94847	0.00244431	   9.96477	0.00248284	   9.96477	    62.071	
   9.96613	0.00248014	   9.89394	0.00252467	   9.90611	0.00244473	   9.92206	0.00248318	   9.92206	   62.0795	
   9.92278	0.00248082	   9.85076	0.00252455	   9.86331	0.00244506	   9.87895	0.00248348	   9.87895	   62.0869	
   9.87899	0.00248152	   9.80738	0.00252436	   9.82014	0.00244535	    9.8355	0.00248374	    9.8355	   62.0936	
   9.83494	0.00248214	   9.76343	0.00252413	   9.77657	0.00244562	   9.79165	0.00248396	   9.79165	   62.0991	
   9.79048	0.00248259	   9.71902	0.00252387	   9.73245	0.00244583	   9.74732	 0.0024841	   9.74732	   62.1024	
   9.74549	0.00248287	   9.67432	0.00252355	   9.68799	0.00244597	    9.7026	0.00248413	    9.7026	   62.1033	
   9.70016	0.00248308	   9.62931	0.00252315	   9.64325	0.00244604	   9.65757	0.00248409	   9.65757	   62.1023	
   9.65467	0.00248333	   9.58384	0.00252265	   9.59798	0.00244606	   9.61216	0.00248401	   9.61216	   62.1003	
   9.60855	0.00248363	   9.53799	0.00252204	   9.55229	0.00244604	   9.56628	0.00248391	   9.56628	   62.0976	
   9.56202	0.00248393	   9.49196	0.00252137	   9.50635	0.00244599	   9.52011	0.00248377	   9.52011	   62.0941	
   9.51525	0.00248412	   9.44549	0.00252067	   9.46013	0.00244588	   9.47363	0.00248356	   9.47363	   62.0889	
   9.46823	0.00248411	   9.39857	0.00251996	    9.4134	0.00244572	   9.42673	0.00248326	   9.42673	   62.0816	
    9.4207	0.00248394	   9.35139	 0.0025192	   9.36634	0.00244551	   9.37948	0.00248288	   9.37948	   62.0721	
   9.37288	0.00248373	   9.30382	0.00251834	   9.31905	0.00244526	   9.33192	0.00248244	   9.33192	   62.0611	
   9.32473	0.00248356	   9.25573	0.00251736	   9.27127	0.00244495	   9.28391	0.00248196	   9.28391	   62.0489	
   9.27612	0.00248345	   9.20733	 0.0025163	   9.22311	0.00244456	   9.23552	0.00248143	   9.23552	   62.0359	
   9.22716	0.00248332	    9.1588	0.00251521	   9.17475	0.00244407	   9.18691	0.00248087	   9.18691	   62.0217	
   9.17804	0.00248305	    9.1098	0.00251413	   9.12596	0.00244355	   9.13794	0.00248025	   9.13794	   62.0062	
   9.12852	0.00248261	   9.06042	0.00251304	   9.07673	0.00244305	   9.08855	0.00247956	   9.08855	   61.9891	
   9.07858	0.00248204	   9.01086	0.00251186	   9.02714	0.00244256	   9.03886	0.00247882	   9.03886	   61.9704	
   9.02842	0.00248145	   8.96087	0.00251055	   8.97719	  0.002442	   8.98883	  0.002478	   8.98883	   61.9499	
   8.97782	 0.0024809	   8.91047	0.00250913	   8.92676	0.00244128	   8.93835	0.00247711	   8.93835	   61.9276	
   8.92677	0.00248038	   8.85962	0.00250769	   8.87606	0.00244038	   8.88748	0.00247615	   8.88748	   61.9037	
   8.87537	0.00247979	   8.80834	0.00250625	   8.82507	0.00243938	   8.83626	0.00247514	   8.83626	   61.8785	
   8.82372	0.00247904	   8.75673	0.00250479	   8.77357	0.00243841	   8.78467	0.00247408	   8.78467	   61.8519	
    8.7716	0.00247814	   8.70489	0.00250325	   8.72177	 0.0024375	   8.73275	0.00247296	   8.73275	   61.8241	
   8.71921	0.00247715	   8.65289	0.00250161	   8.66966	0.00243662	   8.68059	0.00247179	   8.68059	   61.7948	
   8.66645	0.00247615	   8.60052	0.00249989	   8.61713	0.00243567	   8.62803	0.00247057	   8.62803	   61.7643	
    8.6132	0.00247519	   8.54786	0.00249813	   8.56428	0.00243459	   8.57512	 0.0024693	   8.57512	   61.7326	
   8.55969	0.00247422	   8.49513	0.00249636	   8.51111	0.00243336	   8.52198	0.00246798	   8.52198	   61.6995	
   8.50601	0.00247316	   8.44188	0.00249457	    8.4575	0.00243206	   8.46846	 0.0024666	   8.46846	   61.6649	
   8.45183	0.00247195	   8.38832	0.00249272	   8.40357	0.00243074	   8.41457	0.00246514	   8.41457	   61.6284	
   8.39737	 0.0024706	   8.33456	0.00249078	   8.34952	0.00242944	   8.36048	 0.0024636	   8.36048	   61.5901	
   8.34262	0.00246919	   8.28026	0.00248875	   8.29492	0.00242812	   8.30594	0.00246202	   8.30594	   61.5506	
   8.28739	 0.0024678	   8.22567	0.00248667	      8.24	0.00242675	   8.25102	0.00246041	   8.25102	   61.5102	
   8.23188	0.00246643	   8.17087	0.00248457	   8.18475	0.00242525	   8.19583	0.00245875	   8.19583	   61.4688	
   8.17606	0.00246504	   8.11567	0.00248243	    8.1291	0.00242363	   8.14028	0.00245703	   8.14028	   61.4258	
   8.11977	0.00246355	   8.06016	0.00248025	   8.07313	0.00242193	   8.08436	0.00245524	   8.08436	    61.381	
   8.06323	0.00246192	   8.00446	0.00247799	   8.01686	0.00242023	   8.02819	0.00245338	   8.02819	   61.3346	
   8.00655	0.00246019	   7.94834	0.00247567	   7.96019	0.00241856	   7.97169	0.00245147	   7.97169	   61.2868	
   7.94941	0.00245841	   7.89192	0.00247327	   7.90322	0.00241693	   7.91485	0.00244954	   7.91485	   61.2385	
   7.89203	0.00245664	   7.83542	0.00247083	   7.84597	0.00241523	   7.85781	0.00244757	   7.85781	   61.1892	
   7.83442	0.00245487	   7.77851	0.00246836	   7.78855	0.00241333	   7.80049	0.00244552	   7.80049	   61.1381	
   7.77636	0.00245305	    7.7213	0.00246585	   7.73179	0.00241126	   7.74315	0.00244338	   7.74315	   61.0846	
    7.7181	0.00245111	   7.66391	0.00246329	   7.67458	0.00240906	   7.68553	0.00244115	   7.68553	   61.0288	
   7.65942	0.00244906	   7.60612	0.00246065	   7.61776	0.00240686	   7.62777	0.00243886	   7.62777	   60.9714	
   7.60035	0.00244697	   7.54807	0.00245794	   7.55962	0.00240474	   7.56935	0.00243655	   7.56935	   60.9137	
   7.54101	0.00244484	   7.48964	0.00245517	   7.50076	0.00240268	   7.51047	0.00243423	   7.51047	   60.8557	
   7.48173	0.00244266	   7.43076	0.00245237	   7.44144	0.00240059	   7.45131	0.00243187	   7.45131	   60.7969	
   7.42217	0.00244039	   7.37156	0.00244953	   7.38106	0.00239838	    7.3916	0.00242943	    7.3916	   60.7358	
   7.36267	0.00243798	   7.31193	0.00244664	   7.32086	  0.002396	   7.33182	0.00242687	   7.33182	   60.6718	
     7.303	0.00243547	   7.25192	0.00244367	    7.2604	0.00239349	   7.27177	0.00242421	   7.27177	   60.6053	
   7.24265	0.00243295	   7.19175	0.00244063	   7.19969	0.00239091	   7.21136	 0.0024215	   7.21136	   60.5374	
   7.18164	0.00243046	   7.13121	0.00243752	   7.13916	0.00238833	   7.15067	0.00241877	   7.15067	   60.4693	
   7.11973	  0.002428	   7.07034	0.00243434	   7.07805	0.00238576	   7.08938	0.00241603	   7.08938	   60.4008	
   7.05751	0.00242549	   7.00936	0.00243111	   7.01695	0.00238316	   7.02794	0.00241326	   7.02794	   60.3314	
   6.99532	0.00242284	   6.94796	0.00242786	   6.95551	0.00238046	   6.96627	0.00241039	   6.96627	   60.2597	
   6.93316	0.00241998	   6.88628	0.00242458	   6.89367	0.00237763	   6.90437	 0.0024074	   6.90437	   60.1849	
   6.87176	0.00241693	   6.82434	0.00242123	   6.83167	 0.0023747	   6.84259	0.00240429	   6.84259	   60.1072	
   6.81021	0.00241377	   6.76194	0.00241779	    6.7692	0.00237174	   6.78045	 0.0024011	   6.78045	   60.0275	
   6.74894	0.00241063	   6.69934	0.00241424	   6.70661	0.00236878	    6.7183	0.00239788	    6.7183	   59.9471	
   6.68646	0.00240762	   6.63635	 0.0024106	   6.64382	0.00236583	   6.65554	0.00239468	   6.65554	   59.8671	
   6.62359	0.00240473	   6.57299	0.00240689	   6.58084	0.00236283	   6.59247	0.00239148	   6.59247	   59.7871	
   6.55974	0.00240183	   6.50951	0.00240315	   6.51768	0.00235971	   6.52898	0.00238823	   6.52898	   59.7058	
   6.49501	 0.0023988	   6.44572	0.00239938	   6.45405	0.00235645	   6.46492	0.00238488	   6.46492	   59.6219	
    6.4303	0.00239553	   6.38163	0.00239556	    6.3901	0.00235312	   6.40068	 0.0023814	   6.40068	    59.535	
   6.36499	0.00239206	   6.31751	0.00239168	   6.32585	0.00234976	   6.33611	0.00237783	   6.33611	   59.4458	
   6.29977	0.00238854	   6.25302	0.00238772	   6.26145	0.00234641	   6.27141	0.00237423	   6.27141	   59.3557	
   6.23465	0.00238509	   6.18833	0.00238367	    6.1968	0.00234305	   6.20659	 0.0023706	   6.20659	    59.265	
    6.1691	0.00238171	   6.12355	0.00237952	   6.13193	 0.0023396	   6.14153	0.00236694	   6.14153	   59.1736	
   6.10358	0.00237832	   6.05839	0.00237532	   6.06667	0.00233602	   6.07621	0.00236322	   6.07621	   59.0805	
   6.03748	0.00237482	   5.99309	0.00237107	   6.00126	0.00233233	   6.01061	 0.0023594	   6.01061	   58.9851	
   5.97116	0.00237113	   5.92769	0.00236678	   5.93573	0.00232857	   5.94486	0.00235549	   5.94486	   58.8873	
   5.90456	0.00236729	   5.86199	0.00236243	   5.86988	 0.0023248	   5.87881	0.00235151	   5.87881	   58.7877	
   5.83782	 0.0023634	   5.79612	0.00235799	   5.80386	0.00232101	    5.8126	0.00234747	    5.8126	   58.6866	
   5.77106	0.00235955	   5.73002	0.00235345	   5.73749	0.00231715	   5.74619	0.00234338	   5.74619	   58.5845	
     5.704	0.00235572	    5.6637	0.00234883	    5.6709	0.00231318	   5.67953	0.00233924	   5.67953	   58.4811	
   5.63687	0.00235184	    5.5972	0.00234416	   5.60424	0.00230911	   5.61277	0.00233504	   5.61277	    58.376	
   5.56938	0.00234783	   5.53034	0.00233946	   5.53732	0.00230496	   5.54568	0.00233075	   5.54568	   58.2688	
   5.50169	0.00234363	   5.46337	0.00233471	   5.47027	0.00230078	   5.47845	0.00232638	   5.47845	   58.1594	
   5.43405	0.00233931	   5.39622	 0.0023299	   5.40282	0.00229657	   5.41103	0.00232193	   5.41103	   58.0482	
   5.36603	0.00233495	    5.3288	0.00232499	   5.33511	0.00229232	   5.34331	0.00231742	   5.34331	   57.9355	
   5.29792	0.00233063	   5.26106	0.00231996	   5.26739	0.00228797	   5.27546	0.00231285	   5.27546	   57.8213	
   5.22951	0.00232631	   5.19313	0.00231482	   5.19937	0.00228351	   5.20734	0.00230821	   5.20734	   57.7053	
   5.16086	0.00232192	   5.12507	0.00230962	    5.1312	0.00227894	   5.13904	0.00230349	   5.13904	   57.5873	
   5.09211	0.00231738	   5.05667	0.00230442	   5.06269	 0.0022743	   5.07049	 0.0022987	   5.07049	   57.4675	
   5.02308	0.00231268	     4.988	0.00229921	    4.9939	0.00226964	   5.00166	0.00229384	   5.00166	    57.346	
   4.95381	0.00230788	    4.9193	0.00229398	   4.92498	0.00226495	    4.9327	0.00228893	    4.9327	   57.2234	
   4.88425	 0.0023031	    4.8504	0.00228865	   4.85584	0.00226021	   4.86349	0.00228398	   4.86349	   57.0996	
   4.81443	0.00229834	   4.78131	0.00228317	   4.78654	0.00225537	   4.79409	0.00227896	   4.79409	   56.9741	
   4.74449	0.00229354	   4.71218	0.00227754	   4.71706	0.00225042	   4.72458	0.00227384	   4.72458	   56.8459	
   4.67439	0.00228858	   4.64273	0.00227183	   4.64728	0.00224538	    4.6548	0.00226859	    4.6548	   56.7148	
   4.60415	0.00228338	   4.57321	0.00226612	   4.57746	0.00224027	   4.58494	0.00226326	   4.58494	   56.5814	
   4.53383	0.00227803	   4.50346	0.00226044	   4.50751	0.00223513	   4.51493	0.00225787	   4.51493	   56.4467	
   4.46334	0.00227268	   4.43352	0.00225475	   4.43738	0.00222994	   4.44475	0.00225246	   4.44475	   56.3114	
   4.39283	0.00226744	   4.36352	0.00224896	    4.3671	0.00222467	   4.37448	0.00224703	   4.37448	   56.1756	
   4.32234	0.00226227	   4.29319	0.00224299	    4.2965	0.00221929	   4.30401	0.00224152	   4.30401	   56.0379	
   4.25167	0.00225698	   4.22278	0.00223684	   4.22584	0.00221381	   4.23343	0.00223588	   4.23343	   55.8969	
   4.18087	0.00225145	   4.15223	0.00223059	   4.15506	0.00220827	   4.16272	 0.0022301	   4.16272	   55.7526	
   4.10977	0.00224566	   4.08147	0.00222435	   4.08407	0.00220268	   4.09177	0.00222423	   4.09177	   55.6057	
   4.03862	0.00223975	   4.01076	0.00221813	   4.01304	0.00219705	   4.02081	0.00221831	   4.02081	   55.4578	
   3.96727	0.00223392	    3.9398	0.00221189	   3.94169	0.00219135	   3.94958	0.00221239	   3.94958	   55.3096	
   3.89574	0.00222819	   3.86875	0.00220551	   3.87027	0.00218557	   3.87825	0.00220643	   3.87825	   55.1607	
    3.8242	0.00222248	   3.79765	0.00219897	   3.79862	0.00217969	   3.80682	0.00220038	   3.80682	   55.0095	
   3.75236	0.00221661	   3.72631	0.00219228	   3.72678	0.00217373	   3.73515	 0.0021942	   3.73515	   54.8551	
   3.68048	0.00221048	   3.65479	 0.0021855	    3.6548	0.00216771	   3.66336	 0.0021879	   3.66336	   54.6975	
   3.60818	0.00220414	   3.58303	0.00217873	   3.58262	0.00216165	   3.59128	0.00218151	   3.59128	   54.5376	
   3.53574	0.00219772	   3.51118	0.00217196	   3.51039	0.00215555	    3.5191	0.00217508	    3.5191	   54.3769	
    3.4632	0.00219137	   3.43907	0.00216516	   3.43774	0.00214939	   3.44667	0.00216864	   3.44667	   54.2159	
   3.39039	0.00218508	   3.36676	0.00215824	   3.36493	0.00214313	   3.37403	0.00216215	   3.37403	   54.0537	
   3.31747	0.00217875	    3.2944	0.00215117	   3.29212	0.00213674	   3.30133	0.00215556	   3.30133	   53.8889	
    3.2444	0.00217227	   3.22181	0.00214396	   3.21915	0.00213026	   3.22845	0.00214883	   3.22845	   53.7207	
    3.1712	0.00216557	   3.14917	0.00213665	   3.14615	0.00212372	   3.15551	0.00214198	   3.15551	   53.5495	
   3.09794	0.00215871	   3.07629	 0.0021293	   3.07296	0.00211714	    3.0824	0.00213505	    3.0824	   53.3763	
   3.02444	0.00215179	   3.00323	0.00212194	   2.99964	0.00211054	    3.0091	0.00212809	    3.0091	   53.2023	
   2.95075	0.00214491	   2.93003	0.00211453	   2.92622	0.00210385	   2.93567	 0.0021211	   2.93567	   53.0275	
   2.87673	0.00213807	   2.85665	0.00210704	   2.85264	0.00209705	   2.86201	0.00211405	   2.86201	   52.8514	
   2.80265	0.00213119	   2.78324	0.00209941	   2.77908	0.00209013	   2.78832	0.00210691	   2.78832	   52.6728	
   2.72855	0.00212418	   2.70984	0.00209167	   2.70533	0.00208312	   2.71457	0.00209966	   2.71457	   52.4914	
   2.65425	0.00211699	   2.63627	0.00208386	   2.63158	0.00207607	    2.6407	 0.0020923	    2.6407	   52.3076	
   2.57994	0.00210965	    2.5628	0.00207601	   2.55785	0.00206899	   2.56686	0.00208488	   2.56686	   52.1221	
   2.50553	0.00210227	   2.48904	0.00206812	   2.48397	0.00206185	   2.49284	0.00207741	   2.49284	   51.9353	
   2.43108	0.00209493	   2.41515	0.00206014	    2.4101	0.00205459	   2.41877	0.00206989	   2.41877	   51.7472	
   2.35653	0.00208761	   2.34128	0.00205205	   2.33628	 0.0020472	   2.34469	0.00206229	   2.34469	   51.5572	
   2.28182	0.00208021	   2.26727	0.00204386	   2.26233	 0.0020397	   2.27047	0.00205459	   2.27047	   51.3648	
   2.20721	0.00207266	   2.19327	0.00203559	    2.1884	0.00203216	   2.19629	 0.0020468	   2.19629	     51.17	
   2.13243	0.00206491	    2.1192	0.00202729	   2.11432	0.00202459	   2.12198	0.00203893	   2.12198	   50.9732	
   2.05763	0.00205704	   2.04502	0.00201894	   2.04025	0.00201698	   2.04763	0.00203099	   2.04763	   50.7747	
   1.98285	0.00204915	   1.97087	0.00201048	   1.96623	0.00200926	   1.97332	0.00202297	   1.97332	   50.5741	
   1.90793	0.00204128	   1.89669	0.00200185	   1.89207	0.00200139	    1.8989	0.00201484	    1.8989	    50.371	
   1.83303	0.00203338	   1.82251	0.00199305	   1.81784	0.00199336	   1.82446	0.00200659	   1.82446	   50.1649	
   1.75796	0.00202536	   1.74807	0.00198413	   1.74336	0.00198525	    1.7498	0.00199825	    1.7498	   49.9562	
   1.68291	0.00201716	   1.67364	0.00197522	   1.66892	0.00197713	   1.67515	0.00198984	   1.67515	   49.7459	
    1.6078	0.00200881	   1.59904	0.00196635	   1.59443	  0.001969	   1.60043	0.00198139	   1.60043	   49.5347	
   1.53258	0.00200039	   1.52434	0.00195747	   1.51985	0.00196078	   1.52559	0.00197288	   1.52559	    49.322	
   1.45751	0.00199194	   1.44958	0.00194848	   1.44533	0.00195239	    1.4508	0.00196427	    1.4508	   49.1068	
    1.3822	0.00198346	   1.37459	0.00193929	   1.37069	0.00194383	   1.37583	0.00195552	   1.37583	   48.8881	
   1.30692	0.00197485	   1.29966	 0.0019299	   1.29598	0.00193514	   1.30085	0.00194663	   1.30085	   48.6657	
    1.2315	0.00196605	    1.2246	 0.0019204	   1.22115	0.00192644	   1.22575	0.00193763	   1.22575	   48.4408	
     1.156	0.00195711	   1.14947	0.00191089	   1.14625	0.00191777	   1.15057	0.00192859	   1.15057	   48.2147	
   1.08058	0.00194808	   1.07421	0.00190142	   1.07142	0.00190906	    1.0754	0.00191952	    1.0754	    47.988	
   1.00506	0.00193904	  0.998769	0.00189192	   0.99639	0.00190022	   1.00007	0.00191039	   1.00007	   47.7598	
   0.92949	0.00193001	  0.923418	 0.0018823	  0.921429	0.00189117	  0.924779	0.00190116	  0.924779	   47.5289	
  0.854027	0.00192092	  0.848087	0.00187247	  0.846466	 0.0018819	  0.849527	0.00189176	  0.849527	   47.2941	
  0.778497	0.00191169	  0.772715	0.00186247	  0.771441	 0.0018725	  0.774218	0.00188222	  0.774218	   47.0555	
  0.703055	0.00190229	  0.697454	0.00185236	  0.696508	0.00186308	  0.699006	0.00187257	  0.699006	   46.8143	
  0.627738	0.00189274	  0.622127	0.00184223	  0.621384	0.00185367	   0.62375	0.00186288	   0.62375	    46.572	
  0.552471	0.00188314	  0.546887	0.00183211	  0.546336	0.00184422	  0.548565	0.00185316	  0.548565	   46.3289	
   0.47719	0.00187353	  0.471455	0.00182193	  0.471193	0.00183463	  0.473279	0.00184336	  0.473279	   46.0841	
  0.401832	 0.0018639	  0.395994	0.00181161	  0.396108	0.00182483	  0.397978	0.00183345	  0.397978	   45.8361	
  0.326554	0.00185418	  0.320553	0.00180109	  0.321224	0.00181485	  0.322777	0.00182337	  0.322777	   45.5843	
  0.251181	0.00184431	  0.244961	 0.0017904	  0.246145	0.00180474	  0.247429	0.00181315	  0.247429	   45.3288	
  0.175764	0.00183428	  0.169485	0.00177964	  0.171141	0.00179463	   0.17213	0.00180285	   0.17213	   45.0712	
  0.100248	0.00182414	 0.0939517	0.00176886	 0.0958286	0.00178455	 0.0966762	0.00179252	 0.0966762	   44.8129	
 0.0246837	0.00181394	 0.0184096	0.00175807	 0.0198549	0.00177443	 0.0209827	0.00178214	 0.0209827	   44.5536	
-0.0507741	0.00180371	-0.0569897	0.00174718	 -0.056047	0.00176417	-0.0546036	0.00177169	-0.0546036	   44.2922	
 -0.126408	0.00179345	 -0.132532	0.00173613	 -0.131838	0.00175371	  -0.13026	 0.0017611	  -0.13026	   44.0274	
 -0.202264	 0.0017831	 -0.207952	0.00172489	 -0.207379	0.00174307	 -0.205865	0.00175035	 -0.205865	   43.7588	
 -0.278384	 0.0017726	 -0.283531	0.00171352	 -0.282855	0.00173237	  -0.28159	0.00173949	  -0.28159	   43.4874	
 -0.354492	0.00176193	 -0.359106	0.00170209	 -0.358438	0.00172168	 -0.357345	0.00172856	 -0.357345	   43.2141	
 -0.430539	0.00175112	 -0.434634	0.00169064	 -0.433864	0.00171099	 -0.433012	0.00171758	 -0.433012	   42.9396	
 -0.506067	0.00174025	 -0.510179	0.00167914	 -0.508998	0.00170022	 -0.508415	0.00170654	 -0.508415	   42.6634	
 -0.581704	0.00172939	 -0.585593	0.00166751	 -0.584345	0.00168927	 -0.583881	0.00169539	 -0.583881	   42.3848	
 -0.657395	0.00171848	 -0.661049	0.00165572	   -0.6589	0.00167812	 -0.659114	0.00168411	 -0.659114	   42.1027	
 -0.733091	0.00170747	 -0.736395	0.00164378	 -0.734159	0.00166687	 -0.734549	0.00167271	 -0.734549	   41.8177	
 -0.808853	 0.0016963	 -0.811596	0.00163176	 -0.809392	 0.0016556	 -0.809947	0.00166122	 -0.809947	   41.5305	
  -0.88442	0.00168497	 -0.886833	 0.0016197	 -0.884241	0.00164435	 -0.885165	0.00164967	 -0.885165	   41.2418	
 -0.959763	0.00167352	 -0.961955	 0.0016076	 -0.959852	0.00163308	 -0.960523	0.00163807	 -0.960523	   40.9517	
  -1.03581	0.00166202	  -1.03703	 0.0015954	  -1.03465	0.00162166	  -1.03583	0.00162636	  -1.03583	    40.659	
   -1.1115	0.00165047	  -1.11214	0.00158305	  -1.10981	0.00161003	  -1.11115	0.00161452	  -1.11115	   40.3629	
  -1.18735	0.00163885	  -1.18711	0.00157053	  -1.18505	0.00159819	   -1.1865	0.00160252	   -1.1865	    40.063	
   -1.2633	0.00162713	  -1.26211	0.00155789	   -1.2598	0.00158621	  -1.26174	0.00159041	  -1.26174	   39.7602	
  -1.33887	0.00161526	  -1.33702	0.00154519	  -1.33511	0.00157418	    -1.337	0.00157821	    -1.337	   39.4553	
  -1.41459	0.00160323	   -1.4118	0.00153245	  -1.40983	0.00156216	  -1.41207	0.00156595	  -1.41207	   39.1487	
  -1.48997	 0.0015911	  -1.48662	0.00151962	  -1.48472	0.00155011	   -1.4871	0.00155361	   -1.4871	   38.8402	
  -1.56573	0.00157894	  -1.56123	0.00150667	  -1.55939	0.00153794	  -1.56212	0.00154118	  -1.56212	   38.5295	
   -1.6419	0.00156679	  -1.63583	0.00149357	  -1.63393	0.00152559	  -1.63722	0.00152865	  -1.63722	   38.2162	
  -1.71798	 0.0015546	  -1.71036	0.00148034	  -1.70873	0.00151308	  -1.71235	0.00151601	  -1.71235	   37.9002	
  -1.79404	0.00154226	  -1.78468	0.00146703	   -1.7833	0.00150045	  -1.78734	0.00150325	  -1.78734	   37.5811	
  -1.86939	0.00152971	   -1.8591	0.00145364	  -1.85795	0.00148777	  -1.86215	0.00149037	  -1.86215	   37.2593	
   -1.9446	0.00151697	  -1.93335	0.00144018	  -1.93241	0.00147507	  -1.93679	 0.0014774	  -1.93679	   36.9351	
  -2.01992	0.00150414	  -2.00762	0.00142661	  -2.00677	0.00146231	  -2.01143	0.00146435	  -2.01143	   36.6088	
  -2.09501	0.00149129	  -2.08186	0.00141292	  -2.08119	0.00144942	  -2.08602	0.00145121	  -2.08602	   36.2802	
  -2.16962	0.00147844	  -2.15593	0.00139912	  -2.15543	0.00143637	  -2.16033	0.00143798	  -2.16033	   35.9494	
  -2.24438	0.00146551	  -2.23003	0.00138521	  -2.22977	0.00142317	  -2.23473	0.00142463	  -2.23473	   35.6157	
  -2.31862	0.00145239	  -2.30409	0.00137122	  -2.30407	0.00140989	  -2.30893	0.00141117	  -2.30893	   35.2793	
  -2.39317	0.00143911	  -2.37788	0.00135716	  -2.37817	0.00139658	  -2.38307	0.00139762	  -2.38307	   34.9404	
  -2.46796	0.00142568	   -2.4517	0.00134302	  -2.45217	0.00138323	  -2.45728	0.00138398	  -2.45728	   34.5994	
   -2.5422	 0.0014122	   -2.5254	0.00132876	  -2.52603	0.00136979	  -2.53121	0.00137025	  -2.53121	   34.2563	
  -2.61685	 0.0013987	  -2.59907	0.00131441	  -2.60004	0.00135621	  -2.60532	0.00135644	  -2.60532	    33.911	
  -2.69087	0.00138515	  -2.67265	0.00129995	  -2.67394	0.00134247	  -2.67916	0.00134252	  -2.67916	   33.5631	
  -2.76482	0.00137146	  -2.74613	0.00128541	  -2.74759	0.00132862	  -2.75285	 0.0013285	  -2.75285	   33.2124	
  -2.83917	0.00135761	  -2.81959	0.00127078	  -2.82119	 0.0013147	  -2.82665	0.00131437	  -2.82665	   32.8591	
  -2.91292	0.00134362	  -2.89319	0.00125608	   -2.8946	0.00130074	  -2.90024	0.00130015	  -2.90024	   32.5037	
  -2.98691	0.00132955	  -2.96646	0.00124129	  -2.96801	0.00128673	  -2.97379	0.00128586	  -2.97379	   32.1464	
  -3.06056	0.00131543	  -3.03972	 0.0012264	  -3.04127	0.00127262	  -3.04718	0.00127148	  -3.04718	   31.7871	
  -3.13397	0.00130128	  -3.11271	0.00121142	  -3.11437	0.00125836	  -3.12035	0.00125702	  -3.12035	   31.4255	
  -3.20763	0.00128706	  -3.18584	 0.0011963	  -3.18737	0.00124398	  -3.19362	0.00124245	  -3.19362	   31.0611	
  -3.28084	0.00127272	  -3.25873	0.00118102	  -3.26026	0.00122948	  -3.26661	0.00122774	  -3.26661	   30.6936	
  -3.35414	0.00125825	  -3.33128	0.00116562	  -3.33301	0.00121492	  -3.33948	0.00121293	  -3.33948	   30.3232	
  -3.42708	0.00124363	   -3.4038	0.00115016	   -3.4056	 0.0012003	  -3.41216	0.00119803	  -3.41216	   29.9508	
  -3.50007	0.00122891	  -3.47616	 0.0011347	  -3.47801	0.00118561	  -3.48474	0.00118307	  -3.48474	   29.5768	
  -3.57296	0.00121411	  -3.54822	0.00111926	  -3.55021	 0.0011708	  -3.55713	0.00116805	  -3.55713	   29.2013	
  -3.64553	0.00119924	  -3.62019	0.00110373	   -3.6223	0.00115585	  -3.62934	0.00115294	  -3.62934	   28.8235	
  -3.71828	 0.0011843	  -3.69194	0.00108802	  -3.69415	0.00114079	  -3.70146	 0.0011377	  -3.70146	   28.4425	
  -3.79065	0.00116926	  -3.76366	0.00107209	  -3.76574	0.00112564	  -3.77335	0.00112233	  -3.77335	   28.0583	
  -3.86294	0.00115414	  -3.83533	0.00105602	  -3.83728	0.00111045	  -3.84518	0.00110687	  -3.84518	   27.6717	
  -3.93512	0.00113893	  -3.90682	0.00103991	  -3.90864	 0.0010952	  -3.91686	0.00109135	  -3.91686	   27.2837	
  -4.00708	0.00112363	  -3.97821	0.00102384	  -3.97979	0.00107988	  -3.98836	0.00107578	  -3.98836	   26.8946	
  -4.07879	0.00110822	  -4.04948	0.00100777	  -4.05084	0.00106445	   -4.0597	0.00106015	   -4.0597	   26.5037	
  -4.15024	 0.0010927	   -4.1204	0.000991604	  -4.12165	0.00104889	  -4.13076	 0.0010444	  -4.13076	   26.1099	
  -4.22154	0.00107708	  -4.19119	0.000975246	  -4.19243	0.00103321	  -4.20172	0.00102851	  -4.20172	   25.7128	
  -4.29265	0.00106136	  -4.26182	0.000958715	  -4.26315	0.00101744	  -4.27254	0.00101251	  -4.27254	   25.3126	
  -4.36347	0.00104556	  -4.33229	0.000942083	  -4.33348	 0.0010016	  -4.34308	0.000996416	  -4.34308	   24.9104	
  -4.43421	0.00102969	  -4.40278	0.000925418	  -4.40384	0.000985708	  -4.41361	0.000980273	  -4.41361	   24.5068	
  -4.50462	0.00101373	  -4.47306	0.000908741	  -4.47399	0.000969769	  -4.48389	0.000964081	  -4.48389	    24.102	
  -4.57492	0.000997674	  -4.54313	0.000892017	  -4.54393	0.000953767	  -4.55399	0.000947819	  -4.55399	   23.6955	
  -4.64509	0.00098152	  -4.61306	0.000875178	  -4.61374	0.000937677	  -4.62397	0.000931458	  -4.62397	   23.2865	
  -4.71502	0.000965271	  -4.68276	0.000858192	  -4.68332	0.000921485	   -4.6937	0.000914983	   -4.6937	   22.8746	
  -4.78479	0.000948939	   -4.7522	0.000841066	  -4.75275	0.000905186	  -4.76325	0.000898397	  -4.76325	   22.4599	
   -4.8544	0.000932548	   -4.8216	0.000823866	  -4.82203	0.000888791	  -4.83268	0.000881735	  -4.83268	   22.0434	
  -4.92384	0.000916091	  -4.89073	0.000806639	  -4.89115	0.000872323	  -4.90191	0.000865017	  -4.90191	   21.6254	
  -4.99331	0.000899538	  -4.95938	0.000789407	  -4.96009	0.000855801	  -4.97093	0.000848249	  -4.97093	   21.2062	
  -5.06257	0.000882887	  -5.02799	0.000772137	  -5.02897	0.000839229	  -5.03984	0.000831418	  -5.03984	   20.7854	
  -5.13162	0.000866133	  -5.09633	0.000754768	  -5.09754	0.000822589	   -5.1085	0.000814496	   -5.1085	   20.3624	
  -5.20053	0.00084929	  -5.16444	0.000737257	  -5.16599	0.00080586	  -5.17699	0.000797469	  -5.17699	   19.9367	
  -5.26922	0.000832388	   -5.2325	0.000719623	  -5.23424	0.000789038	  -5.24532	0.00078035	  -5.24532	   19.5087	
  -5.33757	0.00081543	  -5.30027	0.00070193	  -5.30218	0.000772136	  -5.31334	0.000763165	  -5.31334	   19.0791	
   -5.4058	0.000798368	  -5.36766	0.000684226	  -5.36971	0.000755165	  -5.38106	0.00074592	  -5.38106	    18.648	
  -5.47379	0.000781208	  -5.43489	0.000666517	  -5.43717	0.000738126	  -5.44862	0.000728617	  -5.44862	   18.2154	
  -5.54145	0.000763954	  -5.50185	0.000648748	  -5.50433	0.000721003	  -5.51588	0.000711235	  -5.51588	   17.7809	
  -5.60888	0.000746643	  -5.56845	0.000630854	   -5.5712	0.000703786	  -5.58284	0.000693761	  -5.58284	    17.344	
  -5.67609	0.000729296	  -5.63502	0.000612825	    -5.638	0.000686489	   -5.6497	0.000676203	   -5.6497	   16.9051	
  -5.74298	0.000711923	  -5.70133	0.00059471	  -5.70462	0.000669135	  -5.71631	0.000658589	  -5.71631	   16.4647	
  -5.80976	0.00069448	  -5.76728	0.000576581	  -5.77105	0.00065173	   -5.7827	0.00064093	   -5.7827	   16.0233	
  -5.87634	0.000676935	  -5.83311	0.000558473	  -5.83741	0.000634279	  -5.84895	0.000623229	  -5.84895	   15.5807	
  -5.94259	0.000659264	  -5.89872	0.00054035	  -5.90348	0.000616782	  -5.91493	0.000605465	  -5.91493	   15.1366	
  -6.00865	0.000641483	  -5.96399	0.000522128	  -5.96937	0.000599227	  -5.98067	0.000587612	  -5.98067	   14.6903	
  -6.07452	0.000623628	  -6.02916	0.00050375	  -6.03509	0.000581597	  -6.04626	0.000569659	  -6.04626	   14.2415	
  -6.13999	0.000605742	  -6.09413	0.000485245	  -6.10053	0.000563898	  -6.11155	0.000551628	  -6.11155	   13.7907	
  -6.20529	0.00058783	   -6.1588	0.000466674	  -6.16551	0.000546123	  -6.17653	0.000533542	  -6.17653	   13.3385	
  -6.27043	0.000569873	  -6.22307	0.000448123	  -6.23046	0.000528268	  -6.24132	0.000515421	  -6.24132	   12.8855	
   -6.3353	0.000551839	  -6.28719	0.000429612	  -6.29517	0.000510346	  -6.30589	0.000497265	  -6.30589	   12.4316	
  -6.39992	0.000533706	  -6.35095	0.00041108	  -6.35944	0.000492377	   -6.3701	0.000479055	   -6.3701	   11.9764	
  -6.46441	0.000515475	  -6.41469	0.000392445	  -6.42352	0.000474371	  -6.43421	0.000460764	  -6.43421	   11.5191	
  -6.52857	0.000497172	  -6.47831	0.000373663	   -6.4874	0.000456337	  -6.49809	0.000442391	  -6.49809	   11.0598	
   -6.5924	0.000478831	   -6.5416	0.000354762	  -6.55101	0.000438273	  -6.56167	0.000423956	  -6.56167	   10.5989	
  -6.65605	0.000460464	  -6.60469	0.00033583	  -6.61435	0.000420158	  -6.62503	0.000405484	  -6.62503	   10.1371	
  -6.71942	0.000442052	  -6.66769	0.000316941	  -6.67745	0.000401971	  -6.68819	0.000386988	  -6.68819	   9.67469	
  -6.78241	0.000423555	  -6.73041	0.000298085	  -6.74022	0.000383704	  -6.75101	0.000368448	  -6.75101	    9.2112	
  -6.84517	0.000404961	  -6.79266	0.00027919	  -6.80268	0.000365368	   -6.8135	0.00034984	   -6.8135	     8.746	
  -6.90772	0.000386289	  -6.85479	0.000260183	  -6.86507	  0.000347	  -6.87586	0.000331157	  -6.87586	   8.27893	
  -6.96986	0.000367578	  -6.91671	0.000241037	  -6.92719	0.000328627	  -6.93792	0.000312414	  -6.93792	   7.81035	
  -7.03173	0.000348851	  -6.97822	0.000221812	  -6.98885	0.000310243	   -6.9996	0.000293635	   -6.9996	   7.34088	
  -7.09345	 0.0003301	  -7.03936	0.000202612	   -7.0503	0.000291821	  -7.06104	0.000274844	  -7.06104	   6.87111	
  -7.15484	0.000311291	  -7.10038	0.000183466	  -7.11156	0.00027332	  -7.12226	0.000256025	  -7.12226	   6.40064	
  -7.21593	0.000292407	  -7.16108	0.000164328	  -7.17244	0.000254747	  -7.18315	0.000237161	  -7.18315	   5.92902	
  -7.27662	0.000273442	  -7.22128	0.000145115	  -7.23297	0.000236147	  -7.24363	0.000218235	  -7.24363	   5.45586	
  -7.33709	0.000254427	  -7.28125	0.000125778	   -7.2934	0.000217558	  -7.30391	0.000199254	  -7.30391	   4.98136	
  -7.39712	0.000235383	    -7.341	0.000106343	  -7.35354	0.000198969	  -7.36389	0.000180232	  -7.36389	   4.50579	
  -7.45689	0.000216313	  -7.40036	8.68937e-05	  -7.41331	0.000180352	  -7.42352	0.000161186	  -7.42352	   4.02966	
  -7.51651	0.000197217	  -7.45936	6.74947e-05	  -7.47275	0.000161665	  -7.48287	0.000142126	  -7.48287	   3.55314	
  -7.57581	0.00017808	  -7.51826	4.81403e-05	    -7.532	0.000142901	  -7.54202	0.00012304	  -7.54202	   3.07601	
  -7.63482	0.000158895	  -7.57688	2.87669e-05	  -7.59089	0.000124099	  -7.60086	0.00010392	  -7.60086	   2.59801	
  -7.69367	0.000139668	  -7.63503	9.30915e-06	  -7.64934	0.000105312	  -7.65935	8.47632e-05	  -7.65935	   2.11908	
   -7.7523	0.000120418	  -7.69276	-1.02442e-05	  -7.70751	8.65553e-05	  -7.71752	6.55764e-05	  -7.71752	   1.63941	
  -7.81052	0.000101153	  -7.75035	-2.98408e-05	  -7.76544	6.77964e-05	  -7.77544	4.63697e-05	  -7.77544	   1.15924	
  -7.86828	8.18812e-05	   -7.8076	-4.94087e-05	  -7.82295	4.8994e-05	  -7.83294	2.71555e-05	  -7.83294	  0.678888	
  -7.92583	6.25924e-05	  -7.86435	-6.89159e-05	   -7.8801	3.01273e-05	  -7.89009	7.93461e-06	  -7.89009	  0.198365	
   -7.9831	4.32785e-05	  -7.92088	-8.83951e-05	  -7.93703	1.12053e-05	    -7.947	-1.13038e-05	    -7.947	 -0.282595	
  -8.03993	2.39358e-05	  -7.97721	-0.00010791	  -7.99358	-7.71891e-06	  -8.00357	-3.05644e-05	  -8.00357	 -0.764111	
  -8.09647	4.5712e-06	  -8.03318	-0.000127502	  -8.04968	-2.66095e-05	  -8.05978	-4.98469e-05	  -8.05978	  -1.24617	
  -8.15288	-1.47991e-05	  -8.08872	-0.000147153	  -8.10561	-4.54752e-05	  -8.11574	-6.91424e-05	  -8.11574	  -1.72856	
  -8.20898	-3.41607e-05	  -8.14423	-0.000166795	  -8.16129	-6.43656e-05	   -8.1715	-8.84403e-05	   -8.1715	  -2.21101	
  -8.26459	-5.351e-05	   -8.1995	-0.000186371	  -8.21667	-8.33232e-05	  -8.22692	-0.000107735	  -8.22692	  -2.69337	
   -8.3199	-7.28574e-05	  -8.25438	-0.000205886	  -8.27159	-0.000102347	  -8.28196	-0.00012703	  -8.28196	  -3.17575	
  -8.37494	-9.22159e-05	  -8.30892	-0.000225391	  -8.32599	-0.000121388	  -8.33662	-0.000146332	  -8.33662	  -3.65829	
  -8.42967	-0.000111594	  -8.36307	-0.000244945	  -8.38028	-0.000140383	    -8.391	-0.000165641	    -8.391	  -4.14101	
  -8.48391	-0.000130986	    -8.417	-0.000264568	  -8.43426	-0.000159289	  -8.44506	-0.000184948	  -8.44506	  -4.62369	
  -8.53779	-0.000150378	  -8.47067	-0.000284224	   -8.4878	-0.000178131	  -8.49875	-0.000204244	  -8.49875	  -5.10611	
  -8.59142	-0.000169752	  -8.52379	-0.000303851	  -8.54094	-0.000196985	  -8.55205	-0.000223529	  -8.55205	  -5.58823	
  -8.64475	-0.000189104	  -8.57665	-0.000323414	  -8.59398	-0.000215922	  -8.60513	-0.000242813	  -8.60513	  -6.07034	
  -8.69763	-0.000208442	   -8.6292	-0.000342929	  -8.64673	-0.000234949	  -8.65785	-0.000262107	  -8.65785	  -6.55267	
  -8.75022	-0.000227773	   -8.6814	-0.000362442	  -8.69905	-0.000253994	  -8.71022	-0.000281403	  -8.71022	  -7.03507	
  -8.80237	-0.000247106	  -8.73309	-0.000381992	  -8.75089	-0.000272949	  -8.76212	-0.000300683	  -8.76212	  -7.51706	
  -8.85427	-0.000266438	  -8.78436	-0.000401578	  -8.80233	-0.000291783	  -8.81365	-0.000319933	  -8.81365	  -7.99833	
  -8.90575	-0.000285756	  -8.83537	-0.000421166	  -8.85345	-0.000310541	  -8.86486	-0.000339154	  -8.86486	  -8.47885	
  -8.95678	-0.000305044	  -8.88609	-0.000440707	   -8.9042	-0.000329346	  -8.91569	-0.000358366	  -8.91569	  -8.95914	
  -9.00733	-0.000324294	  -8.93637	-0.000460173	  -8.95454	-0.000348263	  -8.96608	-0.000377577	  -8.96608	  -9.43942	
  -9.05769	-0.000343513	  -8.98649	-0.000479586	  -9.00454	-0.000367247	  -9.01624	-0.000396782	  -9.01624	  -9.91956	
  -9.10771	-0.000362711	  -9.03599	-0.000498982	   -9.0544	-0.000386161	  -9.06603	-0.000415951	  -9.06603	  -10.3988	
  -9.15724	-0.000381896	  -9.08547	-0.000518391	  -9.10394	-0.000404909	  -9.11555	-0.000435065	  -9.11555	  -10.8766	
  -9.20638	-0.00040106	  -9.13437	-0.000537802	  -9.15313	-0.000423509	  -9.16462	-0.000454124	  -9.16462	  -11.3531	
  -9.25529	-0.000420192	  -9.18277	-0.000557177	  -9.20173	-0.000442087	  -9.21326	-0.000473152	  -9.21326	  -11.8288	
  -9.30395	-0.000439283	  -9.23096	-0.000576502	  -9.25005	-0.000460771	  -9.26166	-0.000492185	  -9.26166	  -12.3046	
  -9.35231	-0.000458332	  -9.27839	-0.000595755	  -9.29795	-0.000479579	  -9.30955	-0.000511222	  -9.30955	  -12.7805	
  -9.40013	-0.000477345	  -9.32591	-0.000614915	   -9.3455	-0.000498405	  -9.35718	-0.000530222	  -9.35718	  -13.2555	
  -9.44751	-0.000496335	  -9.37282	-0.000634003	  -9.39259	-0.000517103	   -9.4043	-0.000549147	   -9.4043	  -13.7287	
  -9.49473	-0.000515298	  -9.41943	-0.000653039	  -9.43918	-0.00053561	  -9.45111	-0.000567982	  -9.45111	  -14.1995	
  -9.54166	-0.000534228	  -9.46582	-0.000672051	  -9.48549	-0.000553995	  -9.49766	-0.000586758	  -9.49766	  -14.6689	
  -9.58817	-0.000553122	  -9.51153	-0.000691057	  -9.53138	-0.000572395	  -9.54369	-0.000605525	  -9.54369	  -15.1381	
  -9.63412	-0.000571978	    -9.557	-0.000710044	  -9.57694	-0.000590899	  -9.58935	-0.000624307	  -9.58935	  -15.6077	
  -9.67973	-0.000590795	  -9.60188	-0.000728968	  -9.62204	-0.000609477	  -9.63455	-0.00064308	  -9.63455	   -16.077	
  -9.72518	-0.000609569	  -9.64649	-0.000747804	  -9.66668	-0.000628009	  -9.67945	-0.000661794	  -9.67945	  -16.5449	
  -9.77034	-0.000628295	  -9.69091	-0.000766558	  -9.71094	-0.000646377	  -9.72407	-0.00068041	  -9.72407	  -17.0102	
  -9.81507	-0.000646969	   -9.7348	-0.000785261	  -9.75493	-0.000664529	  -9.76827	-0.00069892	  -9.76827	   -17.473	
  -9.85926	-0.000665594	  -9.77847	-0.000803952	  -9.79863	-0.000682559	  -9.81212	-0.000717368	  -9.81212	  -17.9342	
  -9.90302	-0.00068418	  -9.82148	-0.000822608	   -9.8419	-0.00070062	  -9.85546	-0.000735803	  -9.85546	  -18.3951	
  -9.94633	-0.00070273	  -9.86416	-0.00084119	  -9.88464	-0.000718789	  -9.89837	-0.000754236	  -9.89837	  -18.8559	
  -9.98931	-0.000721235	  -9.90659	-0.000859654	  -9.92706	-0.00073701	  -9.94099	-0.000772633	  -9.94099	  -19.3158	
  -10.0319	-0.000739674	  -9.94845	-0.000878005	  -9.96905	-0.000755145	  -9.98314	-0.000790941	  -9.98314	  -19.7735	
  -10.0741	-0.000758036	  -9.99018	-0.000896276	  -10.0106	-0.000773064	   -10.025	-0.000809126	   -10.025	  -20.2281	
  -10.1158	-0.000776334	  -10.0316	-0.00091452	  -10.0518	-0.000790764	  -10.0664	-0.000827206	  -10.0664	  -20.6801	
  -10.1569	-0.000794589	  -10.0727	-0.000932743	  -10.0926	-0.000808366	  -10.1074	-0.000845233	  -10.1074	  -21.1308	
  -10.1977	-0.000812818	  -10.1133	-0.000950914	  -10.1329	-0.000826012	  -10.1479	-0.000863248	  -10.1479	  -21.5812	
  -10.2381	-0.000831002	  -10.1536	-0.000969001	  -10.1726	-0.000843744	  -10.1881	-0.000881249	  -10.1881	  -22.0312	
  -10.2782	-0.000849112	  -10.1935	-0.000986985	   -10.212	-0.000861481	  -10.2279	-0.000899192	  -10.2279	  -22.4798	
  -10.3178	-0.00086714	  -10.2331	-0.00100488	  -10.2511	-0.000879094	  -10.2674	-0.000917039	  -10.2674	   -22.926	
  -10.3569	-0.000885098	  -10.2725	-0.00102273	  -10.2899	-0.000896512	  -10.3064	-0.000934781	  -10.3064	  -23.3695	
  -10.3954	-0.000902994	  -10.3114	-0.00104049	  -10.3283	-0.000913779	  -10.3451	-0.000952421	  -10.3451	  -23.8105	
  -10.4336	-0.000920842	  -10.3499	-0.00105811	  -10.3662	-0.000930996	  -10.3832	-0.000969981	  -10.3832	  -24.2495	
  -10.4715	-0.000938637	  -10.3878	-0.00107557	  -10.4035	-0.000948245	  -10.4209	-0.000987484	  -10.4209	  -24.6871	
  -10.5091	-0.000956352	  -10.4251	-0.00109292	  -10.4405	-0.000965525	  -10.4583	-0.00100493	  -10.4583	  -25.1234	
  -10.5464	-0.000973971	  -10.4621	-0.00111024	  -10.4773	-0.000982739	  -10.4953	-0.00102232	  -10.4953	  -25.5579	
  -10.5831	-0.000991503	  -10.4988	-0.00112757	  -10.5139	-0.000999802	  -10.5319	-0.00103963	  -10.5319	  -25.9907	
  -10.6194	-0.00100896	  -10.5352	-0.00114492	  -10.5501	-0.0010167	  -10.5682	-0.00105686	  -10.5682	  -26.4215	
  -10.6551	-0.00102636	  -10.5712	-0.00116218	  -10.5858	-0.0010335	   -10.604	-0.00107401	   -10.604	  -26.8503	
  -10.6904	-0.0010437	  -10.6067	-0.00117925	  -10.6211	-0.00105026	  -10.6394	-0.00109107	  -10.6394	  -27.2768	
  -10.7255	-0.00106097	  -10.6416	-0.00119611	  -10.6558	-0.00106704	  -10.6743	-0.00110804	  -10.6743	   -27.701	
  -10.7603	-0.00107814	  -10.6761	-0.00121283	  -10.6902	-0.0010838	  -10.7089	-0.00112492	  -10.7089	  -28.1231	
  -10.7948	-0.00109521	  -10.7101	-0.00122953	  -10.7243	-0.00110045	   -10.743	-0.00114173	   -10.743	  -28.5432	
  -10.8287	-0.00111219	  -10.7438	-0.00124626	  -10.7582	-0.00111694	  -10.7769	-0.00115846	  -10.7769	  -28.9615	
  -10.8621	-0.0011291	  -10.7771	-0.00126299	  -10.7918	-0.00113327	  -10.8103	-0.00117512	  -10.8103	  -29.3781	
  -10.8949	-0.00114596	  -10.8101	-0.00127963	  -10.8249	-0.0011495	  -10.8433	-0.0011917	  -10.8433	  -29.7924	
  -10.9272	-0.00116274	  -10.8427	-0.00129609	  -10.8576	-0.00116568	  -10.8758	-0.00120817	  -10.8758	  -30.2042	
  -10.9591	-0.00117941	  -10.8748	-0.00131234	  -10.8897	-0.00118182	  -10.9079	-0.00122453	  -10.9079	  -30.6131	
  -10.9907	-0.00119597	  -10.9063	-0.00132847	  -10.9212	-0.00119788	  -10.9394	-0.00124077	  -10.9394	  -31.0194	
  -11.0219	-0.00121243	  -10.9372	-0.00134457	  -10.9521	-0.00121381	  -10.9704	-0.00125694	  -10.9704	  -31.4234	
  -11.0525	-0.00122881	  -10.9674	-0.0013607	  -10.9828	-0.00122961	  -11.0009	-0.00127304	  -11.0009	   -31.826	
  -11.0828	-0.00124513	  -10.9969	-0.00137685	  -11.0132	-0.00124528	   -11.031	-0.00128909	   -11.031	  -32.2271	
  -11.1126	-0.00126136	  -11.0256	-0.0013929	  -11.0433	-0.00126087	  -11.0605	-0.00130504	  -11.0605	  -32.6261	
  -11.1419	-0.0012775	  -11.0539	-0.00140874	   -11.073	-0.0012764	  -11.0896	-0.00132088	  -11.0896	  -33.0221	
  -11.1706	-0.00129355	  -11.0821	-0.00142433	  -11.1023	-0.00129186	  -11.1183	-0.00133658	  -11.1183	  -33.4145	
  -11.1989	-0.00130952	  -11.1103	-0.00143971	  -11.1311	-0.00130723	  -11.1467	-0.00135215	  -11.1467	  -33.8038	
  -11.2269	-0.00132538	  -11.1387	 -0.001455	  -11.1593	-0.00132249	   -11.175	-0.00136763	   -11.175	  -34.1906	
  -11.2543	-0.00134111	  -11.1668	-0.00147033	   -11.187	-0.00133762	  -11.2027	-0.00138302	  -11.2027	  -34.5755	
  -11.2816	-0.00135668	  -11.1942	-0.00148568	  -11.2141	-0.00135264	    -11.23	-0.00139833	    -11.23	  -34.9583	
  -11.3084	-0.0013721	   -11.221	-0.00150094	  -11.2407	-0.00136758	  -11.2567	-0.00141354	  -11.2567	  -35.3385	
   -11.335	-0.00138746	  -11.2472	 -0.001516	  -11.2669	-0.00138243	   -11.283	-0.00142863	   -11.283	  -35.7158	
  -11.3612	-0.00140277	  -11.2727	-0.0015308	  -11.2926	-0.00139719	  -11.3088	-0.00144359	  -11.3088	  -36.0897	
  -11.3869	-0.00141803	  -11.2981	-0.0015454	   -11.318	-0.00141186	  -11.3343	-0.00145843	  -11.3343	  -36.4608	
  -11.4122	-0.00143319	  -11.3231	-0.00155992	  -11.3432	-0.00142644	  -11.3595	-0.00147318	  -11.3595	  -36.8296	
  -11.4369	-0.00144819	  -11.3478	-0.00157443	  -11.3681	-0.00144093	  -11.3843	-0.00148785	  -11.3843	  -37.1963	
   -11.461	-0.00146299	  -11.3722	-0.00158893	  -11.3926	-0.00145532	  -11.4086	-0.00150241	  -11.4086	  -37.5604	
  -11.4847	-0.00147765	  -11.3963	-0.00160331	  -11.4166	-0.0014696	  -11.4325	-0.00151685	  -11.4325	  -37.9213	
  -11.5077	-0.00149222	    -11.42	-0.00161747	  -11.4402	-0.00148375	   -11.456	-0.00153115	   -11.456	  -38.2787	
  -11.5303	-0.00150677	  -11.4432	-0.00163141	  -11.4633	-0.0014978	  -11.4789	-0.00154532	  -11.4789	  -38.6331	
  -11.5524	-0.00152128	  -11.4659	-0.00164516	  -11.4858	-0.00151176	  -11.5014	-0.0015594	  -11.5014	   -38.985	
  -11.5742	-0.00153572	  -11.4881	-0.00165884	  -11.5078	-0.00152564	  -11.5234	-0.0015734	  -11.5234	   -39.335	
  -11.5957	  -0.00155	  -11.5098	-0.0016725	  -11.5291	-0.00153942	  -11.5449	-0.00158731	  -11.5449	  -39.6827	
  -11.6168	-0.0015641	  -11.5309	-0.00168611	  -11.5498	-0.00155308	  -11.5658	-0.00160109	  -11.5658	  -40.0274	
  -11.6376	-0.00157804	  -11.5513	-0.00169959	    -11.57	-0.0015666	  -11.5863	-0.00161474	  -11.5863	  -40.3686	
   -11.658	-0.00159188	  -11.5711	-0.00171286	  -11.5895	-0.00158003	  -11.6062	-0.00162826	  -11.6062	  -40.7065	
   -11.678	-0.00160567	  -11.5903	-0.00172593	  -11.6086	-0.00159338	  -11.6257	-0.00164166	  -11.6257	  -41.0415	
  -11.6977	-0.00161941	  -11.6088	-0.00173887	  -11.6273	-0.00160665	  -11.6446	-0.00165498	  -11.6446	  -41.3744	
  -11.7169	-0.00163306	  -11.6267	-0.00175173	  -11.6457	-0.00161982	  -11.6631	-0.0016682	  -11.6631	  -41.7051	
  -11.7356	-0.00164654	  -11.6441	-0.00176456	  -11.6636	-0.00163286	  -11.6811	-0.00168132	  -11.6811	   -42.033	
  -11.7539	-0.00165986	   -11.661	-0.0017773	   -11.681	-0.00164577	  -11.6987	-0.00169431	  -11.6987	  -42.3577	
  -11.7717	-0.00167303	  -11.6778	-0.00178988	  -11.6981	-0.00165856	  -11.7159	-0.00170716	  -11.7159	  -42.6789	
   -11.789	-0.00168611	  -11.6942	-0.00180228	  -11.7148	-0.00167127	  -11.7327	-0.00171989	  -11.7327	  -42.9971	
  -11.8058	-0.00169913	  -11.7102	-0.00181451	  -11.7311	-0.00168389	   -11.749	-0.00173251	   -11.749	  -43.3128	
   -11.822	-0.00171208	  -11.7258	-0.00182663	   -11.747	-0.00169642	  -11.7649	-0.00174505	  -11.7649	  -43.6262	
  -11.8377	-0.00172491	  -11.7411	-0.0018387	  -11.7625	-0.00170883	  -11.7804	-0.00175748	  -11.7804	  -43.9371	
  -11.8529	-0.00173757	  -11.7561	-0.00185071	  -11.7777	-0.0017211	  -11.7955	-0.00176979	  -11.7955	  -44.2448	
  -11.8675	-0.00175006	  -11.7706	-0.0018626	  -11.7926	-0.00173323	  -11.8102	-0.00178196	  -11.8102	  -44.5491	
  -11.8815	-0.00176242	  -11.7845	-0.00187432	  -11.8071	-0.00174525	  -11.8244	 -0.001794	  -11.8244	  -44.8499	
  -11.8949	-0.00177468	  -11.7982	-0.00188588	  -11.8212	-0.00175717	  -11.8381	-0.00180591	  -11.8381	  -45.1478	
  -11.9078	-0.00178687	  -11.8114	-0.0018973	  -11.8349	-0.00176902	  -11.8514	-0.00181773	  -11.8514	  -45.4432	
  -11.9202	-0.00179897	  -11.8242	-0.00190863	  -11.8481	-0.00178077	  -11.8641	-0.00182945	  -11.8641	  -45.7364	
  -11.9319	-0.00181092	  -11.8366	-0.00191989	   -11.861	-0.0017924	  -11.8765	-0.00184107	  -11.8765	  -46.0268	
  -11.9432	-0.00182272	  -11.8488	-0.00193105	  -11.8734	-0.00180389	  -11.8884	-0.00185255	  -11.8884	  -46.3139	
  -11.9539	-0.00183437	  -11.8605	-0.00194206	  -11.8854	-0.00181525	  -11.8999	-0.00186389	  -11.8999	  -46.5974	
  -11.9642	-0.0018459	  -11.8719	-0.0019529	  -11.8969	-0.00182649	   -11.911	-0.0018751	   -11.911	  -46.8774	
  -11.9739	-0.00185734	  -11.8827	-0.00196358	  -11.9081	-0.00183763	  -11.9216	-0.00188618	  -11.9216	  -47.1546	
  -11.9832	-0.00186868	  -11.8933	-0.00197414	  -11.9188	-0.00184867	  -11.9317	-0.00189716	  -11.9317	  -47.4291	
   -11.992	-0.00187991	  -11.9035	-0.00198462	   -11.929	-0.00185961	  -11.9415	-0.00190804	  -11.9415	  -47.7011	
  -12.0002	 -0.001891	  -11.9133	-0.00199501	  -11.9388	-0.00187042	  -11.9508	-0.00191881	  -11.9508	  -47.9702	
   -12.008	-0.00190194	  -11.9228	-0.0020053	  -11.9482	-0.00188112	  -11.9597	-0.00192945	  -11.9597	  -48.2363	
  -12.0153	-0.00191274	  -11.9318	-0.00201544	  -11.9572	-0.00189172	  -11.9681	-0.00193996	  -11.9681	  -48.4991	
  -12.0221	-0.00192342	  -11.9403	-0.00202542	  -11.9656	-0.00190222	   -11.976	-0.00195035	   -11.976	  -48.7588	
  -12.0285	-0.00193403	  -11.9482	-0.00203526	  -11.9735	-0.00191258	  -11.9834	-0.00196062	  -11.9834	  -49.0156	
  -12.0345	-0.00194454	  -11.9554	-0.00204501	   -11.981	-0.00192277	  -11.9903	-0.00197077	  -11.9903	  -49.2693	
    -12.04	-0.0019549	   -11.962	-0.00205467	   -11.988	-0.00193281	  -11.9967	-0.0019808	  -11.9967	  -49.5199	
  -12.0452	-0.0019651	  -11.9681	-0.00206425	  -11.9946	-0.00194275	  -12.0026	-0.0019907	  -12.0026	  -49.7675	
  -12.0499	-0.00197512	  -11.9735	-0.00207371	  -12.0005	-0.00195261	   -12.008	-0.00200048	   -12.008	   -50.012	
  -12.0543	-0.00198502	  -11.9784	-0.00208303	  -12.0058	-0.00196242	  -12.0128	-0.00201016	  -12.0128	   -50.254	
  -12.0583	-0.00199486	  -11.9826	-0.00209221	  -12.0103	-0.00197216	  -12.0171	-0.00201974	  -12.0171	  -50.4936	
   -12.062	-0.00200465	  -11.9861	-0.00210127	  -12.0141	-0.00198178	  -12.0207	-0.00202924	  -12.0207	  -50.7309	
  -12.0653	-0.00201434	  -11.9889	-0.00211024	  -12.0168	-0.00199127	  -12.0237	-0.00203862	  -12.0237	  -50.9654	
  -12.0684	-0.00202387	  -11.9911	-0.00211912	  -12.0189	-0.00200059	  -12.0261	-0.00204786	  -12.0261	  -51.1966	
   -12.071	-0.00203324	  -11.9926	-0.00212789	   -12.021	-0.00200976	  -12.0282	-0.00205696	  -12.0282	   -51.424	
  -12.0734	-0.00204248	  -11.9936	-0.00213651	  -12.0229	-0.00201877	    -12.03	-0.00206592	    -12.03	   -51.648	
  -12.0752	-0.00205165	  -11.9941	 -0.002145	  -12.0246	-0.00202768	  -12.0313	-0.00207478	  -12.0313	  -51.8694	
  -12.0767	-0.00206078	  -11.9941	-0.00215337	  -12.0259	-0.0020365	  -12.0322	-0.00208355	  -12.0322	  -52.0887	
  -12.0775	-0.00206984	  -11.9936	-0.00216166	  -12.0265	-0.00204524	  -12.0325	-0.00209224	  -12.0325	  -52.3061	
  -12.0778	-0.00207873	  -11.9928	-0.00216985	  -12.0264	-0.00205391	  -12.0323	-0.00210083	  -12.0323	  -52.5208	
  -12.0775	-0.00208742	  -11.9915	-0.00217794	  -12.0255	-0.00206248	  -12.0315	-0.00210928	  -12.0315	   -52.732	
  -12.0765	-0.00209595	    -11.99	-0.00218585	   -12.024	-0.00207089	  -12.0302	-0.00211756	  -12.0302	   -52.939	
  -12.0749	-0.00210439	  -11.9881	-0.00219359	  -12.0221	-0.00207912	  -12.0284	-0.0021257	  -12.0284	  -53.1425	
  -12.0729	-0.00211281	  -11.9858	-0.00220124	  -12.0195	-0.00208721	   -12.026	-0.00213375	   -12.026	  -53.3438	
  -12.0703	-0.00212121	  -11.9824	-0.00220884	  -12.0165	-0.00209521	   -12.023	-0.00214175	   -12.023	  -53.5438	
  -12.0672	-0.00212952	  -11.9782	-0.00221642	  -12.0131	-0.00210314	  -12.0195	-0.00214969	  -12.0195	  -53.7423	
  -12.0637	-0.00213766	   -11.973	-0.00222395	  -12.0093	-0.00211101	  -12.0153	-0.00215754	  -12.0153	  -53.9385	
  -12.0598	-0.0021456	  -11.9681	-0.00223133	  -12.0047	-0.00211876	  -12.0109	-0.00216523	  -12.0109	  -54.1308	
  -12.0556	-0.00215339	  -11.9628	-0.00223851	  -11.9995	-0.00212634	   -12.006	-0.00217274	   -12.006	  -54.3186	
   -12.051	-0.00216108	  -11.9577	-0.00224548	  -11.9936	-0.00213375	  -12.0008	-0.0021801	  -12.0008	  -54.5026	
   -12.046	-0.00216874	  -11.9528	-0.00225232	  -11.9871	-0.00214105	  -11.9953	-0.00218737	  -11.9953	  -54.6842	
  -12.0403	-0.00217634	  -11.9472	-0.00225909	  -11.9802	-0.00214831	  -11.9892	-0.00219458	  -11.9892	  -54.8645	
  -12.0342	-0.00218383	  -11.9412	-0.00226587	  -11.9728	-0.00215555	  -11.9827	-0.00220175	  -11.9827	  -55.0437	
  -12.0276	-0.00219116	  -11.9345	-0.0022726	   -11.965	-0.00216271	  -11.9757	-0.00220882	  -11.9757	  -55.2206	
  -12.0203	-0.00219833	  -11.9272	-0.00227922	  -11.9569	-0.00216973	  -11.9681	-0.00221576	  -11.9681	   -55.394	
  -12.0124	-0.00220538	  -11.9196	-0.00228568	  -11.9482	-0.00217658	  -11.9601	-0.00222254	  -11.9601	  -55.5636	
  -12.0041	-0.00221236	  -11.9112	-0.00229195	  -11.9393	-0.00218323	  -11.9515	-0.00222918	  -11.9515	  -55.7295	
  -11.9954	-0.00221929	  -11.9026	-0.00229809	  -11.9298	-0.00218977	  -11.9426	-0.00223572	  -11.9426	  -55.8929	
  -11.9863	-0.00222614	  -11.8935	-0.00230417	    -11.92	-0.00219626	  -11.9333	-0.00224219	  -11.9333	  -56.0548	
  -11.9769	-0.00223287	  -11.8842	-0.00231019	  -11.9095	-0.00220275	  -11.9235	-0.0022486	  -11.9235	  -56.2151	
  -11.9672	-0.00223944	  -11.8743	-0.00231616	  -11.8984	-0.00220921	  -11.9133	-0.00225494	  -11.9133	  -56.3734	
  -11.9568	-0.00224588	   -11.864	-0.00232206	  -11.8869	-0.00221559	  -11.9026	-0.00226117	  -11.9026	  -56.5293	
  -11.9458	-0.00225222	  -11.8532	-0.00232784	   -11.875	-0.00222178	  -11.8913	-0.00226728	  -11.8913	   -56.682	
  -11.9342	-0.00225851	  -11.8421	-0.00233349	  -11.8627	-0.00222777	  -11.8797	-0.00227325	  -11.8797	  -56.8314	
   -11.922	-0.00226473	  -11.8306	-0.00233901	  -11.8502	-0.00223362	  -11.8676	-0.00227912	  -11.8676	  -56.9779	
  -11.9094	-0.00227085	  -11.8189	-0.00234442	  -11.8372	-0.00223941	  -11.8552	-0.00228489	  -11.8552	  -57.1223	
  -11.8965	-0.00227682	  -11.8065	-0.00234977	  -11.8239	-0.00224518	  -11.8423	-0.00229059	  -11.8423	  -57.2648	
  -11.8832	-0.00228266	  -11.7936	-0.00235506	  -11.8099	-0.00225093	  -11.8289	-0.00229622	  -11.8289	  -57.4055	
  -11.8695	-0.00228841	    -11.78	-0.00236027	  -11.7955	-0.00225658	   -11.815	-0.00230176	   -11.815	  -57.5439	
  -11.8554	-0.00229411	  -11.7659	-0.00236536	  -11.7806	-0.00226206	  -11.8007	-0.00230717	  -11.8007	  -57.6794	
  -11.8407	-0.00229974	  -11.7513	-0.0023703	  -11.7653	-0.00226736	  -11.7858	-0.00231247	  -11.7858	  -57.8117	
  -11.8255	-0.00230528	  -11.7364	-0.00237511	  -11.7497	-0.00227256	  -11.7705	-0.00231765	  -11.7705	  -57.9413	
  -11.8097	-0.0023107	   -11.721	-0.00237985	  -11.7339	-0.00227772	  -11.7549	-0.00232276	  -11.7549	  -58.0689	
  -11.7936	-0.00231597	   -11.705	-0.00238456	  -11.7177	-0.00228287	  -11.7388	-0.0023278	  -11.7388	   -58.195	
  -11.7771	-0.00232112	  -11.6886	-0.00238923	  -11.7008	-0.00228797	  -11.7222	-0.00233278	  -11.7222	  -58.3194	
    -11.76	-0.0023262	  -11.6716	-0.00239383	  -11.6834	-0.00229297	   -11.705	-0.00233767	   -11.705	  -58.4417	
  -11.7425	-0.0023312	  -11.6542	-0.00239832	  -11.6655	-0.00229782	  -11.6874	-0.00234245	  -11.6874	  -58.5611	
  -11.7243	-0.00233612	  -11.6363	-0.00240268	  -11.6472	-0.00230254	  -11.6692	-0.00234711	  -11.6692	  -58.6778	
  -11.7055	-0.00234093	  -11.6181	-0.00240693	  -11.6286	-0.00230717	  -11.6507	-0.00235168	  -11.6507	  -58.7919	
  -11.6863	-0.00234562	  -11.5997	-0.00241111	  -11.6097	-0.00231177	  -11.6319	-0.00235617	  -11.6319	  -58.9041	
  -11.6668	-0.00235019	  -11.5812	-0.00241523	  -11.5905	-0.00231634	  -11.6128	-0.00236059	  -11.6128	  -59.0147	
  -11.6468	-0.00235469	  -11.5621	-0.00241931	  -11.5706	-0.00232084	  -11.5932	-0.00236495	  -11.5932	  -59.1237	
  -11.6264	-0.00235913	  -11.5425	-0.00242333	  -11.5502	-0.00232523	   -11.573	-0.00236923	   -11.573	  -59.2308	
  -11.6052	-0.00236352	  -11.5221	-0.00242722	  -11.5294	-0.00232949	  -11.5523	-0.00237341	  -11.5523	  -59.3352	
  -11.5836	-0.00236784	   -11.501	-0.00243093	  -11.5083	-0.00233363	   -11.531	-0.00237747	   -11.531	  -59.4367	
  -11.5615	-0.00237205	  -11.4794	-0.00243449	  -11.4867	-0.00233769	  -11.5092	-0.00238141	  -11.5092	  -59.5353	
  -11.5391	-0.0023761	  -11.4576	-0.00243799	  -11.4647	-0.00234172	  -11.4871	-0.00238527	  -11.4871	  -59.6317	
  -11.5164	  -0.00238	   -11.435	-0.00244152	  -11.4421	-0.00234571	  -11.4645	-0.00238907	  -11.4645	  -59.7269	
  -11.4934	-0.00238381	  -11.4122	-0.0024451	   -11.419	-0.00234961	  -11.4415	-0.00239284	  -11.4415	   -59.821	
  -11.4699	-0.0023876	  -11.3885	-0.00244864	  -11.3955	-0.00235339	  -11.4179	-0.00239654	  -11.4179	  -59.9136	
  -11.4458	-0.00239137	  -11.3643	 -0.002452	  -11.3717	-0.00235705	  -11.3939	-0.00240014	  -11.3939	  -60.0035	
  -11.4213	-0.00239511	  -11.3402	-0.00245511	  -11.3475	-0.00236063	  -11.3697	-0.00240361	  -11.3697	  -60.0904	
  -11.3966	-0.00239874	  -11.3154	-0.00245804	  -11.3227	-0.00236415	  -11.3449	-0.00240698	  -11.3449	  -60.1744	
  -11.3712	-0.00240223	  -11.2904	-0.00246095	  -11.2974	-0.00236763	  -11.3197	-0.00241027	  -11.3197	  -60.2568	
  -11.3455	-0.0024056	   -11.265	-0.00246395	  -11.2716	-0.00237104	   -11.294	-0.00241353	   -11.294	  -60.3383	
  -11.3191	-0.00240888	  -11.2386	-0.00246699	  -11.2455	-0.00237436	  -11.2678	-0.00241674	  -11.2678	  -60.4186	
  -11.2924	-0.00241213	  -11.2121	-0.00246995	   -11.219	-0.00237756	  -11.2411	-0.00241988	  -11.2411	   -60.497	
  -11.2652	-0.00241536	   -11.185	-0.00247271	  -11.1919	-0.00238065	   -11.214	-0.00242291	   -11.214	  -60.5727	
  -11.2377	-0.00241854	  -11.1576	-0.00247525	  -11.1642	-0.00238366	  -11.1865	-0.00242582	  -11.1865	  -60.6455	
  -11.2097	-0.00242161	  -11.1298	-0.00247767	  -11.1361	-0.00238664	  -11.1585	-0.00242864	  -11.1585	   -60.716	
  -11.1811	-0.00242455	  -11.1014	-0.00248009	  -11.1076	-0.00238957	    -11.13	-0.0024314	    -11.13	  -60.7851	
  -11.1521	-0.00242737	  -11.0727	-0.00248258	  -11.0787	-0.00239244	  -11.1011	-0.00243413	  -11.1011	  -60.8532	
  -11.1228	-0.00243012	  -11.0434	-0.00248509	  -11.0491	-0.00239521	  -11.0718	-0.00243681	  -11.0718	  -60.9202	
  -11.0932	-0.00243284	  -11.0138	-0.00248752	   -11.019	-0.00239787	   -11.042	-0.00243941	   -11.042	  -60.9852	
  -11.0632	-0.00243554	  -10.9837	-0.00248976	  -10.9885	-0.00240043	  -11.0118	-0.00244191	  -11.0118	  -61.0477	
  -11.0327	-0.00243815	  -10.9533	-0.00249182	  -10.9578	-0.00240292	  -10.9813	-0.0024443	  -10.9813	  -61.1074	
  -11.0018	-0.00244064	  -10.9225	-0.0024938	  -10.9266	-0.00240536	  -10.9503	-0.0024466	  -10.9503	   -61.165	
  -10.9704	-0.00244301	  -10.8911	-0.00249579	  -10.8949	-0.00240775	  -10.9188	-0.00244885	  -10.9188	  -61.2213	
  -10.9386	-0.00244532	  -10.8592	-0.00249781	  -10.8628	-0.00241006	  -10.8869	-0.00245107	  -10.8869	  -61.2767	
  -10.9062	-0.0024476	  -10.8271	-0.00249981	  -10.8304	-0.00241229	  -10.8546	-0.00245323	  -10.8546	  -61.3308	
  -10.8735	-0.00244987	  -10.7945	-0.00250167	  -10.7976	-0.00241441	  -10.8219	-0.00245532	  -10.8219	   -61.383	
  -10.8404	-0.00245207	  -10.7614	-0.00250335	  -10.7646	-0.00241646	  -10.7888	-0.0024573	  -10.7888	  -61.4324	
  -10.8069	-0.00245414	  -10.7278	-0.00250489	   -10.731	-0.00241846	  -10.7552	-0.00245916	  -10.7552	   -61.479	
  -10.7729	-0.00245605	  -10.6938	-0.00250638	   -10.697	-0.00242041	  -10.7213	-0.00246095	  -10.7213	  -61.5237	
  -10.7385	-0.00245788	  -10.6595	-0.00250787	  -10.6628	-0.00242231	   -10.687	-0.00246269	   -10.687	  -61.5673	
  -10.7037	-0.0024597	  -10.6246	-0.00250937	  -10.6281	-0.00242414	  -10.6522	-0.00246441	  -10.6522	  -61.6101	
  -10.6684	-0.00246155	  -10.5893	-0.0025108	  -10.5928	-0.00242587	  -10.6168	-0.00246608	  -10.6168	  -61.6519	
  -10.6325	-0.00246339	  -10.5536	-0.00251207	  -10.5572	-0.00242752	  -10.5811	-0.00246766	  -10.5811	  -61.6915	
  -10.5961	-0.00246512	  -10.5174	-0.00251317	  -10.5211	-0.00242911	  -10.5449	-0.00246913	  -10.5449	  -61.7283	
  -10.5594	-0.00246668	   -10.481	-0.00251417	  -10.4846	-0.00243065	  -10.5083	-0.0024705	  -10.5083	  -61.7624	
  -10.5221	-0.00246809	   -10.444	-0.00251517	  -10.4477	-0.00243214	  -10.4713	-0.0024718	  -10.4713	   -61.795	
  -10.4844	-0.00246944	  -10.4066	-0.00251622	  -10.4104	-0.00243358	  -10.4338	-0.00247308	  -10.4338	   -61.827	
  -10.4462	-0.0024708	   -10.369	-0.00251726	  -10.3728	-0.00243495	   -10.396	-0.00247434	   -10.396	  -61.8585	
  -10.4077	-0.00247221	  -10.3308	-0.00251819	  -10.3347	-0.00243622	  -10.3578	-0.00247554	  -10.3578	  -61.8885	
  -10.3687	-0.00247357	  -10.2922	-0.00251891	  -10.2961	-0.00243742	   -10.319	-0.00247664	   -10.319	  -61.9159	
  -10.3291	-0.00247481	  -10.2531	-0.00251946	  -10.2571	-0.00243856	  -10.2798	-0.00247761	  -10.2798	  -61.9402	
  -10.2891	-0.00247587	  -10.2137	-0.00251991	  -10.2179	-0.00243967	  -10.2402	-0.00247848	  -10.2402	  -61.9621	
  -10.2487	-0.00247681	  -10.1738	-0.00252039	  -10.1782	-0.00244074	  -10.2002	-0.00247931	  -10.2002	  -61.9828	
  -10.2081	-0.00247769	  -10.1333	-0.00252093	  -10.1379	-0.00244176	  -10.1598	-0.00248013	  -10.1598	  -62.0031	
  -10.1669	-0.00247859	  -10.0926	-0.00252148	  -10.0973	-0.00244271	  -10.1189	-0.00248093	  -10.1189	  -62.0231	
  -10.1254	-0.0024795	  -10.0515	-0.00252193	  -10.0565	-0.00244358	  -10.0778	-0.00248167	  -10.0778	  -62.0417	
  -10.0836	-0.00248035	    -10.01	-0.00252221	  -10.0152	-0.00244438	  -10.0363	-0.00248231	  -10.0363	  -62.0578	
  -10.0413	-0.00248106	  -9.96798	-0.00252234	  -9.97357	-0.00244514	  -9.99429	-0.00248285	  -9.99429	  -62.0712	
  -9.99858	-0.00248161	   -9.9257	-0.00252242	  -9.93159	-0.00244586	  -9.95195	-0.0024833	  -9.95195	  -62.0825	
  -9.95552	-0.00248208	  -9.88322	-0.00252254	  -9.88946	-0.00244652	   -9.9094	-0.00248371	   -9.9094	  -62.0929	
  -9.91223	-0.00248256	  -9.84027	-0.00252271	  -9.84712	-0.00244711	  -9.86654	-0.00248412	  -9.86654	  -62.1031	
  -9.86846	-0.00248306	  -9.79692	-0.00252284	  -9.80441	-0.00244761	  -9.82326	-0.0024845	  -9.82326	  -62.1126	
  -9.82428	-0.00248354	  -9.75336	-0.00252279	   -9.7613	-0.00244807	  -9.77965	-0.0024848	  -9.77965	    -62.12	
  -9.77978	-0.00248391	  -9.70943	-0.00252254	  -9.71765	-0.00244849	  -9.73562	-0.00248498	  -9.73562	  -62.1245	
  -9.73492	-0.00248413	    -9.665	-0.00252215	  -9.67324	-0.00244886	  -9.69105	-0.00248505	  -9.69105	  -62.1262	
  -9.68956	-0.00248424	  -9.62026	-0.00252175	  -9.62858	-0.00244916	  -9.64613	-0.00248505	  -9.64613	  -62.1262	
   -9.6439	-0.00248431	  -9.57517	-0.00252143	  -9.58353	-0.0024494	  -9.60087	-0.00248505	  -9.60087	  -62.1262	
  -9.59801	-0.0024844	   -9.5295	-0.00252118	  -9.53807	-0.00244956	  -9.55519	-0.00248504	  -9.55519	   -62.126	
  -9.55175	-0.00248448	  -9.48344	-0.00252085	  -9.49239	-0.00244966	  -9.50919	-0.00248499	  -9.50919	  -62.1249	
  -9.50509	-0.00248449	  -9.43708	-0.00252034	  -9.44571	-0.00244973	  -9.46263	-0.00248485	  -9.46263	  -62.1213	
  -9.45824	-0.00248439	  -9.39028	-0.00251963	    -9.399	-0.00244975	  -9.41584	-0.00248459	  -9.41584	  -62.1147	
  -9.41093	-0.00248418	  -9.34303	-0.00251881	  -9.35212	-0.0024497	  -9.36869	-0.00248423	  -9.36869	  -62.1058	
  -9.36315	-0.00248391	  -9.29552	-0.00251801	  -9.30449	-0.00244958	  -9.32106	-0.00248383	  -9.32106	  -62.0958	
  -9.31501	-0.00248362	  -9.24773	-0.00251726	  -9.25707	-0.00244938	  -9.27327	-0.00248342	  -9.27327	  -62.0856	
  -9.26658	-0.00248335	  -9.19962	-0.00251651	  -9.20907	-0.00244912	  -9.22509	-0.00248299	  -9.22509	  -62.0748	
  -9.21764	-0.00248304	  -9.15118	-0.00251566	  -9.16058	-0.00244881	  -9.17646	-0.0024825	  -9.17646	  -62.0625	
  -9.16838	-0.00248262	  -9.10238	-0.00251461	  -9.11201	-0.00244846	  -9.12759	-0.0024819	  -9.12759	  -62.0474	
    -9.119	-0.00248207	   -9.0531	-0.00251341	   -9.0627	-0.00244805	  -9.07827	-0.00248117	  -9.07827	  -62.0293	
  -9.06916	-0.00248142	  -9.00344	-0.00251214	   -9.0133	-0.00244757	  -9.02863	-0.00248037	  -9.02863	  -62.0094	
  -9.01894	-0.00248072	   -8.9536	-0.00251093	  -8.96323	 -0.002447	  -8.97859	-0.00247955	  -8.97859	  -61.9888	
  -8.96845	-0.00248005	  -8.90324	-0.00250982	  -8.91284	-0.00244637	  -8.92818	-0.00247875	  -8.92818	  -61.9686	
  -8.91748	-0.00247937	  -8.85247	-0.00250875	  -8.86225	-0.00244567	   -8.8774	-0.00247793	   -8.8774	  -61.9482	
  -8.86612	-0.00247864	  -8.80149	-0.00250756	  -8.81098	-0.00244493	   -8.8262	-0.00247704	   -8.8262	   -61.926	
  -8.81457	-0.00247779	  -8.75049	-0.00250613	  -8.75957	-0.00244414	  -8.77488	-0.00247602	  -8.77488	  -61.9006	
   -8.7627	-0.00247683	  -8.69933	-0.00250451	  -8.70779	-0.00244331	  -8.72327	-0.00247488	  -8.72327	  -61.8721	
   -8.7105	-0.0024758	  -8.64788	-0.00250283	  -8.65573	-0.00244241	  -8.67137	-0.00247368	  -8.67137	   -61.842	
  -8.65808	-0.00247476	  -8.59559	-0.00250125	  -8.60338	-0.00244142	  -8.61902	-0.00247248	  -8.61902	  -61.8119	
  -8.60519	-0.00247372	  -8.54314	-0.0024998	  -8.55053	-0.00244034	  -8.56629	-0.00247129	  -8.56629	  -61.7822	
  -8.55187	-0.00247265	  -8.49018	-0.00249835	  -8.49739	-0.0024392	  -8.51315	-0.00247007	  -8.51315	  -61.7517	
   -8.4983	-0.0024715	  -8.43705	-0.00249674	  -8.44395	-0.00243801	  -8.45977	-0.00246875	  -8.45977	  -61.7187	
  -8.44439	-0.00247022	  -8.38372	-0.00249492	  -8.39021	-0.00243677	  -8.40611	-0.0024673	  -8.40611	  -61.6826	
  -8.39013	-0.00246886	  -8.32923	-0.00249297	  -8.33616	-0.00243545	  -8.35184	-0.00246576	  -8.35184	   -61.644	
  -8.33552	-0.00246747	  -8.27471	-0.00249103	   -8.2818	-0.00243407	  -8.29734	-0.00246419	  -8.29734	  -61.6047	
  -8.28067	-0.00246606	   -8.2196	-0.0024892	  -8.22703	-0.00243262	  -8.24243	-0.00246263	  -8.24243	  -61.5657	
  -8.22536	-0.00246463	  -8.16425	-0.00248739	  -8.17195	-0.00243112	  -8.18719	-0.00246105	  -8.18719	  -61.5262	
  -8.16972	-0.00246314	  -8.10927	-0.00248547	  -8.11647	-0.00242958	  -8.13182	-0.0024594	  -8.13182	  -61.4849	
  -8.11363	-0.00246154	  -8.05326	-0.00248338	  -8.06048	-0.00242799	  -8.07579	-0.00245764	  -8.07579	  -61.4409	
  -8.05713	-0.00245984	   -7.9972	-0.00248113	  -8.00422	-0.00242639	  -8.01952	-0.00245579	  -8.01952	  -61.3946	
  -8.00043	-0.00245808	  -7.94089	-0.00247883	  -7.94769	-0.00242475	    -7.963	-0.00245389	    -7.963	  -61.3472	
  -7.94331	-0.00245629	    -7.884	-0.00247656	  -7.89078	-0.00242307	  -7.90603	-0.00245197	  -7.90603	  -61.2994	
   -7.8858	-0.00245448	  -7.82741	-0.00247434	  -7.83361	-0.00242122	  -7.84894	-0.00245001	  -7.84894	  -61.2503	
  -7.82811	-0.00245261	  -7.77012	-0.00247208	  -7.77609	-0.00241918	  -7.79144	-0.00244796	  -7.79144	  -61.1989	
  -7.77005	-0.00245064	  -7.71259	-0.0024697	  -7.71811	-0.00241699	  -7.73358	-0.00244577	  -7.73358	  -61.1444	
  -7.71172	-0.00244855	  -7.65462	-0.00246716	  -7.65992	-0.00241479	  -7.67542	-0.0024435	  -7.67542	  -61.0874	
  -7.65314	-0.00244637	  -7.59623	-0.00246449	   -7.6015	-0.0024127	  -7.61696	-0.00244119	  -7.61696	  -61.0297	
   -7.5942	-0.00244417	  -7.53796	-0.00246178	  -7.54277	-0.00241074	  -7.55831	-0.0024389	  -7.55831	  -60.9725	
  -7.53494	-0.00244195	  -7.47916	-0.00245909	  -7.48385	-0.00240882	  -7.49932	-0.00243662	  -7.49932	  -60.9155	
  -7.47547	-0.0024397	  -7.42018	-0.00245642	  -7.42473	-0.00240678	  -7.44012	-0.0024343	  -7.44012	  -60.8574	
   -7.4156	-0.00243737	  -7.36068	-0.00245375	  -7.36521	-0.00240451	   -7.3805	-0.00243188	   -7.3805	   -60.797	
  -7.35545	-0.00243494	  -7.30092	-0.00245102	  -7.30553	-0.00240206	  -7.32063	-0.00242934	  -7.32063	  -60.7335	
  -7.29502	-0.00243241	  -7.24114	-0.00244818	  -7.24558	-0.00239956	  -7.26058	-0.00242672	  -7.26058	  -60.6679	
  -7.23434	-0.00242983	  -7.18111	-0.00244523	  -7.18527	-0.0023971	  -7.20024	-0.00242405	  -7.20024	  -60.6013	
  -7.17342	-0.00242719	  -7.12084	-0.0024422	  -7.12484	-0.00239471	   -7.1397	-0.00242137	   -7.1397	  -60.5342	
  -7.11217	-0.0024245	  -7.06013	-0.00243914	  -7.06407	-0.00239229	  -7.07879	-0.00241864	  -7.07879	   -60.466	
  -7.05061	-0.00242174	  -6.99913	-0.00243603	  -7.00299	-0.00238973	  -7.01758	-0.00241583	  -7.01758	  -60.3958	
  -6.98887	-0.0024189	  -6.93806	-0.00243286	  -6.94173	 -0.002387	  -6.95622	-0.00241292	  -6.95622	   -60.323	
  -6.92696	-0.00241598	   -6.8765	-0.00242963	  -6.88019	-0.00238416	  -6.89455	-0.00240992	  -6.89455	  -60.2481	
  -6.86469	 -0.002413	   -6.8147	-0.00242635	  -6.81839	-0.0023813	  -6.83259	-0.00240688	  -6.83259	  -60.1721	
  -6.80229	-0.00240998	  -6.75257	-0.00242304	  -6.75635	-0.00237849	   -6.7704	-0.00240383	   -6.7704	  -60.0958	
  -6.73957	-0.00240692	  -6.69025	-0.00241968	  -6.69387	-0.00237569	   -6.7079	-0.00240076	   -6.7079	  -60.0191	
  -6.67655	-0.00240382	  -6.62774	-0.00241623	  -6.63111	-0.00237283	  -6.64513	-0.00239763	  -6.64513	  -59.9406	
  -6.61336	-0.00240066	  -6.56507	-0.00241268	  -6.56808	-0.00236981	  -6.58217	-0.00239438	  -6.58217	  -59.8596	
  -6.54992	-0.00239741	  -6.50203	-0.00240903	  -6.50471	-0.00236664	  -6.51889	-0.00239103	  -6.51889	  -59.7757	
  -6.48624	-0.00239408	  -6.43888	-0.00240536	  -6.44122	-0.00236338	  -6.45545	-0.0023876	  -6.45545	  -59.6901	
  -6.42214	-0.00239067	   -6.3753	-0.00240165	  -6.37744	-0.00236012	  -6.39163	-0.00238415	  -6.39163	  -59.6037	
  -6.35767	-0.00238722	  -6.31144	-0.0023979	  -6.31337	-0.00235691	  -6.32749	-0.00238068	  -6.32749	  -59.5169	
  -6.29306	-0.00238372	  -6.24743	-0.00239408	  -6.24906	-0.00235368	  -6.26318	-0.00237716	  -6.26318	   -59.429	
  -6.22824	-0.00238017	  -6.18308	-0.00239015	  -6.18443	-0.00235036	  -6.19858	-0.00237356	  -6.19858	   -59.339	
  -6.16312	-0.00237655	  -6.11853	-0.00238612	  -6.11961	-0.00234688	  -6.13375	-0.00236985	  -6.13375	  -59.2462	
  -6.09795	-0.00237284	   -6.0537	-0.00238204	  -6.05452	-0.00234326	  -6.06872	-0.00236605	  -6.06872	  -59.1512	
  -6.03242	-0.00236906	  -5.98851	-0.00237797	  -5.98909	-0.00233958	  -6.00334	-0.0023622	  -6.00334	   -59.055	
  -5.96669	-0.00236522	  -5.92322	-0.00237387	  -5.92357	-0.0023359	  -5.93783	-0.00235833	  -5.93783	  -58.9582	
  -5.90056	-0.00236132	  -5.85752	-0.0023697	  -5.85766	-0.00233224	  -5.87191	-0.00235442	  -5.87191	  -58.8605	
  -5.83408	-0.00235737	  -5.79157	-0.00236541	   -5.7915	-0.00232853	  -5.80572	-0.00235044	  -5.80572	  -58.7609	
   -5.7674	-0.00235337	   -5.7255	-0.00236096	  -5.72524	-0.0023247	  -5.73938	-0.00234634	  -5.73938	  -58.6585	
  -5.70055	-0.00234929	  -5.65902	-0.00235637	  -5.65858	-0.00232072	  -5.67272	-0.00234213	  -5.67272	  -58.5531	
  -5.63346	-0.00234514	  -5.59238	-0.00235173	  -5.59178	-0.0023166	  -5.60587	-0.00233782	  -5.60587	  -58.4456	
  -5.56626	-0.00234092	  -5.52552	-0.00234709	  -5.52476	-0.00231243	  -5.53885	-0.00233348	  -5.53885	   -58.337	
  -5.49876	-0.00233663	  -5.45845	-0.00234245	  -5.45745	-0.00230826	  -5.47156	-0.00232911	  -5.47156	  -58.2278	
  -5.43113	-0.00233228	  -5.39133	-0.00233775	   -5.3901	-0.00230408	  -5.40419	-0.0023247	  -5.40419	  -58.1176	
  -5.36338	-0.00232788	  -5.32395	-0.00233293	  -5.32252	-0.00229984	  -5.33662	-0.00232022	  -5.33662	  -58.0054	
  -5.29543	-0.00232344	  -5.25637	-0.00232795	  -5.25474	-0.00229547	  -5.26885	-0.00231562	  -5.26885	  -57.8905	
  -5.22744	-0.00231898	   -5.1886	-0.00232284	   -5.1868	-0.00229097	  -5.20095	-0.00231093	  -5.20095	  -57.7733	
   -5.1592	-0.00231445	  -5.12059	-0.00231769	  -5.11852	-0.00228638	  -5.13277	-0.00230617	  -5.13277	  -57.6543	
  -5.09076	-0.00230982	  -5.05246	-0.00231253	  -5.05016	-0.00228173	  -5.06446	-0.00230136	  -5.06446	   -57.534	
  -5.02204	-0.00230507	  -4.98405	-0.00230734	  -4.98174	-0.00227704	  -4.99594	-0.00229648	  -4.99594	  -57.4121	
   -4.9531	-0.00230023	  -4.91549	-0.00230208	  -4.91308	-0.00227228	  -4.92723	-0.00229153	  -4.92723	  -57.2882	
  -4.88408	-0.00229535	  -4.84693	-0.00229669	  -4.84444	-0.00226742	  -4.85848	-0.00228648	  -4.85848	  -57.1621	
   -4.8149	-0.00229047	  -4.77807	-0.00229117	  -4.77571	-0.00226246	  -4.78956	-0.00228136	  -4.78956	  -57.0341	
   -4.7455	-0.00228555	  -4.70907	-0.00228557	  -4.70684	-0.00225742	  -4.72047	-0.00227618	  -4.72047	  -56.9045	
  -4.67602	-0.00228054	  -4.63996	-0.00227993	  -4.63774	-0.00225235	  -4.65124	-0.00227094	  -4.65124	  -56.7735	
  -4.60617	-0.00227542	  -4.57056	-0.00227429	  -4.56835	-0.00224723	  -4.58169	-0.00226565	  -4.58169	  -56.6411	
  -4.53622	-0.00227018	  -4.50102	-0.00226859	  -4.49883	-0.00224205	  -4.51202	-0.00226027	  -4.51202	  -56.5068	
  -4.46621	-0.00226487	  -4.43116	-0.00226278	   -4.4291	-0.00223675	  -4.44216	-0.0022548	  -4.44216	    -56.37	
  -4.39606	-0.00225953	  -4.36105	-0.00225685	   -4.3592	-0.00223134	   -4.3721	-0.00224924	   -4.3721	   -56.231	
   -4.3257	-0.00225415	  -4.29071	-0.0022508	  -4.28918	-0.00222585	  -4.30186	-0.0022436	  -4.30186	    -56.09	
  -4.25506	-0.00224871	   -4.2201	-0.00224469	  -4.21886	-0.00222031	  -4.23134	-0.0022379	  -4.23134	  -55.9476	
  -4.18431	-0.00224317	  -4.14947	-0.00223856	  -4.14839	-0.00221474	  -4.16073	-0.00223216	  -4.16073	   -55.804	
  -4.11338	-0.00223751	  -4.07855	-0.0022324	  -4.07761	-0.00220913	  -4.08984	-0.00222635	  -4.08984	  -55.6587	
  -4.04221	-0.00223176	  -4.00748	-0.00222616	  -4.00667	-0.00220342	  -4.01878	-0.00222045	  -4.01878	  -55.5111	
  -3.97094	-0.00222594	  -3.93641	-0.00221976	  -3.93562	-0.0021976	  -3.94766	-0.00221444	  -3.94766	  -55.3609	
  -3.89942	-0.00222009	  -3.86506	-0.00221322	  -3.86428	-0.00219167	  -3.87625	-0.00220832	  -3.87625	  -55.2081	
  -3.82779	-0.00221419	  -3.79369	-0.00220657	  -3.79281	-0.00218565	  -3.80476	-0.00220214	  -3.80476	  -55.0534	
  -3.75605	-0.00220822	  -3.72228	-0.00219988	  -3.72119	-0.00217958	  -3.73317	-0.00219589	  -3.73317	  -54.8973	
  -3.68408	-0.00220215	  -3.65072	-0.00219318	  -3.64942	-0.00217347	   -3.6614	-0.0021896	   -3.6614	    -54.74	
  -3.61192	 -0.002196	  -3.57913	-0.00218642	  -3.57765	-0.00216731	  -3.58957	-0.00218324	  -3.58957	   -54.581	
  -3.53962	-0.00218978	  -3.50746	-0.00217952	   -3.5056	-0.00216105	  -3.51756	-0.00217678	  -3.51756	  -54.4196	
  -3.46723	-0.00218351	  -3.43573	-0.00217248	  -3.43352	-0.00215468	  -3.44549	-0.00217023	  -3.44549	  -54.2556	
  -3.39458	-0.00217718	  -3.36377	-0.00216534	  -3.36136	-0.00214821	  -3.37324	-0.00216358	  -3.37324	  -54.0895	
  -3.32172	-0.00217073	  -3.29164	-0.00215818	  -3.28915	-0.00214168	  -3.30084	-0.00215686	  -3.30084	  -53.9216	
  -3.24893	-0.00216413	  -3.21949	-0.00215101	  -3.21682	-0.00213509	  -3.22841	-0.00215008	  -3.22841	  -53.7519	
   -3.1758	-0.00215742	  -3.14704	-0.00214378	  -3.14431	-0.00212845	  -3.15572	-0.00214322	  -3.15572	  -53.5805	
  -3.10261	-0.00215069	  -3.07455	-0.00213643	  -3.07178	-0.00212173	  -3.08298	-0.00213628	  -3.08298	  -53.4071	
  -3.02919	-0.00214398	  -3.00174	-0.00212893	  -2.99893	-0.0021149	  -3.00996	-0.00212927	  -3.00996	  -53.2318	
   -2.9556	-0.00213728	  -2.92879	-0.00212132	  -2.92606	-0.00210796	  -2.93681	-0.00212219	  -2.93681	  -53.0547	
  -2.88188	-0.0021305	  -2.85584	-0.00211364	  -2.85308	-0.00210094	   -2.8636	-0.00211503	   -2.8636	  -52.8757	
  -2.80798	-0.00212358	  -2.78261	-0.00210593	  -2.77983	-0.00209388	  -2.79014	-0.0021078	  -2.79014	  -52.6949	
  -2.73396	-0.00211647	  -2.70938	-0.00209817	  -2.70647	-0.00208681	   -2.7166	-0.00210048	   -2.7166	  -52.5121	
  -2.65986	-0.00210922	  -2.63608	-0.00209032	  -2.63295	-0.00207969	  -2.64296	-0.00209308	  -2.64296	  -52.3269	
  -2.58563	-0.00210193	  -2.56263	-0.00208236	  -2.55932	-0.00207246	  -2.56919	-0.00208559	  -2.56919	  -52.1396	
  -2.51131	-0.00209463	  -2.48931	-0.0020743	  -2.48583	-0.00206509	  -2.49549	-0.00207801	  -2.49549	  -51.9502	
  -2.43685	-0.00208733	  -2.41572	-0.00206615	  -2.41209	-0.00205757	  -2.42155	-0.00207035	  -2.42155	  -51.7587	
   -2.3623	-0.00207997	  -2.34213	-0.00205792	  -2.33827	-0.00204997	  -2.34756	-0.00206262	  -2.34756	  -51.5654	
  -2.28759	-0.00207248	  -2.26836	-0.00204962	   -2.2644	-0.00204235	  -2.27345	-0.00205482	  -2.27345	  -51.3705	
   -2.2128	-0.00206486	  -2.19446	-0.00204126	  -2.19043	-0.00203475	  -2.19923	-0.00204696	  -2.19923	  -51.1739	
  -2.13785	-0.00205714	   -2.1205	-0.00203281	   -2.1164	-0.0020271	  -2.12491	-0.00203902	  -2.12491	  -50.9754	
  -2.06281	-0.00204936	  -2.04629	-0.00202425	  -2.04214	-0.00201935	  -2.05041	-0.00203099	  -2.05041	  -50.7747	
  -1.98782	-0.0020414	  -1.97201	-0.0020156	  -1.96782	-0.00201144	  -1.97588	-0.00202281	  -1.97588	  -50.5703	
  -1.91262	-0.00203328	  -1.89748	-0.00200683	  -1.89317	-0.00200339	  -1.90109	-0.0020145	  -1.90109	  -50.3625	
  -1.83736	-0.0020251	  -1.82289	-0.00199797	  -1.81847	-0.00199532	  -1.82624	-0.00200613	  -1.82624	  -50.1532	
