# User: ACHyster
# File name: C:/ACHYSTER/ACHyster SENS/SHAMS/CoFe2O4-1gl-water-15 Glycerol- Sens-07-03-2023/CoFe2O4-1gl-water-15 Glycerol- 10_100F- 12kAm -Sens-07-03-20230003#1.txt
# Saved at: ma. mar. 7 15:02:35 2023
# Hyster Loop (3 iterations). Intensity: 12.0 kA/m; Tuned frequency: 41.9 kHz
# Units x axis: (kA/m)
# Units y axis: "Repeats y" & "Average y" (10^(-3)Am^2); "Mass avg y" (Am^2/kg)
# Magnetic mass: 4e-05 g
# Parameter      	Repeat   1	Repeat   2	Repeat   3	Average   	Sigma     
# H_C (kA/m)     	       9.9	       9.9	       9.9	       9.9	       0.0
# M_R (Am^2/kg)  	      40.8	      41.2	      41.4	      41.1	       0.2
# M_max (Am^2/kg)	      29.2	      29.6	      29.7	      29.5	       0.2
# Area (mJ/kg)   	    1926.1	    1936.9	    1941.1	    1934.7	       6.3
# SAR (W/g)      	      80.8	      81.2	      81.4	      81.1	       0.3
#Repeat 1 x	Repeat 1 y	Repeat 2 x	Repeat 2 y	Repeat 3 x	Repeat 3 y	Average x 	Average y 	Mass avg x 	Mass avg y 
  -1.75444	-0.00175792	  -1.74308	-0.00177024	  -1.74305	-0.0017778	  -1.74686	-0.00176866	  -1.74686	  -44.2164	
  -1.67942	-0.0017532	  -1.66838	-0.00176552	  -1.66791	-0.00177309	   -1.6719	-0.00176394	   -1.6719	  -44.0985	
  -1.60438	-0.00174841	  -1.59367	-0.00176077	  -1.59288	-0.00176832	  -1.59698	-0.00175917	  -1.59698	  -43.9791	
  -1.52925	-0.00174355	  -1.51888	-0.00175593	  -1.51781	-0.00176344	  -1.52198	-0.00175431	  -1.52198	  -43.8577	
  -1.45409	-0.00173864	  -1.44405	 -0.001751	  -1.44274	-0.00175846	  -1.44696	-0.00174936	  -1.44696	  -43.7341	
  -1.37893	-0.0017337	  -1.36923	-0.00174597	   -1.3678	-0.00175341	  -1.37199	-0.00174436	  -1.37199	   -43.609	
  -1.30362	-0.00172868	  -1.29425	-0.00174087	  -1.29273	-0.00174835	  -1.29687	-0.0017393	  -1.29687	  -43.4825	
  -1.22841	-0.00172355	  -1.21917	-0.00173575	  -1.21777	-0.00174326	  -1.22179	-0.00173419	  -1.22179	  -43.3547	
  -1.15303	-0.00171829	  -1.14404	-0.00173061	  -1.14266	-0.00173812	  -1.14658	-0.00172901	  -1.14658	  -43.2252	
  -1.07763	-0.00171295	   -1.0689	-0.00172542	  -1.06754	-0.00173291	  -1.07136	-0.00172376	  -1.07136	   -43.094	
  -1.00227	-0.0017076	 -0.993696	-0.00172014	 -0.992258	-0.00172761	 -0.996076	-0.00171845	 -0.996076	  -42.9612	
 -0.926776	-0.00170226	 -0.918366	-0.00171476	 -0.916864	-0.00172222	 -0.920669	-0.00171308	 -0.920669	  -42.8271	
 -0.851307	-0.0016969	 -0.843176	-0.0017093	 -0.841623	-0.00171677	 -0.845369	-0.00170766	 -0.845369	  -42.6915	
 -0.776011	-0.00169143	 -0.767737	-0.00170378	 -0.766145	-0.00171129	 -0.769964	-0.00170216	 -0.769964	  -42.5541	
 -0.700705	-0.00168581	 -0.692323	-0.00169823	 -0.690702	-0.00170576	 -0.694577	-0.0016966	 -0.694577	   -42.415	
 -0.625328	-0.0016801	 -0.616871	-0.00169266	 -0.615127	-0.00170018	 -0.619109	-0.00169098	 -0.619109	  -42.2744	
 -0.549824	-0.00167433	 -0.541322	-0.00168703	 -0.539472	-0.00169451	  -0.54354	-0.00168529	  -0.54354	  -42.1322	
 -0.474355	-0.00166855	  -0.46573	-0.00168131	    -0.464	-0.00168875	 -0.468028	-0.00167953	 -0.468028	  -41.9884	
 -0.398854	-0.00166274	 -0.390035	-0.00167548	 -0.388423	-0.00168292	 -0.392437	-0.00167371	 -0.392437	  -41.8428	
 -0.323366	-0.00165685	 -0.314395	-0.00166958	 -0.312899	-0.00167703	 -0.316887	-0.00166782	 -0.316887	  -41.6955	
 -0.247832	-0.00165084	 -0.238852	-0.00166363	 -0.237261	-0.00167111	 -0.241315	-0.00166186	 -0.241315	  -41.5465	
 -0.172194	-0.00164475	 -0.163231	-0.00165766	 -0.161561	-0.00166512	 -0.165662	-0.00165584	 -0.165662	  -41.3961	
-0.0967151	-0.0016386	-0.0876918	-0.00165165	-0.0859565	-0.00165906	-0.0901211	-0.00164977	-0.0901211	  -41.2443	
-0.0212172	-0.00163242	-0.0119524	-0.00164557	-0.0102709	-0.00165291	-0.0144802	-0.00164364	-0.0144802	  -41.0909	
 0.0542556	-0.00162622	 0.0637153	-0.0016394	 0.0654427	-0.00164668	 0.0611379	-0.00163743	 0.0611379	  -40.9359	
  0.129554	-0.00161996	  0.139377	-0.00163312	  0.141138	-0.0016404	   0.13669	-0.00163116	   0.13669	   -40.779	
  0.204862	-0.0016136	  0.215095	-0.00162675	   0.21688	-0.00163407	  0.212279	-0.00162481	  0.212279	  -40.6202	
  0.280031	-0.00160711	  0.290735	-0.00162035	  0.292408	-0.0016277	  0.287725	-0.00161839	  0.287725	  -40.4597	
  0.355238	-0.00160053	   0.36645	-0.00161394	  0.368011	-0.00162127	  0.363233	-0.00161191	  0.363233	  -40.2979	
  0.430439	-0.00159392	  0.442083	-0.00160752	  0.443536	-0.00161475	  0.438686	-0.0016054	  0.438686	  -40.1349	
  0.505696	-0.00158733	  0.517596	-0.00160103	  0.518836	-0.00160813	  0.514043	-0.00159883	  0.514043	  -39.9708	
  0.580959	-0.00158075	  0.593165	-0.00159442	  0.594202	-0.00160145	  0.589442	-0.00159221	  0.589442	  -39.8052	
  0.656184	-0.0015741	  0.668529	-0.00158769	  0.669479	-0.00159474	  0.664731	-0.00158551	  0.664731	  -39.6378	
  0.731542	-0.00156729	  0.744085	-0.00158088	  0.744843	-0.00158801	  0.740157	-0.00157872	  0.740157	  -39.4681	
  0.806875	-0.00156036	  0.819561	-0.00157405	  0.820032	-0.00158121	  0.815489	-0.00157187	  0.815489	  -39.2968	
  0.882139	-0.00155335	  0.894919	-0.00156722	  0.895018	-0.00157431	  0.890692	-0.00156496	  0.890692	   -39.124	
  0.957405	-0.00154636	  0.970337	-0.00156038	  0.970091	-0.00156729	  0.965945	-0.00155801	  0.965945	  -38.9502	
   1.03252	-0.00153937	   1.04556	-0.00155346	   1.04499	-0.00156019	   1.04102	-0.00155101	   1.04102	  -38.7752	
   1.10767	-0.00153232	   1.12076	-0.00154641	   1.12012	-0.00155306	   1.11618	-0.00154393	   1.11618	  -38.5983	
   1.18281	-0.00152515	   1.19591	-0.00153926	   1.19519	-0.00154592	    1.1913	-0.00153677	    1.1913	  -38.4194	
    1.2579	-0.00151783	   1.27085	-0.00153203	   1.27007	-0.00153872	   1.26627	-0.00152953	   1.26627	  -38.2382	
    1.3331	-0.00151042	   1.34589	-0.00152478	   1.34504	-0.00153143	   1.34134	-0.00152221	   1.34134	  -38.0552	
   1.40825	-0.00150301	   1.42075	-0.00151752	   1.41985	-0.00152401	   1.41628	-0.00151484	   1.41628	  -37.8711	
   1.48364	-0.00149565	   1.49573	-0.00151023	   1.49467	-0.00151651	   1.49135	-0.00150746	   1.49135	  -37.6866	
   1.55942	-0.00148833	   1.57067	-0.00150288	   1.56947	-0.00150896	   1.56652	-0.00150006	   1.56652	  -37.5014	
   1.63529	-0.00148097	   1.64542	-0.00149543	   1.64409	-0.00150139	    1.6416	-0.0014926	    1.6416	  -37.3149	
    1.7111	-0.00147347	   1.72018	-0.00148791	   1.71884	-0.00149377	    1.7167	-0.00148505	    1.7167	  -37.1262	
   1.78628	-0.00146576	   1.79478	-0.00148032	   1.79344	-0.00148609	    1.7915	-0.00147739	    1.7915	  -36.9347	
   1.86105	-0.00145788	   1.86921	-0.00147268	   1.86786	-0.00147835	   1.86604	-0.00146963	   1.86604	  -36.7409	
    1.9354	-0.00144992	   1.94365	 -0.001465	    1.9423	-0.00147055	   1.94045	-0.00146183	   1.94045	  -36.5457	
   2.00975	-0.00144201	   2.01785	-0.00145728	   2.01661	-0.0014627	   2.01474	 -0.001454	   2.01474	  -36.3499	
   2.08417	-0.00143419	     2.092	-0.00144949	   2.09106	-0.00145476	   2.08908	-0.00144615	   2.08908	  -36.1537	
   2.15881	-0.00142641	   2.16606	-0.00144165	    2.1654	-0.00144673	   2.16342	-0.00143826	   2.16342	  -35.9565	
   2.23362	-0.00141855	   2.23999	-0.00143375	   2.23971	-0.00143859	   2.23777	-0.0014303	   2.23777	  -35.7574	
   2.30843	-0.00141048	   2.31399	-0.00142578	   2.31404	-0.00143039	   2.31215	-0.00142222	   2.31215	  -35.5554	
     2.383	-0.00140223	   2.38779	-0.00141776	   2.38815	-0.00142214	   2.38632	-0.00141405	   2.38632	  -35.3511	
   2.45752	-0.00139395	   2.46149	-0.0014097	   2.46191	-0.00141387	   2.46031	-0.00140584	   2.46031	   -35.146	
   2.53289	-0.00138576	   2.53515	-0.00140159	   2.53563	-0.00140555	   2.53456	-0.00139764	   2.53456	  -34.9409	
   2.60816	-0.00137769	   2.60864	-0.00139339	   2.60907	-0.00139715	   2.60862	-0.00138941	   2.60862	  -34.7353	
   2.68319	-0.00136964	   2.68214	-0.00138511	   2.68262	-0.00138867	   2.68265	-0.00138114	   2.68265	  -34.5285	
   2.75806	-0.00136141	   2.75552	-0.00137677	   2.75604	-0.00138011	   2.75654	-0.00137276	   2.75654	   -34.319	
   2.83179	-0.00135289	   2.82853	-0.0013684	   2.82919	-0.00137147	   2.82984	-0.00136425	   2.82984	  -34.1063	
   2.90508	-0.00134413	   2.90158	-0.00136001	   2.90237	-0.00136277	   2.90301	-0.00135563	   2.90301	  -33.8908	
   2.97792	-0.00133532	   2.97444	-0.00135157	   2.97533	-0.00135399	    2.9759	-0.00134696	    2.9759	  -33.6741	
   3.05063	-0.00132664	   3.04718	-0.00134304	   3.04827	-0.00134514	   3.04869	-0.00133828	   3.04869	  -33.4569	
    3.1235	-0.00131811	   3.11988	-0.0013344	   3.12116	-0.00133624	   3.12151	-0.00132958	   3.12151	  -33.2395	
   3.19627	-0.00130959	   3.19242	-0.00132566	   3.19374	-0.00132725	   3.19414	-0.00132084	   3.19414	  -33.0209	
   3.26913	-0.00130087	   3.26475	-0.00131689	   3.26633	-0.0013182	   3.26674	-0.00131199	   3.26674	  -32.7998	
   3.34192	-0.00129187	   3.33699	-0.00130811	   3.33879	-0.00130912	   3.33924	-0.00130303	   3.33924	  -32.5757	
   3.41463	-0.00128267	    3.4091	-0.00129927	   3.41173	-0.00130004	   3.41182	-0.00129399	   3.41182	  -32.3498	
   3.48712	-0.00127346	   3.48105	-0.00129036	   3.48486	-0.00129095	   3.48434	-0.00128492	   3.48434	  -32.1231	
   3.55936	-0.0012644	   3.55284	-0.00128134	   3.55823	-0.00128183	   3.55681	-0.00127586	   3.55681	  -31.8964	
   3.63167	-0.00125543	   3.62454	-0.00127223	   3.63116	-0.00127261	   3.62913	-0.00126676	   3.62913	  -31.6689	
    3.7038	-0.00124639	   3.69604	-0.00126306	   3.70364	-0.00126322	   3.70116	-0.00125756	   3.70116	   -31.439	
   3.77561	-0.00123713	   3.76741	-0.00125386	   3.77538	-0.0012537	    3.7728	-0.00124823	    3.7728	  -31.2057	
   3.84732	-0.00122762	   3.83863	-0.00124462	   3.84659	-0.00124411	   3.84418	-0.00123878	   3.84418	  -30.9695	
   3.91891	-0.00121799	   3.90981	-0.00123529	   3.91762	-0.00123454	   3.91544	-0.00122928	   3.91544	  -30.7319	
   3.99014	-0.00120842	   3.98059	-0.00122588	   3.98866	-0.00122502	   3.98646	-0.00121977	   3.98646	  -30.4943	
   4.06143	-0.00119897	   4.05098	-0.00121637	   4.05968	-0.00121548	   4.05736	-0.00121027	   4.05736	  -30.2568	
   4.13254	-0.00118957	    4.1213	-0.0012068	   4.13055	-0.00120585	   4.12813	-0.00120074	   4.12813	  -30.0185	
   4.20345	-0.00118008	   4.19195	-0.0011972	   4.20104	-0.00119604	   4.19881	-0.00119111	   4.19881	  -29.7777	
   4.27437	-0.00117038	   4.26229	-0.00118756	   4.27145	-0.00118608	   4.26937	-0.00118134	   4.26937	  -29.5334	
   4.34505	-0.00116048	   4.33269	-0.00117782	   4.34157	-0.00117603	   4.33977	-0.00117145	   4.33977	  -29.2862	
   4.41548	-0.00115052	   4.40281	-0.00116798	   4.41151	-0.00116602	   4.40993	-0.0011615	   4.40993	  -29.0376	
   4.48577	-0.00114061	   4.47286	-0.00115803	   4.48125	-0.00115606	   4.47996	-0.00115156	   4.47996	  -28.7891	
   4.55578	-0.00113078	   4.54302	-0.00114802	    4.5512	-0.00114606	      4.55	-0.00114162	      4.55	  -28.5405	
   4.62563	-0.00112095	   4.61284	-0.00113802	   4.62091	-0.00113592	   4.61979	-0.00113163	   4.61979	  -28.2907	
   4.69531	 -0.001111	   4.68316	-0.00112801	   4.69036	-0.00112561	   4.68961	-0.00112154	   4.68961	  -28.0385	
   4.76469	-0.00110085	   4.75255	-0.00111792	   4.75976	-0.00111518	     4.759	-0.00111132	     4.759	  -27.7829	
   4.83378	-0.00109058	    4.8218	-0.0011077	   4.82879	-0.00110472	   4.82812	 -0.001101	   4.82812	   -27.525	
   4.90279	-0.0010803	     4.891	-0.00109737	   4.89797	-0.0010943	   4.89725	-0.00109066	   4.89725	  -27.2664	
    4.9715	-0.00107009	   4.95961	-0.00108696	   4.96705	-0.00108391	   4.96605	-0.00108032	   4.96605	  -27.0079	
      5.04	-0.00105988	   5.02881	-0.00107654	   5.03541	-0.00107344	   5.03474	-0.00106995	   5.03474	  -26.7489	
   5.10842	-0.00104958	   5.09716	-0.00106609	   5.10401	-0.00106285	    5.1032	-0.00105951	    5.1032	  -26.4876	
   5.17652	-0.00103909	   5.16524	-0.00105554	   5.17229	-0.00105214	   5.17135	-0.00104892	   5.17135	  -26.2231	
   5.24431	-0.00102845	   5.23327	-0.00104486	   5.24016	-0.00104133	   5.23925	-0.00103821	   5.23925	  -25.9553	
     5.312	-0.00101779	   5.30069	-0.00103407	   5.30816	-0.00103047	   5.30695	-0.00102744	   5.30695	  -25.6861	
   5.37938	-0.0010072	   5.36829	-0.00102324	   5.37593	-0.00101964	   5.37453	-0.00101669	   5.37453	  -25.4173	
   5.44677	-0.000996691	    5.4356	-0.00101242	   5.44338	-0.00100881	   5.44192	-0.00100597	   5.44192	  -25.1493	
   5.51405	-0.00098615	   5.50253	-0.00100161	   5.51062	-0.000997889	   5.50907	-0.000995217	   5.50907	  -24.8804	
     5.581	-0.000975454	   5.56942	-0.000990742	   5.57754	-0.000986839	   5.57599	-0.000984345	   5.57599	  -24.6086	
   5.64773	-0.000964564	   5.63582	-0.000979744	   5.64417	-0.000975633	   5.64257	-0.000973314	   5.64257	  -24.3328	
   5.71436	-0.000953551	   5.70219	-0.000968607	   5.71061	-0.000964316	   5.70905	-0.000962158	   5.70905	   -24.054	
   5.78068	-0.00094254	   5.76831	-0.000957378	   5.77676	-0.000953012	   5.77525	-0.000950977	   5.77525	  -23.7744	
   5.84668	-0.000931602	   5.83419	-0.00094613	   5.84273	-0.000941786	    5.8412	-0.000939839	    5.8412	   -23.496	
    5.9126	-0.000920715	   5.89983	-0.000934908	   5.90822	-0.000930575	   5.90688	-0.000928733	   5.90688	  -23.2183	
   5.97823	-0.00090978	   5.96524	-0.0009237	   5.97357	-0.00091928	   5.97235	-0.000917587	   5.97235	  -22.9397	
   6.04357	-0.000898695	   6.03053	-0.00091244	   6.03878	-0.000907814	   6.03763	-0.000906317	   6.03763	  -22.6579	
   6.10872	-0.000887435	   6.09569	-0.000901069	   6.10358	-0.000896161	   6.10266	-0.000894888	   6.10266	  -22.3722	
   6.17361	-0.000876059	   6.16064	-0.000889574	   6.16805	-0.000884421	   6.16743	-0.000883351	   6.16743	  -22.0838	
   6.23803	-0.000864675	   6.22526	-0.00087801	   6.23212	-0.000872715	    6.2318	-0.0008718	    6.2318	   -21.795	
   6.30234	-0.000853354	    6.2898	-0.000866447	   6.29623	-0.000861076	   6.29612	-0.000860292	   6.29612	  -21.5073	
   6.36643	-0.000842071	   6.35405	-0.000854913	   6.36016	-0.00084943	   6.36021	-0.000848805	   6.36021	  -21.2201	
    6.4302	-0.000830739	   6.41791	-0.000843369	   6.42371	-0.000837678	   6.42394	-0.000837262	   6.42394	  -20.9316	
   6.49369	-0.000819275	   6.48174	-0.00083174	   6.48702	-0.000825761	   6.48748	-0.000825592	   6.48748	  -20.6398	
   6.55702	-0.000807653	   6.54542	-0.000819986	   6.55009	-0.000813704	   6.55084	-0.000813781	   6.55084	  -20.3445	
   6.61998	-0.000795912	   6.60875	-0.000808129	   6.61285	-0.000801611	   6.61386	-0.000801884	   6.61386	  -20.0471	
   6.68282	-0.00078413	   6.67165	-0.00079624	   6.67532	-0.000789572	   6.67659	-0.000789981	   6.67659	  -19.7495	
   6.74554	-0.000772366	   6.73447	-0.000784371	   6.73773	-0.000777582	   6.73925	-0.000778107	   6.73925	  -19.4527	
   6.80795	-0.00076063	   6.79701	-0.000772519	   6.79987	-0.000765559	   6.80161	-0.000766236	   6.80161	  -19.1559	
   6.86985	-0.000748878	   6.85918	-0.000760628	   6.86167	-0.000753415	   6.86357	-0.000754307	   6.86357	  -18.8577	
   6.93172	-0.00073704	   6.92133	-0.000748637	   6.92336	-0.000741123	   6.92547	-0.000742267	   6.92547	  -18.5567	
   6.99334	-0.000725073	   6.98326	-0.000736529	   6.98486	-0.000728739	   6.98715	-0.000730114	   6.98715	  -18.2528	
   7.05453	-0.000712992	   7.04476	-0.000724347	   7.04596	-0.000716363	   7.04841	-0.000717901	   7.04841	  -17.9475	
   7.11553	-0.000700866	   7.10609	-0.000712149	   7.10681	-0.000704048	   7.10948	-0.000705688	   7.10948	  -17.6422	
   7.17638	-0.000688753	   7.16727	-0.000699968	   7.16754	-0.000691757	    7.1704	-0.000693493	    7.1704	  -17.3373	
   7.23687	-0.000676662	   7.22811	-0.000687782	   7.22797	-0.0006794	   7.23098	-0.000681282	   7.23098	   -17.032	
   7.29725	-0.000664532	   7.28874	-0.000675538	    7.2879	-0.000666914	   7.29129	-0.000668994	   7.29129	  -16.7249	
   7.35754	-0.000652295	   7.34918	-0.000663191	    7.3476	-0.000654307	   7.35144	-0.000656598	   7.35144	   -16.415	
   7.41755	-0.000639941	   7.40936	-0.000650749	   7.40709	-0.00064166	   7.41133	-0.000644117	   7.41133	  -16.1029	
   7.47719	-0.000627514	   7.46908	-0.000638257	   7.46621	-0.000629051	   7.47083	-0.000631607	   7.47083	  -15.7902	
   7.53662	-0.000615087	   7.52841	-0.000625763	   7.52487	-0.000616489	   7.52997	-0.000619113	   7.52997	  -15.4778	
   7.59586	-0.000602709	   7.58748	-0.000613279	   7.58344	-0.000603914	   7.58893	-0.000606634	   7.58893	  -15.1659	
   7.65473	-0.000590347	   7.64623	-0.000600775	   7.64175	-0.000591248	   7.64757	-0.000594123	   7.64757	  -14.8531	
   7.71316	-0.000577936	   7.70448	-0.000588204	   7.69971	-0.000578448	   7.70578	-0.000581529	   7.70578	  -14.5382	
   7.77152	-0.00056543	   7.76246	-0.000575543	   7.75743	-0.000565536	    7.7638	-0.000568837	    7.7638	  -14.2209	
   7.82962	-0.000552831	   7.82024	-0.000562813	   7.81499	-0.000552592	   7.82162	-0.000556079	   7.82162	   -13.902	
   7.88738	-0.000540194	   7.87764	-0.000550058	   7.87221	-0.000539689	   7.87908	-0.000543313	   7.87908	  -13.5828	
   7.94475	-0.000527578	   7.93451	-0.000537308	   7.92893	-0.000526834	   7.93606	-0.000530574	   7.93606	  -13.2643	
   8.00167	-0.000514993	   7.99112	-0.000524555	    7.9853	-0.000513987	    7.9927	-0.000517845	    7.9927	  -12.9461	
   8.05831	-0.000502398	    8.0475	-0.000511762	   8.04149	-0.000501079	    8.0491	-0.00050508	    8.0491	   -12.627	
   8.11448	-0.00048974	   8.10349	-0.000498917	   8.09732	-0.000488059	    8.1051	-0.000492239	    8.1051	   -12.306	
   8.17026	-0.000477002	   8.15914	-0.000486031	   8.15274	-0.000474931	   8.16071	-0.000479321	   8.16071	   -11.983	
   8.22581	-0.000464203	   8.21439	-0.000473114	    8.2079	-0.000461753	   8.21603	-0.000466357	   8.21603	  -11.6589	
   8.28105	-0.00045138	   8.26941	-0.000460157	   8.26286	-0.000448588	   8.27111	-0.000453375	   8.27111	  -11.3344	
   8.33584	-0.000438548	   8.32403	-0.000447133	   8.31745	-0.000435459	   8.32577	-0.00044038	   8.32577	  -11.0095	
   8.39002	-0.000425702	   8.37811	-0.000434028	   8.37151	-0.000422342	   8.37988	-0.000427358	   8.37988	  -10.6839	
   8.44366	-0.00041282	   8.43202	-0.000420878	   8.42532	-0.000409185	   8.43367	-0.000414294	   8.43367	  -10.3574	
   8.49696	-0.000399897	   8.48571	-0.000407751	   8.47894	-0.000395949	   8.48721	-0.000401199	   8.48721	    -10.03	
   8.54986	-0.000386941	   8.53902	-0.000394689	    8.5322	-0.000382641	   8.54036	-0.000388091	   8.54036	  -9.70226	
   8.60285	-0.00037396	   8.59189	-0.000381663	   8.58496	-0.000369303	   8.59323	-0.000374976	   8.59323	  -9.37439	
   8.65553	-0.000360966	   8.64441	-0.000368592	   8.63758	-0.000355972	   8.64584	-0.000361843	   8.64584	  -9.04609	
   8.70796	-0.00034793	   8.69662	-0.000355407	   8.69003	-0.000342643	    8.6982	-0.00034866	    8.6982	  -8.71649	
   8.75977	-0.000334852	   8.74848	-0.000342098	   8.74213	-0.000329312	   8.75013	-0.000335421	   8.75013	  -8.38551	
   8.81137	-0.00032176	   8.79986	-0.000328726	   8.79385	-0.000315969	   8.80169	-0.000322152	   8.80169	   -8.0538	
   8.86291	-0.000308656	   8.85082	-0.000315378	   8.84503	-0.000302611	   8.85292	-0.000308882	   8.85292	  -7.72205	
   8.91391	-0.000295555	   8.90143	-0.000302091	   8.89597	-0.000289234	   8.90377	-0.000295627	   8.90377	  -7.39067	
   8.96498	-0.00028245	   8.95177	-0.000288843	   8.94663	-0.000275838	   8.95446	-0.000282377	   8.95446	  -7.05942	
   9.01552	-0.000269298	    9.0017	-0.000275562	   8.99686	-0.000262407	   9.00469	-0.000269089	   9.00469	  -6.72723	
   9.06551	-0.000256065	   9.05117	-0.000262177	   9.04662	-0.000248951	   9.05443	-0.000255731	   9.05443	  -6.39327	
   9.11566	-0.000242778	   9.10038	-0.000248679	   9.09601	-0.00023547	   9.10402	-0.000242309	   9.10402	  -6.05773	
   9.16507	-0.00022947	   9.14928	-0.000235113	    9.1452	-0.000221974	   9.15318	-0.000228852	   9.15318	  -5.72131	
   9.21416	-0.000216185	   9.19785	-0.000221557	   9.19404	-0.000208472	   9.20202	-0.000215404	   9.20202	  -5.38511	
   9.26278	-0.000202926	   9.24595	-0.000208067	   9.24239	-0.000194958	   9.25037	-0.000201984	   9.25037	  -5.04959	
   9.31081	-0.000189675	   9.29366	-0.000194617	   9.29035	-0.000181435	   9.29827	-0.000188576	   9.29827	  -4.71439	
   9.35865	-0.000176363	   9.34106	-0.000181119	   9.33799	-0.00016791	    9.3459	-0.000175131	    9.3459	  -4.37827	
   9.40596	-0.000162942	   9.38824	-0.000167519	    9.3854	-0.000154394	    9.3932	-0.000161618	    9.3932	  -4.04046	
   9.45229	-0.000149436	   9.43505	-0.000153826	   9.43242	-0.000140908	   9.43992	-0.000148057	   9.43992	  -3.70142	
   9.49831	-0.000135931	   9.48137	-0.000140107	   9.47894	-0.000127433	   9.48621	-0.00013449	   9.48621	  -3.36226	
    9.5439	-0.000122488	   9.52707	-0.000126443	   9.52483	-0.000113924	   9.53193	-0.000120952	   9.53193	  -3.02379	
   9.58956	-0.000109111	   9.57237	-0.000112855	   9.57042	-0.000100373	   9.57745	-0.000107446	   9.57745	  -2.68616	
   9.63492	-9.57175e-05	   9.61737	-9.92843e-05	   9.61578	-8.68122e-05	   9.62269	-9.3938e-05	   9.62269	  -2.34845	
   9.68006	-8.22417e-05	   9.66203	-8.56355e-05	   9.66079	-7.32618e-05	   9.66762	-8.03797e-05	   9.66762	  -2.00949	
   9.72475	-6.8654e-05	   9.70623	-7.18767e-05	   9.70531	-5.9743e-05	    9.7121	-6.67579e-05	    9.7121	  -1.66895	
   9.76908	-5.50354e-05	   9.75008	-5.80534e-05	   9.74925	-4.6244e-05	   9.75613	-5.3111e-05	   9.75613	  -1.32777	
   9.81335	-4.14801e-05	   9.79377	-4.42747e-05	   9.79301	-3.27312e-05	   9.80004	-3.94953e-05	   9.80004	 -0.987383	
   9.85773	-2.80066e-05	   9.83717	-3.06063e-05	   9.83617	-1.91955e-05	   9.84369	-2.59362e-05	   9.84369	 -0.648404	
   9.90092	-1.45561e-05	   9.88025	-1.70298e-05	   9.87903	-5.64594e-06	   9.88673	-1.24106e-05	   9.88673	 -0.310265	
   9.94433	-1.03929e-06	   9.92291	-3.43971e-06	   9.92148	7.87794e-06	   9.92957	1.13298e-06	   9.92957	 0.0283244	
   9.98685	1.25725e-05	   9.96514	1.02608e-05	   9.96342	2.13573e-05	    9.9718	1.47302e-05	    9.9718	  0.368255	
   10.0289	2.6242e-05	    10.007	2.4082e-05	   10.0051	3.48274e-05	   10.0137	2.83838e-05	   10.0137	  0.709595	
   10.0714	3.98743e-05	   10.0485	3.79417e-05	    10.046	4.83287e-05	   10.0553	4.20482e-05	   10.0553	   1.05121	
   10.1128	5.34296e-05	   10.0897	5.17269e-05	    10.086	6.18818e-05	   10.0962	5.56794e-05	   10.0962	   1.39199	
   10.1541	6.69323e-05	   10.1306	6.53874e-05	   10.1258	7.54524e-05	   10.1368	6.92574e-05	   10.1368	   1.73143	
    10.195	8.04464e-05	    10.171	7.8972e-05	   10.1653	8.89903e-05	   10.1771	8.28029e-05	   10.1771	   2.07007	
   10.2352	9.40187e-05	   10.2108	9.25865e-05	   10.2048	0.000102459	   10.2169	9.63548e-05	   10.2169	   2.40887	
   10.2752	0.000107651	   10.2504	0.000106295	   10.2441	0.000115888	   10.2566	0.000109945	   10.2566	   2.74862	
   10.3148	0.000121298	   10.2895	0.000120093	   10.2829	0.000129334	   10.2958	0.000123575	   10.2958	   3.08937	
   10.3539	 0.0001349	   10.3284	0.000133915	   10.3215	0.000142821	   10.3346	0.000137212	   10.3346	    3.4303	
   10.3925	0.00014844	   10.3669	0.000147685	   10.3594	0.000156329	   10.3729	0.000150818	   10.3729	   3.77045	
   10.4306	0.000161962	    10.405	0.000161372	   10.3975	0.000169819	   10.4111	0.000164384	   10.4111	    4.1096	
   10.4684	0.000175494	   10.4426	0.000175008	   10.4349	0.000183256	   10.4486	0.000177919	   10.4486	   4.44799	
   10.5055	0.000189064	   10.4796	0.000188659	   10.4718	0.000196655	   10.4856	0.000191459	   10.4856	   4.78649	
   10.5425	0.000202626	    10.516	0.00020236	   10.5085	0.000210068	   10.5223	0.000205018	   10.5223	   5.12545	
   10.5791	0.000216131	    10.552	0.000216107	   10.5441	0.000223524	   10.5584	0.000218587	   10.5584	   5.46468	
   10.6154	0.000229551	   10.5877	0.000229848	   10.5798	0.000236997	   10.5943	0.000232132	   10.5943	    5.8033	
   10.6512	0.000242935	   10.6231	0.000243526	    10.615	0.000250451	   10.6298	0.000245637	   10.6298	   6.14093	
   10.6864	0.000256337	   10.6581	0.000257128	   10.6497	0.000263848	   10.6647	0.000259104	   10.6647	   6.47761	
   10.7213	 0.0002698	   10.6926	0.000270687	   10.6844	0.000277194	   10.6994	0.00027256	   10.6994	   6.81401	
   10.7556	0.000283303	   10.7267	0.000284265	   10.7184	0.000290533	   10.7336	0.000286033	   10.7336	   7.15084	
   10.7897	0.000296761	   10.7601	0.000297896	    10.752	0.000303906	   10.7673	0.000299521	   10.7673	   7.48802	
   10.8233	0.000310132	   10.7932	0.000311538	   10.7854	0.000317314	   10.8006	0.000312995	   10.8006	   7.82487	
   10.8565	0.000323444	    10.826	0.000325125	   10.8181	0.000330712	   10.8335	0.000326427	   10.8335	   8.16067	
   10.8894	0.000336761	   10.8584	0.000338614	   10.8509	0.000344052	   10.8662	0.000339809	   10.8662	   8.49523	
   10.9218	0.000350115	   10.8906	0.000352041	   10.8828	0.000357322	   10.8984	0.00035316	   10.8984	   8.82899	
   10.9536	0.000363474	   10.9223	0.000365475	   10.9146	0.000370564	   10.9302	0.000366504	   10.9302	   9.16261	
   10.9849	0.000376762	   10.9536	0.000378957	   10.9462	0.00038384	   10.9616	0.000379853	   10.9616	   9.49633	
   11.0157	0.000389941	   10.9843	0.000392468	   10.9771	0.00039718	   10.9923	0.000393196	   10.9923	   9.82991	
    11.046	0.000403047	   11.0144	0.000405934	    11.008	0.000410544	   11.0228	0.000406508	   11.0228	   10.1627	
   11.0759	0.000416159	   11.0438	0.000419294	    11.038	0.000423847	   11.0526	0.000419766	   11.0526	   10.4942	
   11.1055	0.000429324	   11.0727	0.000432573	   11.0674	0.000437022	   11.0819	0.000432973	   11.0819	   10.8243	
   11.1348	0.000442517	   11.1012	0.000445832	   11.0966	0.000450078	   11.1109	0.000446142	   11.1109	   11.1536	
   11.1637	0.000455674	   11.1294	0.00045911	   11.1252	0.000463099	   11.1394	0.000459294	   11.1394	   11.4824	
   11.1921	0.000468753	   11.1574	0.000472395	   11.1535	0.000476188	   11.1677	0.000472445	   11.1677	   11.8111	
   11.2201	0.000481742	    11.185	0.000485627	   11.1812	0.000489388	   11.1954	0.000485586	   11.1954	   12.1396	
   11.2475	0.000494685	   11.2122	0.000498768	   11.2083	0.000502645	   11.2227	0.000498699	   11.2227	   12.4675	
   11.2743	0.000507618	   11.2389	0.000511868	    11.235	0.000515846	   11.2494	0.000511777	   11.2494	   12.7944	
   11.3006	0.00052055	   11.2651	0.000524986	   11.2612	 0.0005289	   11.2757	0.000524812	   11.2757	   13.1203	
   11.3262	0.000533464	   11.2908	0.000538151	   11.2873	0.000541833	   11.3014	0.000537816	   11.3014	   13.4454	
   11.3514	0.000546334	   11.3159	0.000551326	   11.3128	0.000554753	   11.3267	0.000550804	   11.3267	   13.7701	
    11.376	0.000559152	   11.3405	0.000564424	   11.3379	0.000567749	   11.3515	0.000563775	   11.3515	   14.0944	
   11.4004	0.000571914	   11.3647	0.000577384	   11.3626	0.000580826	   11.3759	0.000576708	   11.3759	   14.4177	
   11.4245	0.000584623	   11.3884	0.000590227	   11.3869	0.000593901	   11.3999	0.000589584	   11.3999	   14.7396	
   11.4483	0.000597302	   11.4118	0.000603037	   11.4107	0.000606855	   11.4236	0.000602398	   11.4236	   15.0599	
   11.4716	0.000609959	   11.4351	0.000615869	   11.4341	0.000619649	   11.4469	0.000615159	   11.4469	    15.379	
   11.4946	0.000622588	   11.4581	0.000628701	   11.4573	0.000632357	     11.47	0.000627882	     11.47	   15.6971	
   11.5172	0.000635182	   11.4807	0.000641476	   11.4801	0.00064509	   11.4927	0.000640583	   11.4927	   16.0146	
   11.5393	0.000647729	   11.5031	0.00065416	   11.5024	0.00065792	   11.5149	0.00065327	   11.5149	   16.3317	
   11.5608	0.000660219	   11.5248	0.000666779	   11.5243	0.000670784	   11.5366	0.000665927	   11.5366	   16.6482	
   11.5819	0.000672664	   11.5455	0.000679384	   11.5455	0.000683551	   11.5576	0.000678533	   11.5576	   16.9633	
   11.6023	0.000685083	   11.5653	0.000692006	   11.5664	0.000696128	    11.578	0.000691072	    11.578	   17.2768	
   11.6222	0.000697477	   11.5846	0.000704612	   11.5867	0.000708539	   11.5978	0.000703543	   11.5978	   17.5886	
   11.6414	0.000709831	   11.6034	0.000717137	   11.6066	0.000720906	   11.6172	0.000715958	   11.6172	    17.899	
   11.6601	0.000722139	   11.6223	0.000729535	   11.6259	0.000733359	   11.6361	0.000728345	   11.6361	   18.2086	
   11.6783	0.000734398	   11.6406	0.000741829	   11.6447	0.000745924	   11.6545	0.000740717	   11.6545	   18.5179	
   11.6959	0.000746615	   11.6584	0.000754078	    11.663	0.000758497	   11.6724	0.000753063	   11.6724	   18.8266	
    11.713	0.000758803	   11.6757	0.000766339	   11.6806	0.000770931	   11.6898	0.000765357	   11.6898	   19.1339	
   11.7296	0.000770963	   11.6924	0.000778616	   11.6978	0.00078316	   11.7066	0.000777579	   11.7066	   19.4395	
   11.7458	0.000783084	   11.7086	0.000790864	   11.7145	0.000795242	   11.7229	0.00078973	   11.7229	   19.7432	
   11.7617	0.000795158	   11.7241	0.000803025	   11.7305	0.000807308	   11.7388	0.00080183	   11.7388	   20.0458	
   11.7772	0.000807179	   11.7391	0.000815071	   11.7461	0.000819461	   11.7542	0.000813903	   11.7542	   20.3476	
   11.7924	0.000819149	   11.7538	0.000827028	    11.761	0.000831702	   11.7691	0.00082596	   11.7691	    20.649	
   11.8072	0.000831074	   11.7682	0.000838948	   11.7754	0.000843932	   11.7836	0.000837985	   11.7836	   20.9496	
   11.8216	0.000842966	   11.7821	0.000850876	   11.7892	0.00085603	   11.7976	0.000849957	   11.7976	   21.2489	
   11.8358	0.000854823	   11.7956	0.000862805	   11.8027	0.000867961	   11.8113	0.000861863	   11.8113	   21.5466	
   11.8495	0.000866635	   11.8087	0.00087469	   11.8157	0.000879791	   11.8246	0.000873705	   11.8246	   21.8426	
   11.8629	0.000878385	   11.8211	0.000886479	   11.8282	0.000891631	   11.8374	0.000885498	   11.8374	   22.1375	
   11.8758	0.000890067	   11.8332	0.000898164	   11.8404	0.000903534	   11.8498	0.000897255	   11.8498	   22.4314	
   11.8884	0.000901691	   11.8449	0.000909786	   11.8522	0.000915465	   11.8618	0.000908981	   11.8618	   22.7245	
   11.9006	0.000913277	   11.8563	0.000921397	   11.8634	0.000927331	   11.8734	0.000920668	   11.8734	   23.0167	
   11.9123	0.000924836	   11.8673	0.000933013	   11.8742	0.000939071	   11.8846	0.000932307	   11.8846	   23.3077	
   11.9236	0.000936358	   11.8778	0.000944592	   11.8842	0.00095069	   11.8952	0.00094388	   11.8952	    23.597	
   11.9345	0.000947821	   11.8879	0.000956065	   11.8939	0.000962253	   11.9054	0.00095538	   11.9054	   23.8845	
   11.9448	0.00095921	   11.8976	 0.0009674	   11.9031	0.000973818	   11.9152	0.000966809	   11.9152	   24.1702	
   11.9545	0.000970523	   11.9069	0.000978632	   11.9117	 0.0009854	   11.9243	0.000978185	   11.9243	   24.4546	
   11.9639	0.000981783	   11.9156	0.000989834	   11.9199	0.000996947	   11.9331	0.000989522	   11.9331	    24.738	
   11.9728	  0.000993	   11.9238	0.00100106	   11.9276	0.00100841	   11.9414	0.00100083	   11.9414	   25.0207	
   11.9813	0.00100418	   11.9314	0.00101232	   11.9347	0.00101977	   11.9491	0.00101209	   11.9491	   25.3022	
   11.9892	 0.0010153	   11.9386	0.00102352	   11.9414	0.00103102	   11.9564	0.00102328	   11.9564	    25.582	
   11.9966	0.00102636	   11.9452	0.00103462	   11.9478	0.00104221	   11.9632	 0.0010344	   11.9632	   25.8599	
   12.0035	0.00103734	   11.9513	0.00104562	   11.9535	0.00105338	   11.9694	0.00104545	   11.9694	   26.1362	
   12.0098	0.00104825	   11.9567	0.00105654	   11.9586	0.00106454	   11.9751	0.00105644	   11.9751	    26.411	
   12.0157	 0.0010591	   11.9616	 0.0010674	   11.9632	0.00107564	   11.9802	0.00106738	   11.9802	   26.6845	
    12.021	0.00106992	    11.966	0.00107824	   11.9673	0.00108665	   11.9848	0.00107827	   11.9848	   26.9567	
   12.0257	0.00108069	   11.9699	0.00108901	    11.971	0.00109754	   11.9889	0.00108908	   11.9889	   27.2271	
   12.0297	0.00109141	   11.9733	0.00109971	   11.9742	0.00110834	   11.9924	0.00109982	   11.9924	   27.4955	
   12.0331	0.00110205	   11.9763	0.00111034	   11.9769	0.00111911	   11.9955	 0.0011105	   11.9955	   27.7625	
    12.036	0.00111261	   11.9789	0.00112091	   11.9793	0.00112986	   11.9981	0.00112113	   11.9981	   28.0282	
   12.0383	0.00112311	   11.9811	0.00113141	   11.9812	0.00114058	   12.0002	 0.0011317	   12.0002	   28.2925	
     12.04	0.00113355	   11.9829	0.00114188	   11.9829	0.00115122	   12.0019	0.00114222	   12.0019	   28.5554	
   12.0411	0.00114394	   11.9844	0.00115229	   11.9842	0.00116175	   12.0032	0.00115266	   12.0032	   28.8165	
   12.0418	0.00115429	   11.9855	0.00116262	   11.9852	0.00117217	   12.0042	0.00116303	   12.0042	   29.0757	
    12.042	0.00116456	   11.9864	0.00117287	   11.9859	0.00118251	   12.0048	0.00117331	   12.0048	   29.3328	
   12.0418	0.00117475	    11.987	0.00118303	   11.9863	0.00119278	    12.005	0.00118352	    12.005	    29.588	
   12.0413	0.00118486	   11.9873	0.00119312	   11.9864	0.00120299	    12.005	0.00119366	    12.005	   29.8415	
   12.0404	0.00119491	   11.9873	0.00120315	   11.9862	0.00121315	   12.0046	0.00120374	   12.0046	   30.0934	
   12.0391	 0.0012049	    11.987	0.00121313	   11.9856	0.00122324	   12.0039	0.00121376	   12.0039	   30.3439	
   12.0375	0.00121483	   11.9863	0.00122305	   11.9847	0.00123324	   12.0028	0.00122371	   12.0028	   30.5927	
   12.0355	 0.0012247	   11.9853	0.00123289	   11.9835	0.00124316	   12.0015	0.00123358	   12.0015	   30.8396	
    12.033	0.00123448	   11.9837	0.00124266	   11.9816	0.00125297	   11.9994	0.00124337	   11.9994	   31.0843	
   12.0302	0.00124415	   11.9815	0.00125235	    11.979	0.00126272	   11.9969	0.00125307	   11.9969	   31.3268	
   12.0267	0.00125371	   11.9788	0.00126196	   11.9758	0.00127242	   11.9938	 0.0012627	   11.9938	   31.5674	
   12.0226	0.00126325	   11.9754	0.00127152	    11.972	0.00128206	     11.99	0.00127228	     11.99	   31.8069	
   12.0179	0.00127278	   11.9716	0.00128102	   11.9678	0.00129163	   11.9858	0.00128181	   11.9858	   32.0453	
   12.0126	0.00128231	   11.9673	0.00129045	   11.9631	 0.0013011	    11.981	0.00129129	    11.981	   32.2822	
   12.0068	0.00129178	   11.9625	0.00129977	   11.9581	0.00131047	   11.9758	0.00130067	   11.9758	   32.5168	
   12.0006	0.00130111	   11.9574	  0.001309	   11.9527	0.00131975	   11.9703	0.00130995	   11.9703	   32.7488	
    11.994	0.00131027	   11.9519	0.00131818	   11.9471	0.00132899	   11.9643	0.00131915	   11.9643	   32.9787	
   11.9871	0.00131932	   11.9461	0.00132736	   11.9411	0.00133818	   11.9581	0.00132829	   11.9581	   33.2071	
   11.9799	0.00132833	   11.9399	0.00133654	   11.9348	 0.0013473	   11.9515	0.00133739	   11.9515	   33.4348	
   11.9722	0.00133737	    11.933	0.00134568	   11.9278	0.00135632	   11.9444	0.00134646	   11.9444	   33.6614	
   11.9642	0.00134641	   11.9253	0.00135469	   11.9202	0.00136525	   11.9366	0.00135545	   11.9366	   33.8862	
   11.9556	0.00135539	   11.9171	0.00136354	   11.9119	0.00137409	   11.9282	0.00136434	   11.9282	   34.1085	
   11.9464	0.00136424	   11.9082	0.00137228	   11.9031	0.00138287	   11.9192	0.00137313	   11.9192	   34.3283	
   11.9366	0.00137294	   11.8989	0.00138097	   11.8938	0.00139161	   11.9098	0.00138184	   11.9098	    34.546	
   11.9263	0.00138154	   11.8892	0.00138965	   11.8841	0.00140029	   11.8999	0.00139049	   11.8999	   34.7624	
   11.9156	0.00139011	   11.8791	0.00139834	   11.8741	0.00140889	   11.8896	0.00139911	   11.8896	   34.9777	
   11.9045	0.00139867	   11.8687	0.00140697	   11.8638	0.00141738	    11.879	0.00140767	    11.879	   35.1918	
   11.8932	0.00140721	    11.858	 0.0014155	   11.8531	0.00142579	   11.8681	0.00141617	   11.8681	   35.4041	
   11.8816	0.00141567	   11.8467	0.00142393	   11.8418	0.00143413	   11.8567	0.00142458	   11.8567	   35.6145	
   11.8694	0.00142401	   11.8349	0.00143228	   11.8301	0.00144245	   11.8448	0.00143292	   11.8448	   35.8229	
   11.8567	0.00143222	   11.8226	0.00144058	   11.8177	0.00145077	   11.8323	0.00144119	   11.8323	   36.0297	
   11.8434	0.00144036	   11.8096	0.00144885	   11.8048	0.00145903	   11.8193	0.00144942	   11.8193	   36.2354	
   11.8296	0.00144851	   11.7963	0.00145707	   11.7915	0.00146719	   11.8058	0.00145759	   11.8058	   36.4397	
   11.8153	0.00145666	   11.7826	0.00146522	   11.7778	 0.0014752	   11.7919	0.00146569	   11.7919	   36.6423	
   11.8007	0.00146476	   11.7683	0.00147328	   11.7638	0.00148308	   11.7776	0.00147371	   11.7776	   36.8427	
   11.7858	0.00147275	   11.7536	0.00148126	   11.7491	 0.0014909	   11.7628	0.00148163	   11.7628	   37.0408	
   11.7707	0.00148059	   11.7384	0.00148917	    11.734	0.00149872	   11.7477	0.00148949	   11.7477	   37.2373	
   11.7551	0.00148836	   11.7226	0.00149703	   11.7183	0.00150655	    11.732	0.00149731	    11.732	   37.4328	
    11.739	 0.0014961	   11.7062	0.00150486	    11.702	0.00151432	   11.7157	 0.0015051	   11.7157	   37.6274	
   11.7223	0.00150382	   11.6894	0.00151264	   11.6853	  0.001522	    11.699	0.00151282	    11.699	   37.8204	
   11.7051	0.00151147	   11.6723	0.00152032	   11.6682	0.00152955	   11.6819	0.00152045	   11.6819	   38.0111	
   11.6875	0.00151903	   11.6549	0.00152787	   11.6507	  0.001537	   11.6644	0.00152797	   11.6644	   38.1992	
   11.6697	0.00152649	   11.6371	 0.0015353	   11.6326	 0.0015444	   11.6464	 0.0015354	   11.6464	    38.385	
   11.6515	0.00153388	   11.6189	0.00154267	    11.614	 0.0015518	   11.6281	0.00154278	   11.6281	   38.5696	
   11.6327	0.00154124	   11.6001	0.00155002	   11.5948	0.00155918	   11.6092	0.00155015	   11.6092	   38.7536	
   11.6133	0.00154855	   11.5807	0.00155736	   11.5752	 0.0015665	   11.5897	0.00155747	   11.5897	   38.9367	
   11.5934	 0.0015558	    11.561	0.00156467	   11.5552	 0.0015737	   11.5698	0.00156472	   11.5698	   39.1181	
    11.573	0.00156299	   11.5408	0.00157189	   11.5348	0.00158077	   11.5495	0.00157188	   11.5495	   39.2971	
   11.5524	0.00157007	   11.5203	0.00157901	   11.5141	0.00158774	   11.5289	0.00157894	   11.5289	   39.4736	
   11.5313	0.00157707	   11.4994	0.00158602	   11.4926	0.00159467	   11.5078	0.00158592	   11.5078	    39.648	
   11.5096	0.00158401	   11.4779	0.00159294	   11.4706	 0.0016016	    11.486	0.00159285	    11.486	   39.8212	
   11.4873	0.00159088	   11.4558	0.00159981	   11.4481	0.00160853	   11.4637	0.00159974	   11.4637	   39.9935	
   11.4645	0.00159771	   11.4334	0.00160662	   11.4253	0.00161541	   11.4411	0.00160658	   11.4411	   40.1645	
   11.4413	0.00160449	   11.4105	0.00161338	    11.402	0.00162217	    11.418	0.00161335	    11.418	   40.3337	
   11.4179	0.00161122	   11.3873	0.00162008	   11.3782	 0.0016288	   11.3945	0.00162003	   11.3945	   40.5008	
   11.3939	0.00161786	   11.3633	0.00162669	   11.3538	0.00163534	   11.3704	0.00162663	   11.3704	   40.6658	
   11.3692	0.00162442	   11.3388	0.00163323	    11.329	0.00164181	   11.3457	0.00163315	   11.3457	   40.8288	
    11.344	 0.0016309	   11.3139	0.00163971	   11.3038	0.00164824	   11.3206	0.00163962	   11.3206	   40.9904	
   11.3184	0.00163733	   11.2885	0.00164614	   11.2782	0.00165463	   11.2951	0.00164603	   11.2951	   41.1508	
   11.2926	0.00164372	   11.2628	0.00165253	    11.252	0.00166094	   11.2691	 0.0016524	   11.2691	   41.3099	
   11.2661	0.00165009	   11.2366	0.00165883	   11.2253	0.00166717	   11.2427	0.00165869	   11.2427	   41.4674	
   11.2391	 0.0016564	   11.2099	0.00166499	    11.198	0.00167333	   11.2157	0.00166491	   11.2157	   41.6227	
   11.2116	0.00166262	   11.1827	0.00167104	   11.1703	0.00167941	   11.1882	0.00167102	   11.1882	   41.7756	
   11.1836	0.00166871	   11.1551	  0.001677	   11.1425	0.00168542	   11.1604	0.00167704	   11.1604	   41.9261	
   11.1553	0.00167468	   11.1273	0.00168298	    11.114	0.00169136	   11.1322	  0.001683	   11.1322	   42.0751	
   11.1264	0.00168057	   11.0988	0.00168897	   11.0851	0.00169721	   11.1034	0.00168892	   11.1034	   42.2229	
   11.0968	0.00168644	   11.0698	0.00169492	   11.0557	0.00170299	   11.0741	0.00169478	   11.0741	   42.3696	
   11.0668	0.00169231	   11.0401	0.00170074	   11.0259	 0.0017087	   11.0443	0.00170058	   11.0443	   42.5146	
   11.0364	0.00169815	   11.0101	0.00170639	   10.9959	0.00171435	   11.0141	 0.0017063	   11.0141	   42.6574	
   11.0055	0.00170391	   10.9798	 0.0017119	   10.9655	0.00171995	   10.9836	0.00171192	   10.9836	   42.7979	
   10.9743	0.00170953	   10.9493	0.00171738	   10.9346	0.00172547	   10.9527	0.00171746	   10.9527	   42.9365	
   10.9425	0.00171503	   10.9181	 0.0017229	   10.9032	0.00173089	   10.9213	0.00172294	   10.9213	   43.0736	
   10.9103	0.00172046	   10.8867	0.00172844	   10.8715	0.00173624	   10.8895	0.00172838	   10.8895	   43.2096	
   10.8778	0.00172586	   10.8546	0.00173392	   10.8394	0.00174155	   10.8573	0.00173377	   10.8573	   43.3444	
   10.8449	0.00173124	   10.8221	0.00173922	   10.8067	0.00174682	   10.8246	0.00173909	   10.8246	   43.4773	
   10.8114	0.00173655	   10.7894	0.00174433	   10.7735	0.00175204	   10.7915	0.00174431	   10.7915	   43.6077	
   10.7775	0.00174177	   10.7563	0.00174934	     10.74	0.00175718	   10.7579	0.00174943	   10.7579	   43.7357	
   10.7433	0.00174686	   10.7226	0.00175436	   10.7062	 0.0017622	    10.724	0.00175447	    10.724	   43.8618	
   10.7086	0.00175185	   10.6889	0.00175942	   10.6719	0.00176712	   10.6898	0.00175946	   10.6898	   43.9866	
   10.6734	0.00175678	   10.6543	 0.0017645	    10.637	0.00177199	   10.6549	0.00176442	   10.6549	   44.1106	
   10.6377	0.00176168	   10.6195	0.00176951	   10.6018	 0.0017768	   10.6196	0.00176933	   10.6196	   44.2332	
   10.6017	0.00176653	   10.5845	0.00177436	   10.5663	0.00178156	   10.5842	0.00177415	   10.5842	   44.3538	
   10.5654	0.00177132	    10.549	0.00177906	   10.5304	0.00178623	   10.5483	0.00177887	   10.5483	   44.4718	
   10.5288	0.00177601	   10.5133	0.00178369	    10.494	0.00179081	    10.512	 0.0017835	    10.512	   44.5876	
   10.4916	0.00178059	    10.477	0.00178832	   10.4571	0.00179532	   10.4753	0.00178808	   10.4753	    44.702	
   10.4542	0.00178509	   10.4403	0.00179298	   10.4201	 0.0017998	   10.4382	0.00179262	   10.4382	   44.8156	
   10.4164	0.00178953	   10.4031	0.00179762	   10.3825	0.00180425	   10.4007	0.00179713	   10.4007	   44.9284	
   10.3781	0.00179394	   10.3655	0.00180216	   10.3444	0.00180863	   10.3627	0.00180158	   10.3627	   45.0394	
   10.3394	 0.0017983	   10.3273	0.00180654	   10.3058	 0.0018129	   10.3242	0.00180591	   10.3242	   45.1478	
   10.3003	0.00180259	   10.2887	 0.0018108	   10.2671	0.00181704	   10.2854	0.00181014	   10.2854	   45.2535	
   10.2609	0.00180678	   10.2497	0.00181501	   10.2278	0.00182108	   10.2461	0.00181429	   10.2461	   45.3572	
    10.221	0.00181086	   10.2101	0.00181923	   10.1881	0.00182508	   10.2064	0.00181839	   10.2064	   45.4597	
   10.1807	0.00181488	   10.1701	0.00182344	   10.1479	0.00182907	   10.1662	0.00182246	   10.1662	   45.5616	
     10.14	0.00181885	   10.1296	 0.0018276	   10.1076	0.00183304	   10.1258	0.00182649	   10.1258	   45.6624	
   10.0991	0.00182278	   10.0888	0.00183163	   10.0668	0.00183694	   10.0849	0.00183045	   10.0849	   45.7613	
   10.0576	0.00182664	   10.0475	0.00183552	   10.0254	0.00184074	   10.0435	 0.0018343	   10.0435	   45.8575	
   10.0158	0.00183042	   10.0057	0.00183933	   9.98372	0.00184441	   10.0017	0.00183805	   10.0017	   45.9513	
   9.97366	0.00183408	   9.96368	 0.0018431	    9.9416	0.00184799	   9.95965	0.00184172	   9.95965	    46.043	
   9.93118	0.00183764	   9.92097	0.00184686	   9.89899	0.00185153	   9.91705	0.00184534	   9.91705	   46.1335	
   9.88817	0.00184115	   9.87778	 0.0018506	   9.85597	0.00185506	   9.87397	0.00184894	   9.87397	   46.2234	
   9.84482	0.00184467	    9.8343	0.00185427	   9.81262	0.00185856	   9.83058	 0.0018525	   9.83058	   46.3125	
    9.8013	0.00184819	   9.79029	0.00185781	   9.76878	0.00186198	   9.78679	0.00185599	   9.78679	   46.3998	
   9.75735	0.00185164	   9.74572	0.00186121	   9.72455	0.00186529	   9.74254	0.00185938	   9.74254	   46.4845	
   9.71295	0.00185496	   9.70079	0.00186451	      9.68	0.00186849	   9.69791	0.00186265	   9.69791	   46.5663	
   9.66827	0.00185812	   9.65568	0.00186777	    9.6351	0.00187161	   9.65302	0.00186583	   9.65302	   46.6458	
   9.62319	0.00186115	   9.60992	0.00187102	   9.58971	0.00187471	   9.60761	0.00186896	   9.60761	    46.724	
   9.57757	0.00186413	   9.56373	0.00187427	   9.54391	 0.0018778	   9.56173	0.00187206	   9.56173	   46.8016	
    9.5316	 0.0018671	   9.51729	0.00187746	   9.49777	0.00188084	   9.51555	0.00187513	   9.51555	   46.8784	
   9.48547	0.00187007	   9.47036	0.00188054	   9.45139	0.00188381	   9.46907	0.00187814	   9.46907	   46.9534	
   9.43893	0.00187297	   9.42294	0.00188348	   9.40453	0.00188666	   9.42213	0.00188104	   9.42213	    47.026	
   9.39195	0.00187576	   9.37521	0.00188636	   9.35738	0.00188942	   9.37485	0.00188385	   9.37485	   47.0961	
   9.34475	0.00187841	   9.32716	0.00188921	   9.31002	0.00189212	   9.32731	0.00188658	   9.32731	   47.1645	
   9.29716	0.00188099	   9.27875	0.00189205	   9.26221	0.00189479	   9.27938	0.00188928	   9.27938	    47.232	
   9.24908	0.00188353	   9.22999	0.00189486	   9.21404	0.00189744	   9.23103	0.00189195	   9.23103	   47.2986	
    9.2007	0.00188607	   9.18094	0.00189755	    9.1657	0.00190003	   9.18245	0.00189455	   9.18245	   47.3638	
     9.152	0.00188855	   9.13129	0.00190011	   9.11694	0.00190254	   9.13341	0.00189707	   9.13341	   47.4266	
   9.10285	0.00189093	   9.08123	0.00190257	   9.06776	0.00190494	   9.08395	0.00189948	   9.08395	    47.487	
   9.05336	0.00189321	   9.03098	0.00190499	   9.01825	0.00190726	   9.03419	0.00190182	   9.03419	   47.5454	
   9.00371	0.00189539	   8.98029	 0.0019074	   8.96839	0.00190953	   8.98413	0.00190411	   8.98413	   47.6027	
   8.95367	0.00189751	   8.92917	0.00190978	   8.91816	0.00191178	   8.93367	0.00190636	   8.93367	   47.6589	
   8.90322	 0.0018996	   8.87782	0.00191207	   8.86767	0.00191399	   8.88291	0.00190856	   8.88291	   47.7139	
   8.85258	0.00190166	   8.82622	0.00191423	   8.81701	0.00191614	   8.83194	0.00191068	   8.83194	    47.767	
    8.8015	0.00190364	   8.77415	0.00191627	   8.76582	0.00191821	   8.78049	0.00191271	   8.78049	   47.8177	
   8.74998	0.00190554	   8.72183	0.00191825	   8.71432	0.00192017	   8.72871	0.00191465	   8.72871	   47.8664	
   8.69813	0.00190733	   8.66923	 0.0019202	   8.66262	0.00192207	   8.67666	0.00191654	   8.67666	   47.9134	
   8.64584	0.00190903	   8.61614	0.00192215	   8.61037	0.00192393	   8.62412	0.00191837	   8.62412	   47.9592	
    8.5931	0.00191069	   8.56278	0.00192404	    8.5578	0.00192576	   8.57123	0.00192016	   8.57123	    48.004	
   8.54003	0.00191232	   8.50934	0.00192582	   8.50489	0.00192753	   8.51809	0.00192189	   8.51809	   48.0473	
   8.48652	0.00191393	   8.45539	0.00192748	   8.45144	0.00192924	   8.46445	0.00192355	   8.46445	   48.0887	
   8.43256	 0.0019155	   8.40125	0.00192904	   8.39766	0.00193085	   8.41049	0.00192513	   8.41049	   48.1282	
   8.37839	0.00191696	   8.34681	0.00193055	   8.34356	0.00193238	   8.35625	0.00192663	   8.35625	   48.1657	
   8.32367	0.00191833	   8.29205	0.00193208	   8.28892	0.00193384	   8.30155	0.00192808	   8.30155	   48.2021	
   8.26853	0.00191963	   8.23699	0.00193359	   8.23398	0.00193525	    8.2465	0.00192949	    8.2465	   48.2373	
   8.21318	 0.0019209	   8.18172	0.00193504	   8.17882	0.00193662	   8.19124	0.00193085	   8.19124	   48.2713	
   8.15746	0.00192213	   8.12619	0.00193636	   8.12315	0.00193789	    8.1356	0.00193213	    8.1356	   48.3033	
   8.10133	0.00192332	   8.07033	0.00193757	   8.06717	0.00193909	   8.07961	0.00193333	   8.07961	   48.3331	
   8.04501	0.00192443	   8.01427	0.00193871	   8.01101	0.00194024	   8.02343	0.00193446	   8.02343	   48.3615	
   7.98829	0.00192546	    7.9579	0.00193986	   7.95445	0.00194141	   7.96688	0.00193558	   7.96688	   48.3894	
   7.93118	0.00192641	   7.90121	  0.001941	    7.8976	 0.0019426	      7.91	0.00193667	      7.91	   48.4167	
    7.8738	0.00192732	   7.84443	0.00194208	   7.84025	0.00194373	   7.85283	0.00193771	   7.85283	   48.4427	
   7.81616	 0.0019282	   7.78723	0.00194302	   7.78265	0.00194469	   7.79535	0.00193864	   7.79535	    48.466	
   7.75815	0.00192904	   7.72973	0.00194386	   7.72479	0.00194548	   7.73756	0.00193946	   7.73756	   48.4864	
       7.7	0.00192981	   7.67204	0.00194466	   7.66658	0.00194615	   7.67954	 0.0019402	   7.67954	   48.5051	
   7.64149	0.00193051	   7.61406	0.00194547	   7.60814	0.00194683	   7.62123	0.00194094	   7.62123	   48.5234	
   7.58265	0.00193114	   7.55579	 0.0019463	   7.54946	0.00194758	   7.56263	0.00194167	   7.56263	   48.5418	
   7.52359	0.00193171	   7.49735	0.00194707	   7.49057	0.00194837	   7.50384	0.00194238	   7.50384	   48.5596	
   7.46411	0.00193224	   7.43844	0.00194771	   7.43124	0.00194909	    7.4446	0.00194301	    7.4446	   48.5753	
   7.40434	0.00193273	   7.37927	 0.0019482	   7.37163	0.00194964	   7.38508	0.00194352	   7.38508	   48.5881	
    7.3444	0.00193317	   7.31988	0.00194859	   7.31184	0.00195005	   7.32537	0.00194394	   7.32537	   48.5984	
   7.28409	0.00193355	   7.26004	0.00194897	   7.25167	0.00195038	   7.26527	 0.0019443	   7.26527	   48.6074	
   7.22353	0.00193384	       7.2	0.00194935	   7.19135	0.00195071	   7.20496	0.00194463	   7.20496	   48.6159	
   7.16273	0.00193405	   7.13956	0.00194972	   7.13068	0.00195108	   7.14433	0.00194495	   7.14433	   48.6239	
   7.10151	0.00193421	   7.07875	0.00195002	   7.06968	0.00195145	   7.08331	0.00194523	   7.08331	   48.6308	
    7.0401	0.00193433	   7.01779	0.00195021	   7.00858	0.00195173	   7.02216	0.00194542	   7.02216	   48.6356	
   6.97851	0.00193441	   6.95649	0.00195029	   6.94718	0.00195186	   6.96073	0.00194552	   6.96073	    48.638	
   6.91655	0.00193441	   6.89487	0.00195028	   6.88549	0.00195187	   6.89897	0.00194552	   6.89897	    48.638	
   6.85445	0.00193433	   6.83306	0.00195021	   6.82355	0.00195181	   6.83702	0.00194545	   6.83702	   48.6363	
   6.79191	0.00193416	   6.77085	0.00195012	   6.76125	0.00195179	   6.77467	0.00194536	   6.77467	   48.6339	
   6.72907	0.00193392	    6.7084	0.00195001	   6.69874	 0.0019518	   6.71207	0.00194524	   6.71207	   48.6311	
   6.66617	0.00193363	   6.64582	0.00194986	   6.63593	0.00195177	   6.64931	0.00194509	   6.64931	   48.6272	
   6.60289	0.00193331	   6.58292	0.00194962	   6.57274	 0.0019516	   6.58618	0.00194485	   6.58618	   48.6212	
   6.53939	0.00193295	   6.51982	0.00194925	   6.50942	0.00195125	   6.52288	0.00194448	   6.52288	   48.6121	
   6.47546	0.00193251	   6.45645	0.00194877	   6.44586	0.00195077	   6.45926	0.00194402	   6.45926	   48.6004	
   6.41115	0.00193196	   6.39272	0.00194823	    6.3821	0.00195028	   6.39532	0.00194349	   6.39532	   48.5873	
    6.3466	0.00193133	   6.32887	0.00194769	   6.31827	0.00194987	   6.33124	0.00194296	   6.33124	    48.574	
   6.28184	0.00193065	   6.26471	0.00194714	   6.25404	0.00194949	   6.26686	0.00194243	   6.26686	   48.5606	
   6.21678	0.00192994	   6.20027	0.00194655	   6.18958	0.00194904	   6.20221	0.00194184	   6.20221	   48.5461	
   6.15168	0.00192921	   6.13558	0.00194584	   6.12511	0.00194842	   6.13746	0.00194115	   6.13746	   48.5288	
   6.08622	 0.0019284	   6.07056	  0.001945	   6.06023	0.00194763	   6.07234	0.00194034	   6.07234	   48.5086	
   6.02056	0.00192751	   6.00536	0.00194407	   5.99518	0.00194675	   6.00703	0.00193945	   6.00703	   48.4861	
   5.95472	0.00192652	   5.93979	0.00194314	   5.92989	0.00194588	   5.94147	0.00193851	   5.94147	   48.4629	
   5.88863	0.00192547	   5.87388	0.00194223	   5.86438	0.00194503	   5.87563	0.00193758	   5.87563	   48.4394	
   5.82241	0.00192442	   5.80779	0.00194129	   5.79878	0.00194415	   5.80966	0.00193662	   5.80966	   48.4155	
   5.75599	0.00192335	   5.74154	0.00194024	   5.73291	0.00194316	   5.74348	0.00193558	   5.74348	   48.3895	
   5.68929	0.00192222	   5.67505	0.00193902	   5.66679	0.00194203	   5.67704	0.00193442	   5.67704	   48.3605	
   5.62245	0.00192098	   5.60847	0.00193765	   5.60036	0.00194078	   5.61043	0.00193314	   5.61043	   48.3284	
    5.5553	0.00191964	   5.54148	0.00193625	   5.53355	0.00193946	   5.54344	0.00193178	   5.54344	   48.2946	
   5.48797	0.00191823	   5.47437	0.00193489	   5.46661	0.00193815	   5.47632	0.00193042	   5.47632	   48.2606	
    5.4204	0.00191679	   5.40693	0.00193361	   5.39947	0.00193684	   5.40893	0.00192908	   5.40893	   48.2269	
   5.35261	0.00191534	   5.33922	 0.0019323	   5.33205	0.00193547	   5.34129	 0.0019277	   5.34129	   48.1926	
   5.28465	0.00191386	   5.27106	0.00193085	    5.2645	0.00193398	    5.2734	0.00192623	    5.2734	   48.1558	
   5.21624	 0.0019123	   5.20262	0.00192919	   5.19663	0.00193236	   5.20516	0.00192462	   5.20516	   48.1154	
   5.14764	0.00191063	   5.13393	0.00192737	    5.1286	0.00193064	   5.13672	0.00192288	   5.13672	    48.072	
   5.07889	0.00190885	   5.06515	0.00192553	   5.06023	0.00192889	   5.06809	0.00192109	   5.06809	   48.0273	
   5.00991	  0.001907	   4.99609	0.00192376	   4.99156	0.00192713	   4.99919	0.00191929	   4.99919	   47.9824	
   4.94085	 0.0019051	   4.92702	0.00192203	   4.92285	0.00192536	   4.93024	 0.0019175	   4.93024	   47.9374	
   4.87153	0.00190319	   4.85773	0.00192024	    4.8537	0.00192351	   4.86099	0.00191565	   4.86099	   47.8912	
   4.80199	0.00190127	   4.78828	0.00191829	   4.78439	0.00192155	   4.79155	 0.0019137	   4.79155	   47.8425	
   4.73237	0.00189931	   4.71877	0.00191614	    4.7149	0.00191947	   4.72201	0.00191164	   4.72201	    47.791	
   4.66249	0.00189728	   4.64896	 0.0019139	   4.64522	0.00191731	   4.65222	 0.0019095	   4.65222	   47.7374	
   4.59252	0.00189517	    4.5791	0.00191165	   4.57548	0.00191513	   4.58237	0.00190732	   4.58237	   47.6829	
   4.52249	0.00189297	     4.509	0.00190946	   4.50551	0.00191293	   4.51233	0.00190512	   4.51233	   47.6279	
   4.45221	0.00189068	   4.43872	0.00190727	   4.43535	0.00191068	   4.44209	0.00190288	   4.44209	    47.572	
   4.38195	0.00188835	   4.36839	0.00190498	   4.36515	0.00190835	   4.37183	0.00190056	   4.37183	    47.514	
   4.31152	0.00188599	   4.29774	0.00190251	   4.29483	0.00190591	   4.30136	0.00189814	   4.30136	   47.4534	
   4.24095	0.00188359	   4.22692	 0.0018999	   4.22443	0.00190335	   4.23077	0.00189561	   4.23077	   47.3903	
   4.17029	0.00188115	   4.15598	0.00189723	   4.15367	0.00190071	   4.15998	0.00189303	   4.15998	   47.3257	
   4.09937	0.00187861	   4.08484	0.00189458	    4.0828	0.00189805	     4.089	0.00189041	     4.089	   47.2604	
   4.02844	0.00187597	   4.01356	0.00189196	   4.01199	0.00189541	   4.01799	0.00188778	   4.01799	   47.1945	
   3.95711	0.00187324	   3.94206	0.00188931	   3.94103	0.00189276	   3.94673	 0.0018851	   3.94673	   47.1276	
   3.88565	0.00187046	   3.87051	0.00188654	   3.86997	0.00189005	   3.87538	0.00188235	   3.87538	   47.0587	
   3.81422	0.00186764	   3.79894	0.00188362	   3.79875	 0.0018872	   3.80397	0.00187949	   3.80397	   46.9872	
   3.74253	0.00186479	   3.72717	0.00188059	    3.7273	0.00188423	   3.73233	0.00187654	   3.73233	   46.9134	
   3.67083	0.00186188	   3.65525	0.00187754	   3.65588	0.00188115	   3.66065	0.00187352	   3.66065	   46.8381	
   3.59884	0.00185887	   3.58302	0.00187451	    3.5841	0.00187806	   3.58865	0.00187048	   3.58865	   46.7619	
   3.52672	0.00185574	   3.51073	0.00187147	   3.51222	0.00187498	   3.51656	 0.0018674	   3.51656	    46.685	
   3.45463	0.00185254	   3.43843	0.00186836	   3.44009	0.00187189	   3.44438	0.00186426	   3.44438	   46.6065	
   3.38227	0.00184928	   3.36595	0.00186512	   3.36774	0.00186872	   3.37199	0.00186104	   3.37199	    46.526	
   3.30981	  0.001846	   3.29343	0.00186176	   3.29544	0.00186543	   3.29956	0.00185773	   3.29956	   46.4433	
   3.23698	0.00184269	    3.2207	0.00185838	   3.22281	0.00186204	   3.22683	0.00185437	   3.22683	   46.3592	
   3.16404	0.00183933	   3.14793	0.00185501	   3.15011	0.00185857	   3.15403	0.00185097	   3.15403	   46.2743	
   3.09105	0.00183587	   3.07514	0.00185165	   3.07739	0.00185509	    3.0812	0.00184754	    3.0812	   46.1884	
   3.01784	0.00183228	   3.00217	 0.0018482	   3.00447	 0.0018516	   3.00816	0.00184403	   3.00816	   46.1007	
   2.94466	0.00182859	   2.92907	0.00184459	    2.9315	0.00184805	   2.93508	0.00184041	   2.93508	   46.0103	
   2.87114	0.00182483	   2.85577	0.00184083	   2.85822	0.00184443	   2.86171	 0.0018367	   2.86171	   45.9175	
   2.79754	0.00182105	   2.78243	0.00183698	   2.78488	0.00184071	   2.78829	0.00183292	   2.78829	   45.8229	
   2.72402	0.00181726	    2.7091	0.00183313	   2.71154	0.00183691	   2.71489	 0.0018291	   2.71489	   45.7275	
   2.65028	 0.0018134	    2.6356	0.00182931	   2.63802	0.00183305	    2.6413	0.00182525	    2.6413	   45.6314	
   2.57661	0.00180944	   2.56209	0.00182547	   2.56438	0.00182916	   2.56769	0.00182136	   2.56769	    45.534	
   2.50271	0.00180537	   2.48839	0.00182152	   2.49054	0.00182524	   2.49388	0.00181737	   2.49388	   45.4343	
   2.42874	0.00180122	   2.41466	0.00181741	   2.41669	0.00182123	   2.42003	0.00181329	   2.42003	   45.3321	
   2.35455	0.00179704	   2.34095	0.00181315	   2.34274	0.00181714	   2.34608	0.00180911	   2.34608	   45.2278	
   2.28019	0.00179285	   2.26708	0.00180884	   2.26864	0.00181297	   2.27197	0.00180489	   2.27197	   45.1221	
   2.20581	 0.0017886	   2.19331	0.00180454	   2.19445	0.00180873	   2.19786	0.00180062	   2.19786	   45.0156	
   2.13115	0.00178426	   2.11925	0.00180025	    2.1201	0.00180444	    2.1235	0.00179632	    2.1235	    44.908	
   2.05648	0.00177981	   2.04517	0.00179591	   2.04575	0.00180011	   2.04914	0.00179194	   2.04914	   44.7985	
   1.98173	0.00177527	   1.97112	0.00179144	   1.97123	 0.0017957	    1.9747	0.00178747	    1.9747	   44.6867	
   1.90685	 0.0017707	   1.89692	0.00178682	    1.8966	0.00179121	   1.90013	0.00178291	   1.90013	   44.5728	
     1.832	0.00176613	   1.82273	 0.0017821	   1.82191	0.00178664	   1.82555	0.00177829	   1.82555	   44.4573	
    1.7569	0.00176153	   1.74838	0.00177736	   1.74699	0.00178201	   1.75075	0.00177363	   1.75075	   44.3408	
   1.68182	0.00175684	   1.67402	0.00177263	   1.67212	0.00177732	   1.67598	0.00176893	   1.67598	   44.2233	
   1.60671	0.00175205	   1.59959	0.00176789	   1.59712	0.00177259	   1.60114	0.00176418	   1.60114	   44.1044	
   1.53149	0.00174717	   1.52504	0.00176307	   1.52205	0.00176779	   1.52619	0.00175934	   1.52619	   43.9836	
   1.45624	0.00174223	   1.45031	0.00175813	   1.44696	0.00176293	   1.45117	0.00175443	   1.45117	   43.8607	
   1.38077	0.00173726	   1.37535	0.00175307	   1.37168	0.00175799	   1.37593	0.00174944	   1.37593	    43.736	
   1.30536	0.00173227	   1.30044	0.00174794	   1.29647	0.00175297	   1.30076	0.00174439	   1.30076	   43.6098	
   1.22985	0.00172723	   1.22529	0.00174279	   1.22128	 0.0017479	   1.22547	 0.0017393	   1.22547	   43.4826	
   1.15427	0.00172209	   1.15007	0.00173764	   1.14604	0.00174278	   1.15013	0.00173417	   1.15013	   43.3543	
   1.07859	0.00171686	   1.07494	0.00173246	   1.07068	0.00173762	   1.07474	0.00172898	   1.07474	   43.2245	
   1.00273	0.00171154	  0.999612	0.00172719	  0.995162	 0.0017324	  0.999169	0.00172371	  0.999169	   43.0928	
  0.926881	0.00170616	  0.924361	 0.0017218	  0.919746	0.00172713	  0.923663	0.00171836	  0.923663	   42.9591	
   0.85097	0.00170076	  0.849015	0.00171629	  0.844365	 0.0017218	  0.848117	0.00171295	  0.848117	   42.8238	
  0.775048	0.00169533	  0.773623	0.00171071	  0.768955	0.00171638	  0.772542	0.00170747	  0.772542	   42.6869	
  0.699058	0.00168984	  0.698444	0.00170511	   0.69367	0.00171086	  0.697057	0.00170193	  0.697057	   42.5484	
  0.622945	0.00168425	  0.623082	0.00169947	  0.618329	0.00170525	  0.621452	0.00169632	  0.621452	   42.4081	
  0.546872	0.00167855	  0.547805	0.00169377	  0.543086	 0.0016996	  0.545921	0.00169064	  0.545921	   42.2659	
  0.470986	0.00167276	   0.47244	0.00168796	  0.467765	0.00169393	  0.470397	0.00168488	  0.470397	   42.1221	
  0.395105	 0.0016669	  0.397037	0.00168203	  0.392416	0.00168823	  0.394853	0.00167905	  0.394853	   41.9763	
  0.319275	0.00166103	  0.321749	0.00167601	  0.317192	0.00168245	  0.319405	0.00167316	  0.319405	    41.829	
  0.243431	0.00165519	  0.246292	0.00166996	  0.241807	0.00167655	  0.243843	0.00166723	  0.243843	   41.6809	
  0.167619	0.00164936	  0.170935	0.00166391	  0.166528	0.00167057	  0.168361	0.00166128	  0.168361	    41.532	
 0.0917789	0.00164347	 0.0953989	0.00165783	 0.0910767	0.00166454	 0.0927515	0.00165528	 0.0927515	    41.382	
 0.0159562	0.00163742	  0.019848	0.00165164	 0.0156158	0.00165851	   0.01714	0.00164919	   0.01714	   41.2297	
-0.0599094	0.00163119	-0.0556712	0.00164531	-0.0599143	0.00165243	-0.0584983	0.00164297	-0.0584983	   41.0744	
 -0.135876	0.00162483	  -0.13133	0.00163888	 -0.135465	0.00164624	 -0.134223	0.00163665	 -0.134223	   40.9162	
 -0.211679	0.00161848	 -0.206861	0.00163241	 -0.210989	0.00163995	 -0.209843	0.00163028	 -0.209843	    40.757	
 -0.287497	0.00161221	 -0.282441	0.00162594	 -0.286445	 0.0016336	 -0.285461	0.00162392	 -0.285461	   40.5979	
 -0.363285	0.00160597	 -0.358023	0.00161946	 -0.362005	0.00162722	 -0.361104	0.00161755	 -0.361104	   40.4388	
 -0.438893	0.00159965	 -0.433561	0.00161292	 -0.437406	0.00162081	  -0.43662	0.00161112	  -0.43662	   40.2781	
  -0.51461	0.00159312	 -0.509122	0.00160624	 -0.512935	0.00161432	 -0.512222	0.00160456	 -0.512222	    40.114	
 -0.590171	0.00158639	 -0.584657	0.00159945	 -0.588431	0.00160771	 -0.587753	0.00159785	 -0.587753	   39.9463	
 -0.665859	0.00157959	 -0.660229	0.00159259	 -0.663854	0.00160101	 -0.663314	0.00159107	 -0.663314	   39.7766	
 -0.741513	0.00157284	 -0.735792	0.00158572	 -0.739269	0.00159426	 -0.738858	0.00158427	 -0.738858	   39.6068	
 -0.816985	0.00156619	 -0.811406	0.00157884	 -0.814527	0.00158746	 -0.814306	 0.0015775	 -0.814306	   39.4374	
 -0.892564	0.00155954	 -0.886919	0.00157189	 -0.889916	0.00158062	 -0.889799	0.00157068	 -0.889799	   39.2671	
 -0.967987	0.00155276	 -0.962295	0.00156484	 -0.965273	 0.0015737	 -0.965185	0.00156376	 -0.965185	   39.0941	
  -1.04343	0.00154575	  -1.03771	0.00155767	  -1.04067	0.00156667	   -1.0406	 0.0015567	   -1.0406	   38.9174	
  -1.11885	0.00153855	  -1.11312	0.00155044	  -1.11605	0.00155951	  -1.11601	 0.0015495	  -1.11601	   38.7375	
  -1.19421	0.00153127	  -1.18849	0.00154319	  -1.19137	0.00155226	  -1.19136	0.00154224	  -1.19136	    38.556	
  -1.26955	0.00152403	  -1.26372	 0.0015359	  -1.26682	0.00154497	   -1.2667	0.00153497	   -1.2667	   38.3742	
  -1.34475	0.00151685	  -1.33883	0.00152855	  -1.34212	0.00153767	   -1.3419	0.00152769	   -1.3419	   38.1922	
  -1.41987	0.00150962	   -1.4139	0.00152109	  -1.41735	0.00153036	  -1.41704	0.00152036	  -1.41704	   38.0089	
  -1.49499	0.00150225	  -1.48898	 0.0015135	  -1.49257	  0.001523	  -1.49218	0.00151292	  -1.49218	    37.823	
  -1.56996	0.00149469	  -1.56393	0.00150584	  -1.56753	 0.0015155	  -1.56714	0.00150534	  -1.56714	   37.6336	
  -1.64496	0.00148701	  -1.63871	0.00149816	  -1.64253	0.00150782	  -1.64207	0.00149766	  -1.64207	   37.4415	
  -1.71984	 0.0014793	  -1.71341	0.00149047	  -1.71742	0.00150001	  -1.71689	0.00148993	  -1.71689	   37.2482	
  -1.79467	0.00147163	  -1.78788	0.00148276	  -1.79206	0.00149215	  -1.79154	0.00148218	  -1.79154	   37.0546	
  -1.86952	0.00146395	  -1.86243	0.00147497	  -1.86663	0.00148432	  -1.86619	0.00147441	  -1.86619	   36.8604	
  -1.94414	0.00145613	  -1.93678	0.00146708	    -1.941	 0.0014765	  -1.94064	0.00146657	  -1.94064	   36.6643	
  -2.01872	0.00144815	  -2.01113	0.00145908	  -2.01535	0.00146862	  -2.01507	0.00145862	  -2.01507	   36.4655	
  -2.09322	0.00144011	  -2.08545	0.00145103	  -2.08965	0.00146059	  -2.08944	0.00145057	  -2.08944	   36.2644	
   -2.1677	0.00143207	  -2.15968	0.00144296	  -2.16387	0.00145239	  -2.16375	0.00144247	  -2.16375	   36.0618	
  -2.24224	0.00142409	   -2.2339	0.00143486	  -2.23795	 0.0014441	  -2.23803	0.00143435	  -2.23803	   35.8588	
  -2.31658	0.00141611	  -2.30797	0.00142671	  -2.31189	0.00143579	  -2.31215	 0.0014262	  -2.31215	   35.6551	
  -2.39069	0.00140797	  -2.38187	0.00141847	  -2.38585	0.00142749	  -2.38614	0.00141798	  -2.38614	   35.4494	
  -2.46477	0.00139958	  -2.45577	0.00141014	  -2.45981	0.00141917	  -2.46012	0.00140963	  -2.46012	   35.2407	
  -2.53867	0.00139101	  -2.52953	0.00140174	  -2.53362	0.00141075	  -2.53394	0.00140117	  -2.53394	   35.0291	
  -2.61268	0.00138242	  -2.60324	 0.0013933	  -2.60735	0.00140219	  -2.60776	0.00139264	  -2.60776	   34.8159	
  -2.68656	0.00137392	  -2.67685	0.00138483	  -2.68097	0.00139351	  -2.68146	0.00138408	  -2.68146	   34.6021	
  -2.76015	0.00136549	  -2.75024	 0.0013763	  -2.75436	0.00138476	  -2.75492	0.00137552	  -2.75492	   34.3879	
  -2.83356	0.00135702	  -2.82359	 0.0013677	  -2.82781	0.00137599	  -2.82832	 0.0013669	  -2.82832	   34.1726	
  -2.90676	0.00134834	  -2.89677	0.00135899	  -2.90117	0.00136722	  -2.90157	0.00135818	  -2.90157	   33.9546	
  -2.97985	0.00133945	  -2.96997	0.00135019	  -2.97441	0.00135839	  -2.97474	0.00134935	  -2.97474	   33.7336	
  -3.05289	0.00133045	  -3.04314	0.00134134	  -3.04751	0.00134947	  -3.04784	0.00134042	  -3.04784	   33.5104	
  -3.12575	0.00132145	  -3.11604	0.00133246	  -3.12043	0.00134041	  -3.12074	0.00133144	  -3.12074	    33.286	
  -3.19872	0.00131254	  -3.18898	0.00132358	  -3.19348	0.00133124	  -3.19373	0.00132246	  -3.19373	   33.0614	
  -3.27156	0.00130368	  -3.26181	0.00131468	   -3.2664	0.00132201	  -3.26659	0.00131346	  -3.26659	   32.8364	
  -3.34412	0.00129473	  -3.33462	0.00130571	  -3.33906	0.00131276	  -3.33927	 0.0013044	  -3.33927	   32.6099	
  -3.41672	0.00128563	  -3.40714	0.00129662	  -3.41166	0.00130347	  -3.41184	0.00129524	  -3.41184	    32.381	
  -3.48911	0.00127639	  -3.47949	 0.0012874	  -3.48406	0.00129412	  -3.48422	0.00128597	  -3.48422	   32.1492	
  -3.56138	0.00126709	  -3.55175	0.00127811	  -3.55614	0.00128466	  -3.55642	0.00127662	  -3.55642	   31.9155	
   -3.6335	0.00125779	    -3.624	0.00126881	  -3.62821	0.00127509	  -3.62857	0.00126723	  -3.62857	   31.6807	
  -3.70535	 0.0012485	  -3.69599	0.00125953	  -3.70003	0.00126546	  -3.70046	0.00125783	  -3.70046	   31.4457	
  -3.77712	0.00123918	  -3.76793	0.00125023	  -3.77179	0.00125578	  -3.77228	 0.0012484	  -3.77228	     31.21	
   -3.8488	0.00122978	  -3.83967	0.00124086	  -3.84348	0.00124607	  -3.84398	 0.0012389	  -3.84398	   30.9726	
  -3.92015	0.00122027	  -3.91121	0.00123137	  -3.91485	0.00123631	   -3.9154	0.00122931	   -3.9154	   30.7329	
  -3.99138	0.00121068	  -3.98264	0.00122176	  -3.98611	0.00122646	  -3.98671	0.00121963	  -3.98671	   30.4908	
  -4.06246	0.00120106	  -4.05393	 0.0012121	  -4.05724	0.00121651	  -4.05788	0.00120989	  -4.05788	   30.2472	
  -4.13349	0.00119143	  -4.12507	0.00120244	  -4.12811	0.00120649	  -4.12889	0.00120012	  -4.12889	    30.003	
  -4.20433	0.00118178	  -4.19615	0.00119279	  -4.19893	0.00119642	   -4.1998	0.00119033	   -4.1998	   29.7582	
  -4.27498	0.00117206	  -4.26703	0.00118309	  -4.26958	0.00118631	  -4.27053	0.00118049	  -4.27053	   29.5122	
  -4.34541	0.00116225	   -4.3376	0.00117329	  -4.33993	0.00117615	  -4.34098	0.00117056	  -4.34098	   29.2641	
  -4.41584	0.00115234	  -4.40807	 0.0011634	  -4.41029	0.00116591	   -4.4114	0.00116055	   -4.4114	   29.0137	
  -4.48603	0.00114236	  -4.47831	0.00115342	  -4.48043	0.00115559	  -4.48159	0.00115046	  -4.48159	   28.7615	
  -4.55607	0.00113236	  -4.54832	0.00114341	  -4.55034	0.00114522	  -4.55158	0.00114033	  -4.55158	   28.5083	
  -4.62606	0.00112236	   -4.6183	0.00113336	  -4.62022	0.00113481	  -4.62153	0.00113017	  -4.62153	   28.2543	
  -4.69576	0.00111232	  -4.68801	0.00112323	  -4.68985	0.00112437	  -4.69121	0.00111997	  -4.69121	   27.9993	
  -4.76538	 0.0011022	  -4.75767	0.00111302	   -4.7592	0.00111388	  -4.76075	 0.0011097	  -4.76075	   27.7425	
  -4.83491	0.00109199	  -4.82725	0.00110273	  -4.82851	0.00110333	  -4.83022	0.00109935	  -4.83022	   27.4838	
  -4.90412	0.00108169	  -4.89664	 0.0010924	  -4.89753	0.00109273	  -4.89943	0.00108894	  -4.89943	   27.2235	
  -4.97322	0.00107135	  -4.96581	0.00108207	  -4.96638	0.00108207	  -4.96847	 0.0010785	  -4.96847	   26.9625	
   -5.0422	0.00106101	  -5.03488	0.00107173	  -5.03514	0.00107136	  -5.03741	0.00106803	  -5.03741	   26.7009	
  -5.11094	0.00105065	  -5.10362	0.00106137	   -5.1036	0.00106061	  -5.10606	0.00105754	  -5.10606	   26.4386	
  -5.17951	0.00104024	  -5.17221	 0.0010509	  -5.17194	0.00104982	  -5.17455	0.00104699	  -5.17455	   26.1746	
  -5.24793	0.00102975	  -5.24057	0.00104026	  -5.24017	0.00103897	  -5.24289	0.00103633	  -5.24289	   25.9082	
    -5.316	0.00101918	  -5.30765	0.00102949	  -5.30809	0.00102806	  -5.31058	0.00102558	  -5.31058	   25.6394	
  -5.38383	0.00100854	  -5.37437	0.00101868	   -5.3758	0.00101709	    -5.378	0.00101477	    -5.378	   25.3693	
  -5.45152	0.00099787	  -5.44108	0.00100786	  -5.44341	0.00100607	  -5.44534	0.00100393	  -5.44534	   25.0983	
  -5.51895	0.000987174	  -5.50755	0.000997064	  -5.51069	0.000994984	   -5.5124	0.000993074	   -5.5124	   24.8269	
  -5.58614	0.00097644	  -5.57472	0.000986289	  -5.57766	0.000983849	  -5.57951	0.000982193	  -5.57951	   24.5548	
   -5.6532	0.000965639	  -5.64201	0.000975467	  -5.64454	0.000972663	  -5.64658	0.000971256	  -5.64658	   24.2814	
  -5.72001	0.000954754	  -5.70916	0.000964543	  -5.71111	0.000961421	  -5.71343	0.000960239	  -5.71343	    24.006	
  -5.78668	0.000943786	  -5.77598	0.000953515	  -5.77728	0.000950109	  -5.77998	0.000949137	  -5.77998	   23.7284	
  -5.85321	0.000932759	  -5.84215	0.000942412	  -5.84338	0.000938725	  -5.84625	0.000937965	  -5.84625	   23.4491	
   -5.9194	0.000921695	  -5.90792	0.000931259	   -5.9092	0.000927291	  -5.91217	0.000926748	  -5.91217	   23.1687	
  -5.98546	0.000910601	  -5.97333	0.000920058	  -5.97463	0.000915853	  -5.97781	0.000915504	  -5.97781	   22.8876	
   -6.0513	0.000899456	  -6.03859	 0.0009088	  -6.04003	0.000904438	  -6.04331	0.000904232	  -6.04331	   22.6058	
   -6.1168	0.000888239	  -6.10361	0.000897474	  -6.10518	0.000893023	  -6.10853	0.000892912	  -6.10853	   22.3228	
  -6.18199	0.000876939	   -6.1685	0.000886074	  -6.16986	0.000881545	  -6.17345	0.000881519	  -6.17345	    22.038	
   -6.2471	0.000865573	  -6.23337	0.000874622	  -6.23444	0.00086994	   -6.2383	0.000870045	   -6.2383	   21.7511	
   -6.3119	0.000854161	    -6.298	0.000863129	   -6.2988	0.000858182	   -6.3029	0.000858491	   -6.3029	   21.4623	
  -6.37622	0.000842718	   -6.3622	0.000851593	  -6.36275	0.000846306	  -6.36705	0.000846872	  -6.36705	   21.1718	
  -6.44039	0.000831237	  -6.42599	0.000840002	   -6.4261	0.000834388	  -6.43083	0.000835209	  -6.43083	   20.8802	
  -6.50432	0.000819696	  -6.48951	0.000828346	   -6.4889	0.000822514	  -6.49424	0.000823519	  -6.49424	    20.588	
  -6.56792	0.000808078	  -6.55267	0.000816621	   -6.5514	0.000810713	  -6.55733	0.000811804	  -6.55733	   20.2951	
  -6.63152	0.000796379	   -6.6156	0.000804833	  -6.61427	0.000798944	  -6.62046	0.000800052	  -6.62046	   20.0013	
  -6.69492	0.00078461	  -6.67843	0.000792998	  -6.67736	0.00078712	  -6.68357	0.000788243	  -6.68357	   19.7061	
  -6.75791	0.000772792	  -6.74096	0.000781129	  -6.74065	0.000775159	  -6.74651	0.00077636	  -6.74651	    19.409	
  -6.82063	0.000760944	  -6.80341	0.000769221	  -6.80339	0.00076304	  -6.80914	0.000764402	  -6.80914	     19.11	
  -6.88322	0.000749061	  -6.86569	0.00075726	  -6.86562	0.000750823	  -6.87151	0.000752381	  -6.87151	   18.8095	
  -6.94546	0.000737128	  -6.92771	0.000745229	  -6.92735	0.000738594	  -6.93351	0.000740317	  -6.93351	   18.5079	
  -7.00729	0.000725126	  -6.98929	0.000733124	  -6.98866	0.000726414	  -6.99508	0.000728221	  -6.99508	   18.2055	
  -7.06884	0.000713044	  -7.05056	0.000720958	  -7.04968	0.00071426	  -7.05636	0.000716087	  -7.05636	   17.9022	
  -7.13013	0.00070089	  -7.11155	0.000708746	  -7.11057	0.000702046	  -7.11742	0.000703894	  -7.11742	   17.5973	
  -7.19099	0.000688701	  -7.17229	0.000696494	  -7.17121	0.000689698	  -7.17817	0.000691631	  -7.17817	   17.2908	
  -7.25156	0.000676507	  -7.23271	0.000684192	  -7.23144	0.000677229	  -7.23857	0.000679309	  -7.23857	   16.9827	
  -7.31187	0.000664298	  -7.29293	0.000671825	  -7.29149	0.000664717	  -7.29877	0.000666947	  -7.29877	   16.6737	
  -7.37184	0.000652021	  -7.35289	0.000659387	   -7.3513	0.000652235	  -7.35868	0.000654548	  -7.35868	   16.3637	
   -7.4313	0.000639642	   -7.4125	0.000646891	  -7.41068	0.000639792	  -7.41816	0.000642108	  -7.41816	   16.0527	
  -7.49041	0.000627174	  -7.47169	0.000634352	  -7.46978	0.000627325	  -7.47729	0.000629617	  -7.47729	   15.7404	
  -7.54931	0.000614698	  -7.53073	0.000621781	  -7.52874	0.000614757	  -7.53626	0.000617078	  -7.53626	    15.427	
  -7.60771	0.000602254	  -7.58942	0.000609175	  -7.58737	0.000602074	  -7.59483	0.000604501	  -7.59483	   15.1125	
  -7.66557	0.000589783	  -7.64782	0.00059652	   -7.6456	0.00058932	    -7.653	0.000591874	    -7.653	   14.7969	
  -7.72273	0.000577183	  -7.70584	0.000583809	  -7.70371	0.000576553	  -7.71076	0.000579182	  -7.71076	   14.4795	
  -7.77959	0.00056443	  -7.76365	0.000571043	  -7.76159	0.000563812	  -7.76828	0.000566428	  -7.76828	   14.1607	
  -7.83619	0.000551589	  -7.82106	0.000558235	  -7.81909	0.000551075	  -7.82544	0.000553633	  -7.82544	   13.8408	
  -7.89288	0.000538812	  -7.87812	0.000545397	  -7.87624	0.000538301	  -7.88241	0.000540837	  -7.88241	   13.5209	
  -7.94967	0.000526172	   -7.9351	0.00053253	   -7.9332	0.000525468	  -7.93932	0.000528057	  -7.93932	   13.2014	
  -8.00648	0.000513579	   -7.9918	0.000519626	  -7.98989	0.00051258	  -7.99605	0.000515262	  -7.99605	   12.8815	
  -8.06299	0.000500856	  -8.04806	0.000506676	  -8.04615	0.000499653	   -8.0524	0.000502395	   -8.0524	   12.5599	
  -8.11885	0.000487901	  -8.10403	0.000493687	  -8.10213	0.000486715	  -8.10834	0.000489434	  -8.10834	   12.2359	
  -8.17411	0.000474771	  -8.15988	0.000480666	  -8.15799	0.000473774	    -8.164	0.000476404	    -8.164	   11.9101	
  -8.22907	0.000461606	  -8.21542	0.000467621	  -8.21356	0.000460816	  -8.21935	0.000463348	  -8.21935	   11.5837	
  -8.28357	0.000448575	  -8.27049	0.00045454	  -8.26866	0.000447822	  -8.27424	0.000450312	  -8.27424	   11.2578	
  -8.33809	0.000435696	  -8.32536	0.000441413	  -8.32325	0.000434781	   -8.3289	0.000437297	   -8.3289	   10.9324	
  -8.39245	0.000422877	  -8.37998	0.000428239	  -8.37772	0.000421689	  -8.38338	0.000424268	  -8.38338	   10.6067	
  -8.44647	0.000409953	  -8.43427	0.000415034	  -8.43179	0.000408572	  -8.43751	0.000411186	  -8.43751	   10.2797	
  -8.50014	0.000396847	   -8.4881	0.000401815	  -8.48542	0.000395457	  -8.49122	0.00039804	  -8.49122	     9.951	
  -8.55358	0.000383589	  -8.54141	0.000388573	  -8.53856	0.000382356	  -8.54452	0.000384839	  -8.54452	   9.62097	
  -8.60675	0.000370311	  -8.59439	0.000375298	  -8.59139	0.000369235	  -8.59751	0.000371615	  -8.59751	   9.29036	
  -8.65959	0.000357127	  -8.64709	0.000361982	  -8.64398	0.000356053	  -8.65022	0.000358388	  -8.65022	   8.95969	
  -8.71196	0.000344047	  -8.69937	0.000348631	  -8.69616	0.000342805	   -8.7025	0.000345161	   -8.7025	   8.62902	
  -8.76403	0.000330971	  -8.75118	0.000335272	  -8.74789	0.00032952	  -8.75437	0.000331921	  -8.75437	   8.29803	
  -8.81585	0.000317797	  -8.80281	0.000321918	  -8.79947	0.000316246	  -8.80604	0.000318653	  -8.80604	   7.96634	
  -8.86739	0.000304481	  -8.85421	0.000308538	  -8.85061	0.000303006	   -8.8574	0.000305342	   -8.8574	   7.63354	
  -8.91848	0.000291092	  -8.90521	0.000295112	   -8.9014	0.000289768	  -8.90836	0.00029199	  -8.90836	   7.29976	
   -8.9691	0.000277738	  -8.95569	0.000281638	   -8.9518	0.000276501	  -8.95886	0.000278626	  -8.95886	   6.96564	
  -9.01933	0.000264484	  -9.00593	0.000268134	  -9.00188	0.000263178	  -9.00904	0.000265265	  -9.00904	   6.63163	
  -9.06934	0.000251291	    -9.056	0.000254635	   -9.0516	0.000249822	  -9.05898	0.000251916	  -9.05898	    6.2979	
  -9.11899	0.000238079	  -9.10574	0.000241161	  -9.10104	0.000236467	  -9.10859	0.000238569	  -9.10859	   5.96422	
  -9.16814	0.000224753	  -9.15501	0.000227691	  -9.15005	0.000223127	  -9.15773	0.00022519	  -9.15773	   5.62976	
  -9.21708	0.000211289	  -9.20378	0.000214193	  -9.19861	0.000209787	  -9.20649	0.000211756	  -9.20649	    5.2939	
  -9.26588	0.000197743	  -9.25215	0.000200644	   -9.2469	0.000196415	  -9.25498	0.000198267	  -9.25498	   4.95668	
  -9.31438	0.000184238	   -9.3002	0.000187052	  -9.29501	0.000182996	   -9.3032	0.000184762	   -9.3032	   4.61905	
  -9.36245	0.000170852	  -9.34789	0.000173446	  -9.34277	0.000169537	  -9.35104	0.000171278	  -9.35104	   4.28196	
  -9.41016	0.000157571	   -9.3951	0.000159855	  -9.39007	0.000156064	  -9.39844	0.00015783	  -9.39844	   3.94575	
  -9.45729	0.000144273	  -9.44181	0.000146287	  -9.43698	 0.0001426	  -9.44536	0.000144386	  -9.44536	   3.60966	
  -9.50414	0.000130824	  -9.48821	0.000132715	  -9.48359	0.000129146	  -9.49198	0.000130895	  -9.49198	   3.27238	
  -9.55069	0.00011721	   -9.5344	0.000119107	  -9.52987	0.000115681	  -9.53832	0.000117333	  -9.53832	   2.93332	
  -9.59679	0.000103557	  -9.58022	0.000105453	  -9.57581	0.000102186	  -9.58428	0.000103732	  -9.58428	    2.5933	
  -9.64234	9.0016e-05	  -9.62557	9.17736e-05	  -9.62127	8.86445e-05	  -9.62973	9.01447e-05	  -9.62973	   2.25362	
  -9.68743	7.66449e-05	  -9.67031	7.81003e-05	  -9.66614	7.50676e-05	  -9.67463	7.66043e-05	  -9.67463	   1.91511	
  -9.73227	6.33831e-05	  -9.71478	6.44604e-05	  -9.71085	6.14843e-05	   -9.7193	6.31093e-05	   -9.7193	   1.57773	
  -9.77682	5.00571e-05	  -9.75895	5.0857e-05	  -9.75524	4.79127e-05	  -9.76367	4.96089e-05	  -9.76367	   1.24022	
  -9.82097	3.65563e-05	  -9.80279	3.7263e-05	  -9.79932	3.4355e-05	  -9.80769	3.60581e-05	  -9.80769	  0.901454	
  -9.86459	2.29393e-05	  -9.84619	2.36401e-05	  -9.84294	2.07941e-05	  -9.85124	2.24578e-05	  -9.85124	  0.561446	
  -9.90769	9.35475e-06	  -9.88905	9.96317e-06	  -9.88601	7.19295e-06	  -9.89425	8.83696e-06	  -9.89425	  0.220924	
  -9.95038	-4.05176e-06	  -9.93146	-3.74522e-06	  -9.92853	-6.46538e-06	  -9.93679	-4.75412e-06	  -9.93679	 -0.118853	
  -9.99286	-1.73063e-05	  -9.97353	-1.74473e-05	  -9.97071	-2.01397e-05	  -9.97903	-1.82978e-05	  -9.97903	 -0.457444	
   -10.035	-3.0582e-05	  -10.0153	-3.11039e-05	  -10.0126	-3.37684e-05	  -10.0209	-3.18181e-05	  -10.0209	 -0.795453	
  -10.0758	-4.40263e-05	  -10.0566	-4.47093e-05	   -10.054	-4.73213e-05	  -10.0621	-4.53523e-05	  -10.0621	  -1.13381	
  -10.1162	-5.76656e-05	  -10.0975	-5.8289e-05	  -10.0951	-6.08266e-05	   -10.103	-5.89271e-05	   -10.103	  -1.47318	
  -10.1558	-7.13735e-05	  -10.1379	-7.18829e-05	  -10.1355	-7.43423e-05	  -10.1431	-7.25329e-05	  -10.1431	  -1.81332	
  -10.1956	-8.49561e-05	  -10.1778	-8.55133e-05	  -10.1755	-8.79247e-05	   -10.183	-8.61314e-05	   -10.183	  -2.15328	
  -10.2354	-9.8313e-05	  -10.2174	-9.9179e-05	  -10.2152	-0.000101584	  -10.2227	-9.96919e-05	  -10.2227	   -2.4923	
  -10.2752	-0.000111506	  -10.2566	-0.000112848	  -10.2546	-0.000115271	  -10.2621	-0.000113208	  -10.2621	  -2.83021	
   -10.315	-0.000124727	  -10.2955	-0.000126482	  -10.2938	-0.000128924	  -10.3014	-0.000126711	  -10.3014	  -3.16777	
   -10.354	-0.000138125	   -10.334	-0.000140056	  -10.3325	-0.000142508	  -10.3402	-0.00014023	  -10.3402	  -3.50575	
  -10.3927	-0.000151718	   -10.372	-0.000153588	  -10.3706	-0.000156028	  -10.3784	-0.000153778	  -10.3784	  -3.84445	
  -10.4308	-0.000165367	  -10.4095	-0.000167121	  -10.4085	-0.000169516	  -10.4163	-0.000167335	  -10.4163	  -4.18337	
  -10.4681	-0.000178875	  -10.4465	-0.000180688	  -10.4457	-0.000183013	  -10.4534	-0.000180859	  -10.4534	  -4.52147	
  -10.5053	-0.00019217	  -10.4833	-0.00019429	  -10.4828	-0.000196542	  -10.4904	-0.000194334	  -10.4904	  -4.85835	
  -10.5418	-0.000205348	  -10.5197	-0.000207893	  -10.5195	-0.000210094	   -10.527	-0.000207778	   -10.527	  -5.19446	
  -10.5781	-0.000218585	  -10.5558	-0.000221452	  -10.5558	-0.000223637	  -10.5632	-0.000221225	  -10.5632	  -5.53061	
  -10.6141	-0.000232002	  -10.5914	-0.000234953	  -10.5916	-0.00023714	   -10.599	-0.000234698	   -10.599	  -5.86745	
  -10.6496	-0.000245576	  -10.6266	-0.000248417	  -10.6269	-0.000250596	  -10.6344	-0.000248196	  -10.6344	  -6.20491	
  -10.6846	-0.000259151	  -10.6613	-0.00026188	  -10.6617	-0.000264017	  -10.6692	-0.000261683	  -10.6692	  -6.54207	
  -10.7192	-0.000272562	  -10.6958	-0.000275365	  -10.6959	-0.000277426	  -10.7036	-0.000275118	  -10.7036	  -6.87794	
  -10.7534	-0.000285759	  -10.7298	-0.000288863	  -10.7298	-0.000290837	  -10.7377	-0.000288486	  -10.7377	  -7.21216	
  -10.7874	-0.000298833	  -10.7636	-0.000302353	  -10.7635	-0.000304248	  -10.7715	-0.000301811	  -10.7715	  -7.54528	
  -10.8209	-0.000311939	  -10.7971	-0.000315811	   -10.797	-0.000317637	   -10.805	-0.000315129	   -10.805	  -7.87822	
  -10.8539	-0.000325187	  -10.8301	-0.00032923	  -10.8299	-0.000330975	   -10.838	-0.000328464	   -10.838	   -8.2116	
  -10.8864	-0.000338557	  -10.8626	-0.000342628	  -10.8625	-0.000344232	  -10.8705	-0.000341806	  -10.8705	  -8.54515	
  -10.9183	-0.00035192	  -10.8946	-0.000356043	  -10.8944	-0.00035743	  -10.9025	-0.000355131	  -10.9025	  -8.87828	
  -10.9496	-0.000365145	  -10.9262	-0.000369448	  -10.9257	-0.000370627	  -10.9339	-0.000368407	  -10.9339	  -9.21017	
  -10.9806	-0.000378204	  -10.9575	-0.000382807	  -10.9562	-0.000383886	  -10.9648	-0.000381632	  -10.9648	  -9.54081	
  -11.0113	-0.00039118	  -10.9887	-0.000396081	   -10.986	-0.000397212	  -10.9953	-0.000394824	  -10.9953	  -9.87061	
  -11.0417	-0.0004042	  -11.0196	-0.000409292	  -11.0152	-0.000410544	  -11.0255	-0.000408012	  -11.0255	  -10.2003	
  -11.0718	-0.000417333	  -11.0502	-0.00042252	  -11.0442	-0.000423787	  -11.0554	-0.000421213	  -11.0554	  -10.5303	
  -11.1015	-0.000430536	  -11.0799	-0.000435832	  -11.0732	-0.000436878	  -11.0849	-0.000434415	  -11.0849	  -10.8604	
  -11.1306	-0.000443696	  -11.1093	-0.00044921	  -11.1025	-0.000449842	  -11.1142	-0.000447583	  -11.1142	  -11.1896	
  -11.1592	-0.000456724	  -11.1381	-0.000462544	  -11.1319	-0.000462769	  -11.1431	-0.000460679	  -11.1431	   -11.517	
  -11.1874	-0.000469625	  -11.1665	-0.000475742	  -11.1606	-0.000475745	  -11.1715	-0.000473704	  -11.1715	  -11.8426	
  -11.2148	-0.000482488	  -11.1947	-0.000488804	  -11.1888	-0.000488791	  -11.1994	-0.000486695	  -11.1994	  -12.1674	
   -11.242	-0.000495405	  -11.2218	-0.000501805	  -11.2163	-0.000501866	  -11.2267	-0.000499692	  -11.2267	  -12.4923	
  -11.2687	-0.000508397	  -11.2487	-0.000514863	   -11.243	-0.000514891	  -11.2535	-0.000512717	  -11.2535	  -12.8179	
  -11.2953	-0.000521398	  -11.2749	-0.000528029	  -11.2693	-0.000527822	  -11.2798	-0.000525749	  -11.2798	  -13.1437	
  -11.3215	-0.000534313	  -11.3008	-0.000541229	   -11.295	-0.000540649	  -11.3058	-0.00053873	  -11.3058	  -13.4683	
  -11.3473	-0.000547104	  -11.3269	-0.000554355	  -11.3204	-0.000553415	  -11.3315	-0.000551625	  -11.3315	  -13.7906	
  -11.3728	-0.00055981	  -11.3519	-0.000567357	  -11.3455	-0.000566185	  -11.3567	-0.00056445	  -11.3567	  -14.1113	
  -11.3979	-0.000572518	  -11.3767	-0.000580246	  -11.3702	-0.000578978	  -11.3816	-0.000577247	  -11.3816	  -14.4312	
  -11.4225	-0.000585277	   -11.401	-0.000593093	  -11.3946	-0.000591797	   -11.406	-0.000590056	   -11.406	  -14.7514	
  -11.4465	-0.000598063	  -11.4246	-0.000605992	  -11.4185	-0.000604564	  -11.4299	-0.000602873	  -11.4299	  -15.0718	
  -11.4703	-0.000610813	  -11.4481	-0.000618941	   -11.442	-0.00061718	  -11.4535	-0.000615645	  -11.4535	  -15.3911	
  -11.4935	-0.000623463	  -11.4708	-0.000631869	   -11.465	-0.000629657	  -11.4764	-0.00062833	  -11.4764	  -15.7082	
  -11.5163	-0.000636007	  -11.4931	-0.000644709	  -11.4875	-0.000642093	   -11.499	-0.000640936	   -11.499	  -16.0234	
  -11.5384	-0.000648493	  -11.5149	-0.000657406	  -11.5095	-0.00065459	  -11.5209	-0.000653496	  -11.5209	  -16.3374	
    -11.56	-0.000660978	  -11.5361	-0.000669989	  -11.5308	-0.000667198	  -11.5423	-0.000666055	  -11.5423	  -16.6514	
  -11.5813	-0.000673495	  -11.5572	-0.000682548	  -11.5513	-0.000679818	  -11.5632	-0.00067862	  -11.5632	  -16.9655	
   -11.602	-0.000686038	  -11.5777	-0.000695143	  -11.5714	-0.000692301	  -11.5837	-0.000691161	  -11.5837	   -17.279	
  -11.6224	-0.000698541	  -11.5978	-0.000707763	  -11.5911	-0.000704624	  -11.6038	-0.000703643	  -11.6038	  -17.5911	
   -11.642	-0.00071092	  -11.6172	-0.00072034	  -11.6103	-0.00071687	  -11.6232	-0.000716043	  -11.6232	  -17.9011	
  -11.6616	-0.000723174	  -11.6362	-0.000732798	  -11.6293	-0.000729173	  -11.6423	-0.000728382	  -11.6423	  -18.2095	
  -11.6807	-0.000735369	  -11.6548	-0.000745125	  -11.6473	-0.000741608	  -11.6609	-0.0007407	  -11.6609	  -18.5175	
  -11.6993	-0.000747573	  -11.6729	-0.000757382	  -11.6649	-0.000754089	   -11.679	-0.000753015	   -11.679	  -18.8254	
  -11.7178	-0.000759824	  -11.6907	-0.000769648	  -11.6824	-0.000766464	  -11.6969	-0.000765312	  -11.6969	  -19.1328	
  -11.7356	-0.000772083	  -11.7079	-0.000781943	  -11.6992	-0.000778654	  -11.7143	-0.00077756	  -11.7143	   -19.439	
  -11.7534	-0.000784265	  -11.7248	-0.000794227	  -11.7159	-0.000790699	  -11.7314	-0.00078973	  -11.7314	  -19.7433	
  -11.7708	-0.000796334	  -11.7413	-0.000806434	  -11.7323	-0.000802726	  -11.7481	-0.000801831	  -11.7481	  -20.0458	
  -11.7873	-0.000808315	  -11.7572	-0.000818527	  -11.7479	-0.000814839	  -11.7641	-0.000813894	  -11.7641	  -20.3473	
  -11.8034	-0.000820272	  -11.7729	-0.000830524	  -11.7633	-0.000827028	  -11.7798	-0.000825941	  -11.7798	  -20.6485	
  -11.8185	-0.000832224	  -11.7879	-0.00084248	   -11.778	-0.00083918	  -11.7948	-0.000837961	  -11.7948	   -20.949	
  -11.8333	-0.000844154	  -11.8027	-0.000854438	  -11.7924	-0.000851174	  -11.8094	-0.000849922	  -11.8094	  -21.2481	
  -11.8478	-0.000856033	   -11.817	-0.000866397	  -11.8064	-0.000862987	  -11.8238	-0.000861806	  -11.8238	  -21.5451	
  -11.8617	-0.000867824	   -11.831	-0.000878315	  -11.8202	-0.000874699	  -11.8376	-0.000873613	  -11.8376	  -21.8403	
  -11.8752	-0.000879527	  -11.8445	-0.000890141	  -11.8335	-0.000886427	  -11.8511	-0.000885365	  -11.8511	  -22.1341	
  -11.8878	-0.000891191	  -11.8577	-0.000901856	  -11.8466	-0.000898233	   -11.864	-0.000897093	   -11.864	  -22.4273	
  -11.8996	-0.00090283	  -11.8704	-0.000913507	  -11.8591	-0.000910065	  -11.8764	-0.000908801	  -11.8764	    -22.72	
  -11.9115	-0.000914427	  -11.8827	-0.000925151	  -11.8713	-0.000921801	  -11.8885	-0.00092046	  -11.8885	  -23.0115	
  -11.9227	-0.000925966	  -11.8944	-0.000936795	  -11.8828	-0.000933357	     -11.9	-0.000932039	     -11.9	   -23.301	
  -11.9334	-0.00093744	  -11.9057	-0.000948386	  -11.8939	-0.000944752	   -11.911	-0.000943526	   -11.911	  -23.5881	
  -11.9438	-0.000948842	  -11.9166	-0.000959836	  -11.9046	-0.000956088	  -11.9217	-0.000954922	  -11.9217	   -23.873	
  -11.9532	-0.00096019	   -11.927	-0.000971104	  -11.9148	-0.000967466	  -11.9317	-0.000966253	  -11.9317	  -24.1563	
  -11.9623	-0.000971496	   -11.937	-0.000982248	  -11.9246	-0.000978922	  -11.9413	-0.000977555	  -11.9413	  -24.4389	
  -11.9709	-0.000982759	  -11.9465	-0.000993394	   -11.934	-0.000990389	  -11.9505	-0.000988847	  -11.9505	  -24.7212	
   -11.979	-0.000993955	  -11.9557	-0.00100463	  -11.9431	-0.00100176	  -11.9593	-0.00100011	  -11.9593	  -25.0029	
  -11.9866	-0.00100508	  -11.9644	-0.00101593	  -11.9518	-0.00101297	  -11.9676	-0.00101133	  -11.9676	  -25.2832	
  -11.9939	-0.00101615	  -11.9724	-0.00102717	  -11.9601	-0.00102407	  -11.9755	-0.00102246	  -11.9755	  -25.5616	
  -12.0007	-0.00102717	  -11.9801	-0.00103821	  -11.9681	-0.00103515	   -11.983	-0.00103351	   -11.983	  -25.8377	
  -12.0072	-0.00103815	  -11.9872	-0.00104904	  -11.9754	-0.00104627	    -11.99	-0.00104449	    -11.99	  -26.1121	
  -12.0131	-0.00104909	   -11.994	-0.00105974	  -11.9822	-0.00105743	  -11.9964	-0.00105542	  -11.9964	  -26.3855	
  -12.0186	-0.00105996	  -12.0005	-0.00107048	  -11.9887	-0.00106854	  -12.0026	-0.00106633	  -12.0026	  -26.6581	
  -12.0236	-0.00107073	  -12.0065	-0.00108132	  -11.9947	-0.00107952	  -12.0083	-0.00107719	  -12.0083	  -26.9298	
  -12.0279	-0.00108143	  -12.0121	-0.0010922	       -12	-0.00109034	  -12.0133	-0.00108799	  -12.0133	  -27.1998	
   -12.032	-0.00109208	   -12.017	-0.00110297	  -12.0047	-0.00110106	  -12.0179	-0.0010987	  -12.0179	  -27.4676	
  -12.0354	-0.00110268	  -12.0213	-0.00111353	  -12.0089	-0.00111177	  -12.0219	-0.00110933	  -12.0219	  -27.7332	
  -12.0384	-0.00111322	  -12.0246	-0.00112391	  -12.0124	-0.00112251	  -12.0251	-0.00111988	  -12.0251	   -27.997	
   -12.041	-0.00112369	  -12.0274	-0.00113421	  -12.0154	-0.00113326	  -12.0279	-0.00113039	  -12.0279	  -28.2597	
  -12.0431	-0.00113408	  -12.0295	-0.00114456	  -12.0177	-0.00114393	  -12.0301	-0.00114085	  -12.0301	  -28.5213	
  -12.0446	-0.00114439	  -12.0309	-0.00115498	  -12.0194	-0.00115443	  -12.0316	-0.00115126	  -12.0316	  -28.7816	
  -12.0458	-0.00115464	  -12.0315	-0.00116539	  -12.0203	-0.00116476	  -12.0326	-0.0011616	  -12.0326	  -29.0399	
  -12.0463	-0.00116484	  -12.0317	-0.00117567	  -12.0207	-0.00117501	  -12.0329	-0.00117184	  -12.0329	   -29.296	
  -12.0464	 -0.001175	  -12.0313	-0.00118574	  -12.0205	-0.00118528	  -12.0327	-0.00118201	  -12.0327	  -29.5502	
  -12.0457	-0.0011851	  -12.0303	-0.00119567	  -12.0198	-0.00119561	   -12.032	-0.00119213	   -12.032	  -29.8032	
  -12.0446	-0.00119513	  -12.0289	-0.00120557	  -12.0187	-0.00120595	  -12.0307	-0.00120222	  -12.0307	  -30.0554	
  -12.0429	-0.00120508	   -12.027	-0.00121553	  -12.0171	-0.00121616	   -12.029	-0.00121226	   -12.029	  -30.3064	
  -12.0407	-0.00121494	  -12.0248	-0.00122554	  -12.0151	-0.00122617	  -12.0269	-0.00122222	  -12.0269	  -30.5554	
  -12.0382	-0.00122476	  -12.0221	-0.00123548	  -12.0126	-0.00123599	  -12.0243	-0.00123208	  -12.0243	  -30.8019	
  -12.0353	-0.00123453	  -12.0192	-0.00124527	  -12.0096	-0.00124573	  -12.0214	-0.00124184	  -12.0214	  -31.0461	
  -12.0319	-0.00124427	  -12.0159	-0.00125489	  -12.0062	-0.00125552	   -12.018	-0.00125156	   -12.018	   -31.289	
  -12.0282	-0.00125396	  -12.0122	-0.00126441	  -12.0023	-0.0012654	  -12.0143	-0.00126126	  -12.0143	  -31.5314	
  -12.0243	-0.00126355	  -12.0081	-0.00127392	  -11.9977	-0.00127532	  -12.0101	-0.00127093	  -12.0101	  -31.7732	
  -12.0198	-0.00127306	  -12.0035	-0.00128346	  -11.9924	-0.00128513	  -12.0052	-0.00128055	  -12.0052	  -32.0138	
  -12.0148	-0.00128249	  -11.9982	-0.00129301	  -11.9865	-0.00129472	  -11.9998	-0.00129008	  -11.9998	  -32.2519	
  -12.0094	-0.00129189	  -11.9921	-0.00130248	    -11.98	-0.00130412	  -11.9939	-0.0012995	  -11.9939	  -32.4875	
  -12.0034	-0.00130127	  -11.9858	-0.00131181	  -11.9731	-0.00131344	  -11.9874	-0.00130884	  -11.9874	  -32.7211	
  -11.9971	-0.00131061	  -11.9789	-0.00132101	  -11.9657	-0.00132281	  -11.9805	-0.00131814	  -11.9805	  -32.9535	
  -11.9901	-0.00131988	  -11.9715	-0.00133013	  -11.9579	-0.00133227	  -11.9732	-0.00132743	  -11.9732	  -33.1857	
  -11.9827	-0.00132908	  -11.9636	-0.00133923	  -11.9498	-0.00134176	  -11.9654	-0.00133669	  -11.9654	  -33.4172	
  -11.9749	-0.00133817	  -11.9552	-0.00134834	  -11.9415	-0.00135113	  -11.9572	-0.00134588	  -11.9572	   -33.647	
  -11.9669	-0.00134716	  -11.9463	-0.00135743	  -11.9328	-0.00136027	  -11.9487	-0.00135495	  -11.9487	  -33.8739	
  -11.9589	-0.00135608	  -11.9367	-0.00136643	  -11.9236	-0.00136922	  -11.9397	-0.00136391	  -11.9397	  -34.0978	
  -11.9505	-0.00136497	  -11.9267	-0.00137529	  -11.9138	-0.00137813	  -11.9303	-0.00137279	  -11.9303	  -34.3198	
  -11.9412	-0.00137384	  -11.9161	-0.00138403	  -11.9034	-0.0013871	  -11.9202	-0.00138166	  -11.9202	  -34.5414	
  -11.9315	-0.00138268	   -11.905	-0.00139271	  -11.8925	-0.00139617	  -11.9097	-0.00139052	  -11.9097	  -34.7631	
  -11.9211	-0.00139143	  -11.8936	-0.00140139	  -11.8811	-0.00140521	  -11.8986	-0.00139934	  -11.8986	  -34.9835	
  -11.9103	-0.00140003	  -11.8815	-0.00141006	  -11.8694	-0.00141404	  -11.8871	-0.00140805	  -11.8871	  -35.2012	
  -11.8991	-0.00140853	  -11.8692	-0.0014187	  -11.8573	-0.0014226	  -11.8752	-0.00141661	  -11.8752	  -35.4153	
  -11.8868	-0.00141698	  -11.8565	-0.00142723	  -11.8449	-0.00143097	  -11.8627	-0.00142506	  -11.8627	  -35.6265	
  -11.8743	-0.00142545	  -11.8433	-0.00143563	  -11.8322	-0.00143932	  -11.8499	-0.00143347	  -11.8499	  -35.8367	
  -11.8608	-0.00143394	  -11.8297	-0.00144392	  -11.8188	-0.00144781	  -11.8364	-0.00144189	  -11.8364	  -36.0472	
   -11.847	-0.00144232	  -11.8155	-0.00145218	  -11.8048	-0.00145637	  -11.8225	-0.00145029	  -11.8225	  -36.2573	
  -11.8334	-0.00145054	  -11.8011	-0.00146043	  -11.7903	-0.00146485	  -11.8082	-0.00145861	  -11.8082	  -36.4652	
  -11.8188	-0.00145863	  -11.7861	-0.00146867	  -11.7753	-0.00147309	  -11.7934	-0.00146679	  -11.7934	  -36.6698	
   -11.804	-0.00146665	  -11.7707	-0.00147683	  -11.7599	-0.00148107	  -11.7782	-0.00147485	  -11.7782	  -36.8711	
  -11.7886	-0.00147467	   -11.755	-0.00148486	  -11.7443	-0.00148893	  -11.7626	-0.00148282	  -11.7626	  -37.0705	
  -11.7726	-0.00148272	   -11.739	-0.00149276	  -11.7284	-0.00149686	  -11.7467	-0.00149078	  -11.7467	  -37.2695	
  -11.7566	-0.00149072	  -11.7226	-0.00150055	   -11.712	-0.0015049	  -11.7304	-0.00149872	  -11.7304	  -37.4681	
  -11.7401	-0.0014986	  -11.7057	-0.0015083	  -11.6951	-0.00151298	  -11.7136	-0.00150663	  -11.7136	  -37.6656	
  -11.7232	-0.0015063	  -11.6885	-0.00151605	  -11.6777	-0.00152094	  -11.6965	-0.00151443	  -11.6965	  -37.8608	
  -11.7058	-0.00151387	  -11.6709	-0.00152381	  -11.6598	-0.00152868	  -11.6788	-0.00152212	  -11.6788	   -38.053	
  -11.6878	-0.00152141	  -11.6528	-0.0015315	  -11.6415	-0.00153623	  -11.6607	-0.00152971	  -11.6607	  -38.2428	
  -11.6694	 -0.001529	  -11.6343	-0.00153906	  -11.6229	-0.00154375	  -11.6422	-0.00153727	  -11.6422	  -38.4316	
  -11.6505	-0.00153662	  -11.6157	-0.00154647	  -11.6037	-0.00155133	  -11.6233	-0.00154481	  -11.6233	  -38.6202	
  -11.6312	-0.0015442	  -11.5965	-0.00155377	  -11.5841	 -0.001559	  -11.6039	-0.00155233	  -11.6039	  -38.8081	
  -11.6111	-0.00155161	  -11.5769	-0.00156104	  -11.5642	-0.00156665	  -11.5841	-0.00155977	  -11.5841	  -38.9942	
  -11.5907	-0.00155878	  -11.5567	-0.00156831	  -11.5437	-0.00157413	  -11.5637	-0.00156708	  -11.5637	  -39.1769	
  -11.5698	-0.00156578	   -11.536	-0.00157555	   -11.523	-0.00158137	  -11.5429	-0.00157423	  -11.5429	  -39.3558	
  -11.5485	-0.00157272	   -11.515	-0.00158271	  -11.5022	-0.00158843	  -11.5219	-0.00158129	  -11.5219	  -39.5321	
  -11.5268	-0.00157973	  -11.4935	-0.00158972	  -11.4811	-0.00159548	  -11.5005	-0.00158831	  -11.5005	  -39.7077	
  -11.5047	-0.00158682	  -11.4715	-0.00159661	  -11.4594	-0.00160262	  -11.4785	-0.00159535	  -11.4785	  -39.8838	
  -11.4822	-0.00159389	  -11.4489	-0.00160344	  -11.4373	-0.00160984	  -11.4561	-0.00160239	  -11.4561	  -40.0598	
  -11.4592	-0.0016008	  -11.4257	-0.00161024	  -11.4144	-0.00161698	  -11.4331	-0.00160934	  -11.4331	  -40.2335	
  -11.4357	-0.00160749	  -11.4021	 -0.001617	  -11.3912	-0.00162391	  -11.4096	-0.00161613	  -11.4096	  -40.4034	
  -11.4117	-0.00161402	  -11.3782	-0.0016237	  -11.3677	-0.0016306	  -11.3859	-0.00162277	  -11.3859	  -40.5693	
  -11.3873	-0.0016205	   -11.354	-0.00163029	  -11.3435	-0.00163719	  -11.3616	-0.00162932	  -11.3616	  -40.7331	
  -11.3626	-0.00162703	  -11.3295	-0.00163677	  -11.3188	-0.00164384	   -11.337	-0.00163588	   -11.337	   -40.897	
  -11.3371	-0.00163361	  -11.3044	-0.00164319	  -11.2933	-0.00165057	  -11.3116	-0.00164245	  -11.3116	  -41.0613	
  -11.3111	-0.00164013	  -11.2788	-0.00164955	   -11.268	-0.00165728	   -11.286	-0.00164899	   -11.286	  -41.2247	
  -11.2847	-0.00164649	  -11.2529	-0.00165588	  -11.2418	-0.00166382	  -11.2598	-0.0016554	  -11.2598	  -41.3849	
  -11.2579	-0.00165267	  -11.2266	-0.00166214	  -11.2156	-0.00167012	  -11.2334	-0.00166164	  -11.2334	  -41.5411	
  -11.2306	-0.00165873	  -11.1998	-0.0016683	  -11.1893	-0.00167626	  -11.2066	-0.00166776	  -11.2066	  -41.6941	
  -11.2026	-0.00166476	  -11.1724	-0.00167436	  -11.1616	-0.00168238	  -11.1789	-0.00167384	  -11.1789	  -41.8459	
  -11.1741	-0.00167084	  -11.1446	-0.00168034	  -11.1342	-0.00168857	  -11.1509	-0.00167992	  -11.1509	   -41.998	
  -11.1452	-0.00167694	  -11.1163	-0.00168626	  -11.1061	-0.00169481	  -11.1225	-0.00168601	  -11.1225	  -42.1502	
   -11.116	-0.00168298	  -11.0877	-0.00169213	  -11.0776	 -0.001701	  -11.0937	-0.00169204	  -11.0937	  -42.3009	
  -11.0866	-0.00168886	  -11.0587	-0.00169795	  -11.0487	-0.00170701	  -11.0647	-0.00169794	  -11.0647	  -42.4485	
  -11.0567	-0.00169458	  -11.0291	-0.00170369	  -11.0191	-0.00171282	   -11.035	-0.00170369	   -11.035	  -42.5924	
  -11.0262	-0.0017002	  -10.9991	-0.00170933	  -10.9893	-0.0017185	  -11.0048	-0.00170935	  -11.0048	  -42.7337	
  -10.9954	-0.00170582	  -10.9687	-0.00171488	   -10.959	-0.00172418	  -10.9744	-0.00171496	  -10.9744	   -42.874	
  -10.9642	-0.00171146	  -10.9381	-0.00172034	  -10.9284	-0.00172991	  -10.9436	-0.00172057	  -10.9436	  -43.0143	
  -10.9326	-0.00171708	  -10.9068	-0.00172575	  -10.8974	-0.00173564	  -10.9123	-0.00172616	  -10.9123	  -43.1539	
  -10.9004	-0.00172257	   -10.875	-0.00173109	  -10.8658	-0.00174131	  -10.8804	-0.00173166	  -10.8804	  -43.2915	
  -10.8679	-0.00172791	  -10.8427	-0.00173638	  -10.8339	-0.00174682	  -10.8481	-0.00173704	  -10.8481	  -43.4259	
   -10.835	-0.00173313	  -10.8102	-0.0017416	  -10.8013	-0.00175215	  -10.8155	-0.00174229	  -10.8155	  -43.5573	
  -10.8019	-0.00173831	  -10.7771	-0.00174673	  -10.7684	-0.00175738	  -10.7825	-0.00174747	  -10.7825	  -43.6869	
  -10.7683	-0.00174351	  -10.7435	-0.00175178	  -10.7349	-0.00176259	  -10.7489	-0.00175263	  -10.7489	  -43.8156	
  -10.7341	-0.00174871	  -10.7094	-0.00175675	   -10.701	-0.00176779	  -10.7148	-0.00175775	  -10.7148	  -43.9437	
  -10.6997	-0.00175381	   -10.675	-0.00176166	  -10.6669	-0.00177297	  -10.6805	-0.00176282	  -10.6805	  -44.0704	
  -10.6648	-0.00175877	  -10.6401	-0.00176653	  -10.6322	-0.00177807	  -10.6457	-0.00176779	  -10.6457	  -44.1947	
  -10.6294	-0.00176358	  -10.6048	-0.00177133	   -10.597	-0.00178301	  -10.6104	-0.00177264	  -10.6104	   -44.316	
  -10.5934	-0.00176831	  -10.5691	-0.00177607	  -10.5614	-0.00178782	  -10.5746	-0.0017774	  -10.5746	   -44.435	
  -10.5571	-0.00177302	   -10.533	-0.00178074	  -10.5253	-0.00179256	  -10.5385	-0.0017821	  -10.5385	  -44.5526	
  -10.5206	-0.00177772	  -10.4966	-0.00178533	   -10.489	-0.00179727	   -10.502	-0.00178677	   -10.502	  -44.6693	
  -10.4834	-0.00178237	  -10.4595	-0.00178986	  -10.4521	-0.00180197	   -10.465	-0.0017914	   -10.465	   -44.785	
  -10.4457	-0.00178693	  -10.4219	-0.00179432	  -10.4147	-0.00180662	  -10.4275	-0.00179596	  -10.4275	   -44.899	
  -10.4077	-0.00179137	   -10.384	-0.00179871	  -10.3771	-0.00181117	  -10.3896	-0.00180042	  -10.3896	  -45.0105	
  -10.3696	-0.00179569	  -10.3456	-0.00180305	  -10.3392	-0.00181559	  -10.3514	-0.00180478	  -10.3514	  -45.1194	
  -10.3309	-0.00179994	  -10.3066	-0.00180737	  -10.3006	-0.0018199	  -10.3127	-0.00180907	  -10.3127	  -45.2267	
  -10.2918	-0.00180415	  -10.2672	-0.00181167	  -10.2617	-0.00182414	  -10.2736	-0.00181332	  -10.2736	   -45.333	
  -10.2523	-0.00180835	  -10.2275	-0.0018159	  -10.2224	-0.00182836	  -10.2341	-0.00181754	  -10.2341	  -45.4384	
  -10.2127	-0.00181249	  -10.1874	-0.00182001	  -10.1825	-0.00183257	  -10.1942	-0.00182169	  -10.1942	  -45.5423	
  -10.1725	-0.00181654	  -10.1468	-0.00182401	  -10.1421	-0.00183672	  -10.1538	-0.00182576	  -10.1538	   -45.644	
  -10.1319	-0.00182046	  -10.1058	-0.00182796	  -10.1013	-0.00184078	   -10.113	-0.00182973	   -10.113	  -45.7433	
  -10.0909	-0.00182427	  -10.0642	-0.00183193	  -10.0603	-0.00184471	  -10.0718	-0.00183364	  -10.0718	   -45.841	
  -10.0498	-0.00182804	  -10.0219	-0.00183591	  -10.0187	-0.00184856	  -10.0301	-0.00183751	  -10.0301	  -45.9377	
  -10.0083	-0.00183182	  -9.97926	-0.00183983	  -9.97659	-0.00185237	  -9.98803	-0.00184134	  -9.98803	  -46.0334	
  -9.96624	-0.00183559	  -9.93634	-0.00184355	  -9.93422	-0.00185615	   -9.9456	-0.0018451	   -9.9456	  -46.1274	
  -9.92396	-0.0018393	  -9.89334	-0.00184705	  -9.89162	-0.00185988	  -9.90298	-0.00184874	  -9.90298	  -46.2186	
  -9.88117	-0.00184285	  -9.85041	-0.00185045	  -9.84844	-0.00186351	  -9.86001	-0.00185227	  -9.86001	  -46.3067	
  -9.83785	-0.00184623	  -9.80768	-0.0018539	  -9.80485	-0.00186703	  -9.81679	-0.00185572	  -9.81679	   -46.393	
  -9.79417	-0.00184951	  -9.76465	-0.00185748	  -9.76105	-0.00187049	  -9.77329	-0.00185916	  -9.77329	   -46.479	
  -9.75032	-0.00185277	  -9.72097	-0.0018611	  -9.71688	-0.00187392	  -9.72939	-0.0018626	  -9.72939	  -46.5649	
  -9.70604	-0.00185605	  -9.67672	-0.00186461	  -9.67221	-0.00187735	  -9.68499	 -0.001866	  -9.68499	  -46.6501	
   -9.6613	-0.00185933	    -9.632	-0.00186789	  -9.62722	-0.00188073	  -9.64018	-0.00186931	  -9.64018	  -46.7329	
   -9.6163	-0.00186252	    -9.587	-0.00187093	  -9.58199	-0.00188399	   -9.5951	-0.00187248	   -9.5951	  -46.8121	
  -9.57078	-0.00186558	  -9.54169	-0.00187387	  -9.53617	-0.00188711	  -9.54954	-0.00187552	  -9.54954	   -46.888	
  -9.52473	-0.00186849	  -9.49592	-0.00187688	  -9.48996	-0.00189011	  -9.50353	-0.0018785	  -9.50353	  -46.9624	
  -9.47834	-0.00187133	  -9.44989	-0.00187998	  -9.44355	-0.00189308	  -9.45726	-0.00188146	  -9.45726	  -47.0366	
  -9.43161	-0.00187414	  -9.40325	-0.00188309	  -9.39668	-0.00189606	  -9.41051	-0.00188443	  -9.41051	  -47.1107	
  -9.38448	-0.00187695	   -9.3561	-0.00188604	  -9.34935	-0.00189903	  -9.36331	-0.00188734	  -9.36331	  -47.1835	
  -9.33696	-0.00187973	  -9.30854	-0.00188876	  -9.30175	-0.00190194	  -9.31575	-0.00189014	  -9.31575	  -47.2536	
  -9.28912	-0.0018824	  -9.26065	-0.0018913	  -9.25375	-0.00190473	  -9.26784	-0.00189281	  -9.26784	  -47.3202	
  -9.24105	-0.00188495	   -9.2122	-0.00189379	  -9.20532	-0.00190738	  -9.21952	-0.00189537	  -9.21952	  -47.3843	
  -9.19251	-0.00188737	   -9.1634	-0.00189635	  -9.15658	-0.00190992	  -9.17083	-0.00189788	  -9.17083	  -47.4471	
   -9.1437	-0.00188974	  -9.11424	-0.00189897	  -9.10748	-0.00191243	  -9.12181	-0.00190038	  -9.12181	  -47.5095	
  -9.09448	-0.00189209	   -9.0648	-0.00190154	  -9.05792	-0.00191493	   -9.0724	-0.00190285	   -9.0724	  -47.5714	
  -9.04486	-0.00189444	  -9.01507	-0.00190393	  -9.00799	-0.00191744	  -9.02264	-0.00190527	  -9.02264	  -47.6317	
  -8.99491	-0.00189675	   -8.9647	-0.00190608	  -8.95789	-0.00191989	   -8.9725	-0.00190757	   -8.9725	  -47.6893	
  -8.94464	-0.00189896	  -8.91434	-0.00190807	  -8.90749	-0.00192221	  -8.92216	-0.00190975	  -8.92216	  -47.7437	
  -8.89381	-0.00190106	  -8.86316	-0.00191004	  -8.85667	-0.00192439	  -8.87121	-0.00191183	  -8.87121	  -47.7958	
  -8.84264	-0.00190305	  -8.81218	-0.00191207	  -8.80564	-0.00192646	  -8.82015	-0.00191386	  -8.82015	  -47.8465	
  -8.79124	-0.00190499	  -8.76052	-0.00191413	  -8.75426	-0.0019285	  -8.76867	-0.00191587	  -8.76867	  -47.8968	
  -8.73936	-0.00190692	   -8.7085	-0.0019161	  -8.70243	-0.00193057	  -8.71676	-0.00191786	  -8.71676	  -47.9466	
  -8.68711	-0.00190884	  -8.65634	-0.00191787	  -8.65035	-0.00193263	   -8.6646	-0.00191978	   -8.6646	  -47.9945	
  -8.63471	-0.0019107	  -8.60368	-0.00191945	  -8.59812	-0.00193461	  -8.61217	-0.00192159	  -8.61217	  -48.0397	
  -8.58182	-0.00191246	  -8.55098	-0.00192094	   -8.5454	-0.00193643	   -8.5594	-0.00192328	   -8.5594	   -48.082	
  -8.52854	-0.00191413	  -8.49797	-0.00192245	   -8.4924	-0.0019381	  -8.50631	-0.00192489	  -8.50631	  -48.1223	
   -8.4751	-0.00191569	  -8.44445	-0.00192402	  -8.43902	-0.00193969	  -8.45286	-0.00192647	  -8.45286	  -48.1616	
  -8.42105	-0.00191719	  -8.39095	-0.00192556	  -8.38514	-0.00194127	  -8.39905	-0.00192801	  -8.39905	  -48.2002	
  -8.36662	-0.00191863	  -8.33703	-0.00192697	  -8.33099	-0.00194287	  -8.34488	-0.00192949	  -8.34488	  -48.2373	
  -8.31193	-0.00192001	  -8.28289	-0.0019282	  -8.27667	-0.00194442	   -8.2905	-0.00193088	   -8.2905	   -48.272	
  -8.25686	-0.00192132	  -8.22853	-0.0019293	  -8.22195	-0.00194586	  -8.23578	-0.00193216	  -8.23578	  -48.3039	
  -8.20142	-0.00192257	  -8.17363	-0.00193036	  -8.16696	-0.00194713	  -8.18067	-0.00193335	  -8.18067	  -48.3338	
  -8.14573	-0.00192377	  -8.11851	-0.00193146	  -8.11167	-0.00194827	   -8.1253	-0.0019345	   -8.1253	  -48.3624	
  -8.08967	-0.00192492	  -8.06286	-0.00193258	   -8.0559	-0.00194935	  -8.06947	-0.00193562	  -8.06947	  -48.3904	
  -8.03326	-0.00192601	   -8.0068	-0.00193365	  -7.99985	-0.00195046	   -8.0133	-0.00193671	   -8.0133	  -48.4176	
  -7.97671	-0.00192701	  -7.95045	-0.00193458	  -7.94354	-0.00195157	   -7.9569	-0.00193772	   -7.9569	  -48.4431	
  -7.91991	-0.00192793	   -7.8937	-0.00193538	  -7.88697	-0.00195262	  -7.90019	-0.00193864	  -7.90019	   -48.466	
  -7.86275	-0.00192876	  -7.83668	-0.00193609	  -7.83012	-0.00195353	  -7.84319	-0.00193946	  -7.84319	  -48.4865	
  -7.80536	-0.00192953	  -7.77918	-0.00193679	  -7.77302	-0.00195429	  -7.78585	-0.0019402	  -7.78585	  -48.5051	
  -7.74752	-0.00193026	  -7.72142	-0.00193748	  -7.71545	-0.00195496	  -7.72813	-0.0019409	  -7.72813	  -48.5226	
  -7.68936	-0.00193096	  -7.66332	-0.00193814	  -7.65764	-0.00195564	  -7.67011	-0.00194158	  -7.67011	  -48.5395	
  -7.63099	-0.00193162	  -7.60478	-0.00193871	   -7.5995	-0.00195633	  -7.61176	-0.00194222	  -7.61176	  -48.5554	
  -7.57212	-0.00193222	  -7.54593	-0.00193916	  -7.54093	 -0.001957	  -7.55299	-0.00194279	  -7.55299	  -48.5699	
  -7.51297	-0.00193275	  -7.48688	-0.00193954	  -7.48216	-0.00195756	    -7.494	-0.00194329	    -7.494	  -48.5821	
  -7.45355	-0.00193318	  -7.42755	-0.0019399	  -7.42299	-0.00195797	   -7.4347	-0.00194368	   -7.4347	   -48.592	
  -7.39368	-0.0019335	  -7.36782	-0.00194025	  -7.36344	-0.00195827	  -7.37498	-0.00194401	  -7.37498	  -48.6002	
  -7.33358	-0.00193375	  -7.30785	-0.00194059	  -7.30374	-0.00195852	  -7.31506	-0.00194428	  -7.31506	  -48.6071	
  -7.27317	-0.00193397	  -7.24773	-0.00194086	  -7.24368	-0.00195875	  -7.25486	-0.00194453	  -7.25486	  -48.6132	
  -7.21246	-0.00193417	  -7.18726	-0.00194103	  -7.18329	-0.00195894	  -7.19434	-0.00194472	  -7.19434	  -48.6179	
  -7.15157	-0.00193433	  -7.12668	-0.00194109	  -7.12279	-0.00195903	  -7.13368	-0.00194482	  -7.13368	  -48.6204	
  -7.09052	-0.00193441	  -7.06578	-0.00194107	  -7.06177	-0.00195897	  -7.07269	-0.00194481	  -7.07269	  -48.6204	
   -7.0291	-0.00193439	  -7.00458	-0.00194102	  -7.00048	-0.0019588	  -7.01138	-0.00194474	  -7.01138	  -48.6184	
  -6.96754	-0.0019343	   -6.9432	-0.00194098	  -6.93903	-0.0019586	  -6.94992	-0.00194463	  -6.94992	  -48.6157	
  -6.90577	-0.00193418	  -6.88155	-0.00194093	  -6.87723	-0.00195843	  -6.88818	-0.00194451	  -6.88818	  -48.6128	
  -6.84368	-0.00193401	  -6.81966	-0.00194082	  -6.81521	-0.00195826	  -6.82618	-0.00194436	  -6.82618	   -48.609	
   -6.7815	-0.00193378	  -6.75764	-0.00194057	  -6.75288	-0.00195802	  -6.76401	-0.00194412	  -6.76401	  -48.6031	
  -6.71894	-0.00193348	  -6.69529	-0.00194018	  -6.69017	-0.00195764	  -6.70147	-0.00194376	  -6.70147	  -48.5941	
  -6.65613	-0.00193309	  -6.63275	-0.0019397	   -6.6272	-0.00195711	  -6.63869	-0.0019433	  -6.63869	  -48.5824	
  -6.59318	-0.00193265	  -6.56981	-0.00193923	    -6.564	-0.0019565	  -6.57567	-0.00194279	  -6.57567	  -48.5699	
  -6.52981	-0.00193219	  -6.50653	-0.00193883	  -6.50049	-0.00195589	  -6.51228	-0.0019423	  -6.51228	  -48.5575	
  -6.46626	-0.00193166	  -6.44302	-0.00193844	  -6.43681	-0.00195531	   -6.4487	-0.0019418	   -6.4487	  -48.5451	
  -6.40255	-0.00193105	   -6.3791	-0.00193797	  -6.37275	-0.00195472	   -6.3848	-0.00194125	   -6.3848	  -48.5312	
  -6.33848	-0.00193038	  -6.31492	-0.00193732	  -6.30846	-0.00195406	  -6.32062	-0.00194059	  -6.32062	  -48.5147	
   -6.2743	-0.00192966	   -6.2505	-0.00193654	  -6.24418	-0.00195327	  -6.25633	-0.00193982	  -6.25633	  -48.4955	
  -6.20971	-0.0019289	  -6.18576	-0.0019357	  -6.17949	-0.00195234	  -6.19165	-0.00193898	  -6.19165	  -48.4745	
  -6.14485	-0.0019281	  -6.12085	-0.0019349	  -6.11465	-0.00195135	  -6.12678	-0.00193812	  -6.12678	   -48.453	
  -6.07987	-0.00192725	  -6.05558	-0.00193414	  -6.04956	-0.00195037	  -6.06167	-0.00193726	  -6.06167	  -48.4314	
  -6.01446	-0.00192632	  -5.98998	-0.00193336	  -5.98416	-0.00194942	   -5.9962	-0.00193637	   -5.9962	  -48.4091	
  -5.94889	-0.00192531	   -5.9243	-0.00193248	  -5.91869	-0.00194844	  -5.93063	-0.00193541	  -5.93063	  -48.3852	
  -5.88316	-0.00192424	  -5.85836	-0.00193147	  -5.85306	-0.00194736	  -5.86486	-0.00193436	  -5.86486	   -48.359	
  -5.81721	-0.00192314	  -5.79218	-0.00193036	  -5.78718	-0.00194613	  -5.79885	-0.00193321	  -5.79885	  -48.3302	
  -5.75106	 -0.001922	  -5.72589	-0.00192917	  -5.72109	-0.00194477	  -5.73268	-0.00193198	  -5.73268	  -48.2995	
  -5.68463	-0.00192081	  -5.65932	-0.00192795	  -5.65472	-0.00194335	  -5.66622	-0.0019307	  -5.66622	  -48.2676	
  -5.61796	-0.00191955	   -5.5926	-0.0019267	   -5.5882	-0.00194195	  -5.59959	-0.0019294	  -5.59959	   -48.235	
  -5.55119	-0.00191821	  -5.52566	-0.00192542	  -5.52156	-0.00194056	  -5.53281	-0.00192806	  -5.53281	  -48.2016	
  -5.48414	-0.00191681	  -5.45843	-0.0019241	  -5.45472	-0.00193912	  -5.46576	-0.00192668	  -5.46576	  -48.1669	
  -5.41695	-0.00191534	  -5.39104	-0.00192275	  -5.38782	-0.00193757	   -5.3986	-0.00192522	   -5.3986	  -48.1305	
  -5.34953	-0.00191379	  -5.32332	-0.00192134	  -5.32067	-0.00193589	  -5.33117	-0.00192367	  -5.33117	  -48.0918	
  -5.28183	-0.00191219	  -5.25542	-0.00191984	   -5.2533	-0.00193414	  -5.26352	-0.00192206	  -5.26352	  -48.0514	
  -5.21409	-0.00191056	  -5.18737	-0.00191826	  -5.18575	-0.00193237	  -5.19574	-0.00192039	  -5.19574	  -48.0099	
  -5.14591	-0.0019089	   -5.1191	-0.00191658	  -5.11794	-0.00193061	  -5.12765	-0.0019187	  -5.12765	  -47.9674	
  -5.07745	-0.0019072	  -5.05075	-0.00191483	  -5.05002	-0.00192883	   -5.0594	-0.00191695	   -5.0594	  -47.9238	
  -5.00886	-0.00190544	  -4.98224	-0.00191305	  -4.98191	-0.00192697	    -4.991	-0.00191515	    -4.991	  -47.8788	
  -4.93996	-0.00190357	   -4.9135	-0.00191126	  -4.91354	 -0.001925	  -4.92233	-0.00191328	  -4.92233	  -47.8319	
  -4.87101	-0.00190159	  -4.84468	-0.00190945	  -4.84505	-0.00192292	  -4.85358	-0.00191132	  -4.85358	  -47.7829	
  -4.80193	-0.00189953	  -4.77558	-0.00190756	  -4.77627	-0.00192079	   -4.7846	-0.00190929	   -4.7846	  -47.7323	
  -4.73266	-0.00189742	  -4.70638	-0.00190559	  -4.70736	-0.00191863	  -4.71546	-0.00190721	  -4.71546	  -47.6803	
  -4.66332	-0.00189529	  -4.63687	-0.00190352	  -4.63822	-0.00191646	  -4.64614	-0.00190509	  -4.64614	  -47.6273	
  -4.59364	-0.00189314	  -4.56712	-0.00190139	  -4.56881	-0.00191425	  -4.57652	-0.00190293	  -4.57652	  -47.5732	
  -4.52377	-0.00189094	  -4.49717	-0.00189923	  -4.49927	-0.00191195	  -4.50674	-0.00190071	  -4.50674	  -47.5177	
  -4.45365	-0.00188865	  -4.42695	-0.00189703	  -4.42932	-0.00190955	  -4.43664	-0.00189841	  -4.43664	  -47.4603	
  -4.38333	-0.00188627	  -4.35662	-0.00189477	  -4.35923	-0.00190706	  -4.36639	-0.00189604	  -4.36639	  -47.4009	
  -4.31262	-0.00188384	  -4.28622	-0.00189244	  -4.28883	-0.00190451	  -4.29589	-0.0018936	  -4.29589	  -47.3399	
  -4.24171	-0.00188136	  -4.21555	-0.00189005	  -4.21827	-0.00190193	  -4.22518	-0.00189111	  -4.22518	  -47.2778	
  -4.17074	-0.00187885	   -4.1449	-0.00188762	  -4.14759	-0.00189932	  -4.15441	-0.0018886	  -4.15441	  -47.2149	
  -4.09954	-0.00187629	  -4.07396	-0.00188515	  -4.07663	-0.00189668	  -4.08337	-0.00188604	  -4.08337	  -47.1509	
  -4.02815	-0.00187363	  -4.00289	-0.00188263	  -4.00553	-0.00189398	  -4.01219	-0.00188341	  -4.01219	  -47.0853	
  -3.95662	-0.00187088	  -3.93174	-0.00188002	  -3.93435	-0.0018912	   -3.9409	-0.0018807	   -3.9409	  -47.0175	
  -3.88478	-0.00186804	  -3.86033	-0.00187729	   -3.8629	-0.00188835	  -3.86934	-0.00187789	  -3.86934	  -46.9473	
  -3.81291	-0.00186515	  -3.78882	-0.00187447	  -3.79145	-0.0018854	  -3.79773	-0.00187501	  -3.79773	  -46.8752	
  -3.74073	-0.00186224	  -3.71705	-0.00187158	  -3.71961	-0.00188238	   -3.7258	-0.00187206	   -3.7258	  -46.8016	
  -3.66839	-0.00185928	  -3.64517	-0.00186867	  -3.64765	-0.00187931	  -3.65374	-0.00186909	  -3.65374	  -46.7271	
  -3.59604	-0.00185625	  -3.57321	-0.00186575	  -3.57572	-0.00187619	  -3.58166	-0.00186606	  -3.58166	  -46.6516	
  -3.52341	-0.00185312	  -3.50099	-0.00186279	  -3.50353	-0.00187303	  -3.50931	-0.00186298	  -3.50931	  -46.5745	
  -3.45075	-0.00184988	   -3.4288	-0.00185971	  -3.43135	-0.00186983	  -3.43697	-0.00185981	  -3.43697	  -46.4952	
    -3.378	-0.0018466	  -3.35665	-0.00185649	   -3.3591	-0.00186656	  -3.36459	-0.00185655	  -3.36459	  -46.4137	
  -3.30511	-0.00184328	  -3.28447	-0.00185313	  -3.28673	-0.00186321	   -3.2921	-0.00185321	   -3.2921	  -46.3302	
   -3.2321	-0.00183993	  -3.21219	-0.00184972	  -3.21426	-0.00185979	  -3.21952	-0.00184981	  -3.21952	  -46.2454	
  -3.15893	-0.00183651	  -3.13965	-0.00184637	  -3.14164	-0.00185631	  -3.14674	-0.00184639	  -3.14674	  -46.1598	
  -3.08575	-0.00183298	  -3.06668	-0.00184307	  -3.06903	-0.00185275	  -3.07382	-0.00184293	  -3.07382	  -46.0733	
  -3.01239	-0.00182934	  -2.99367	-0.00183973	  -2.99634	-0.00184912	   -3.0008	-0.0018394	   -3.0008	   -45.985	
  -2.93889	-0.00182563	  -2.92056	-0.00183625	  -2.92351	-0.00184544	  -2.92765	-0.00183577	  -2.92765	  -45.8944	
  -2.86531	-0.00182188	   -2.8475	-0.00183256	  -2.85059	-0.00184171	  -2.85447	-0.00183205	  -2.85447	  -45.8013	
  -2.79158	-0.0018181	   -2.7744	-0.00182874	  -2.77742	-0.00183792	  -2.78113	-0.00182825	  -2.78113	  -45.7064	
  -2.71786	-0.00181426	  -2.70069	-0.00182495	  -2.70415	-0.00183406	  -2.70757	-0.00182442	  -2.70757	  -45.6106	
  -2.64408	-0.00181032	  -2.62708	-0.00182123	  -2.63051	-0.00183013	  -2.63389	-0.00182056	  -2.63389	   -45.514	
  -2.57018	-0.00180627	  -2.55349	-0.00181749	  -2.55679	-0.00182612	  -2.56015	-0.00181663	  -2.56015	  -45.4157	
  -2.49621	-0.00180213	  -2.47954	-0.00181363	  -2.48303	-0.00182205	  -2.48626	-0.0018126	  -2.48626	  -45.3151	
  -2.42201	-0.00179793	  -2.40582	-0.00180958	  -2.40916	-0.0018179	  -2.41233	-0.00180847	  -2.41233	  -45.2118	
  -2.34784	-0.0017937	  -2.33193	-0.00180537	  -2.33533	-0.00181369	  -2.33837	-0.00180425	  -2.33837	  -45.1064	
  -2.27353	-0.00178942	  -2.25761	-0.00180115	  -2.26127	-0.00180944	  -2.26414	   -0.0018	  -2.26414	       -45	
  -2.19912	-0.00178506	  -2.18347	-0.00179698	  -2.18713	-0.00180514	  -2.18991	-0.00179573	  -2.18991	  -44.8932	
  -2.12468	-0.00178061	  -2.10899	-0.00179282	  -2.11297	-0.00180078	  -2.11555	-0.0017914	  -2.11555	  -44.7851	
  -2.05002	-0.00177605	  -2.03456	-0.00178859	  -2.03862	-0.00179634	  -2.04107	 -0.001787	  -2.04107	  -44.6749	
  -1.97532	-0.00177162	   -1.9599	-0.00178414	  -1.96412	-0.00179178	  -1.96645	-0.00178252	  -1.96645	  -44.5629	
  -1.90051	-0.00176713	  -1.88518	-0.00177958	  -1.88954	-0.00178715	  -1.89175	-0.00177795	  -1.89175	  -44.4488	
  -1.82565	-0.00176256	  -1.81045	-0.00177493	  -1.81492	-0.00178248	  -1.81701	-0.00177332	  -1.81701	  -44.3331	
