# User: ACHyster
# File name: C:/ACHYSTER/ACHyster SENS/SHAMS/CoFe2O4-1gl-water-15 Glycerol- Sens-07-03-2023/CoFe2O4-1gl-water-15 Glycerol- 10_100F- 12kAm -Sens-07-03-20230006#1.txt
# Saved at: ma. mar. 7 15:11:06 2023
# Hyster Loop (3 iterations). Intensity: 12.0 kA/m; Tuned frequency: 79.9 kHz
# Units x axis: (kA/m)
# Units y axis: "Repeats y" & "Average y" (10^(-3)Am^2); "Mass avg y" (Am^2/kg)
# Magnetic mass: 4e-05 g
# Parameter      	Repeat   1	Repeat   2	Repeat   3	Average   	Sigma     
# H_C (kA/m)     	      10.9	      11.0	      10.9	      10.9	       0.0
# M_R (Am^2/kg)  	      29.2	      29.4	      28.9	      29.2	       0.2
# M_max (Am^2/kg)	      13.7	      13.5	      13.6	      13.6	       0.1
# Area (mJ/kg)   	    1372.0	    1381.2	    1360.6	    1371.2	       8.4
# SAR (W/g)      	     109.7	     110.4	     108.7	     109.6	       0.7
#Repeat 1 x	Repeat 1 y	Repeat 2 x	Repeat 2 y	Repeat 3 x	Repeat 3 y	Average x 	Average y 	Mass avg x 	Mass avg y 
  -1.77263	-0.00122483	  -1.78125	-0.00123223	  -1.77108	-0.00121563	  -1.77499	-0.00122423	  -1.77499	  -30.6057	
  -1.69738	-0.0012228	  -1.70628	-0.00123056	  -1.69657	-0.00121386	  -1.70008	-0.00122241	  -1.70008	  -30.5601	
   -1.6222	-0.0012208	  -1.63133	-0.00122877	  -1.62207	 -0.001212	   -1.6252	-0.00122052	   -1.6252	  -30.5131	
  -1.54691	-0.00121883	  -1.55625	-0.0012268	  -1.54741	-0.00121002	  -1.55019	-0.00121855	  -1.55019	  -30.4638	
  -1.47158	-0.00121687	  -1.48107	-0.00122464	  -1.47265	-0.00120787	   -1.4751	-0.00121646	   -1.4751	  -30.4115	
  -1.39644	-0.00121486	  -1.40606	-0.00122231	  -1.39803	-0.00120554	  -1.40018	-0.00121424	  -1.40018	  -30.3559	
  -1.32112	-0.00121277	  -1.33083	-0.00121986	  -1.32365	-0.00120303	   -1.3252	-0.00121189	   -1.3252	  -30.2972	
  -1.24587	-0.00121056	  -1.25543	-0.00121735	  -1.24988	-0.00120042	   -1.2504	-0.00120944	   -1.2504	  -30.2361	
  -1.17053	-0.00120824	  -1.18014	-0.00121485	  -1.17651	-0.00119776	  -1.17572	-0.00120695	  -1.17572	  -30.1737	
  -1.09513	-0.00120581	  -1.10477	-0.00121241	   -1.1027	-0.00119513	  -1.10087	-0.00120445	  -1.10087	  -30.1113	
  -1.01994	-0.00120331	  -1.02937	-0.00121007	  -1.02894	-0.00119257	  -1.02608	-0.00120198	  -1.02608	  -30.0496	
  -0.94457	-0.00120077	  -0.95399	-0.0012078	 -0.955263	-0.00119013	 -0.951274	-0.00119957	 -0.951274	  -29.9892	
 -0.869277	-0.00119824	 -0.878671	-0.00120559	 -0.880863	-0.00118778	  -0.87627	-0.0011972	  -0.87627	  -29.9301	
 -0.794102	-0.00119572	 -0.803449	-0.00120336	 -0.806047	-0.00118549	 -0.801199	-0.00119486	 -0.801199	  -29.8714	
 -0.718865	-0.00119323	 -0.728147	-0.00120105	  -0.73157	-0.00118317	 -0.726194	-0.00119248	 -0.726194	  -29.8121	
 -0.643822	-0.00119076	 -0.653022	-0.0011986	 -0.656762	-0.00118075	 -0.651202	-0.00119004	 -0.651202	  -29.7509	
  -0.56879	-0.00118826	 -0.577893	-0.00119599	 -0.581691	-0.00117814	 -0.576124	-0.00118746	 -0.576124	  -29.6866	
 -0.493599	-0.00118571	 -0.502799	-0.00119319	 -0.506627	-0.00117532	 -0.501008	-0.00118474	 -0.501008	  -29.6185	
 -0.418513	-0.00118307	 -0.427781	-0.00119025	 -0.431402	-0.00117228	 -0.425899	-0.00118187	 -0.425899	  -29.5467	
 -0.343353	-0.00118033	 -0.352662	-0.00118721	 -0.356071	-0.00116907	 -0.350695	-0.00117887	 -0.350695	  -29.4717	
 -0.268377	-0.00117746	 -0.277492	-0.00118412	 -0.280892	-0.00116577	 -0.275587	-0.00117578	 -0.275587	  -29.3946	
 -0.193403	-0.00117448	 -0.202109	-0.00118105	 -0.205897	-0.00116249	  -0.20047	-0.00117267	  -0.20047	  -29.3168	
 -0.118471	-0.0011714	 -0.126781	-0.00117804	 -0.130117	-0.00115928	 -0.125123	-0.00116957	 -0.125123	  -29.2393	
-0.0434098	-0.00116826	-0.0513375	-0.00117511	-0.0542355	-0.00115621	-0.0496609	-0.00116653	-0.0496609	  -29.1631	
 0.0317308	-0.00116508	 0.0241718	-0.00117225	 0.0212752	-0.00115328	 0.0257259	-0.00116353	 0.0257259	  -29.0884	
  0.106901	-0.00116187	 0.0994893	-0.00116941	 0.0976612	-0.00115045	  0.101351	-0.00116058	  0.101351	  -29.0144	
  0.182269	-0.00115865	  0.174798	-0.00116654	  0.174178	-0.00114765	  0.177082	-0.00115761	  0.177082	  -28.9403	
  0.257567	-0.00115537	  0.250057	-0.0011636	  0.249721	-0.00114477	  0.252448	-0.00115458	  0.252448	  -28.8645	
  0.332968	-0.00115205	  0.325228	-0.00116054	  0.325582	-0.00114171	  0.327926	-0.00115143	  0.327926	  -28.7859	
  0.408421	-0.0011487	  0.400488	-0.00115732	   0.40232	-0.00113844	  0.403743	-0.00114816	  0.403743	  -28.7039	
  0.483829	-0.00114532	  0.475578	-0.00115395	  0.477828	-0.00113493	  0.479078	-0.00114473	  0.479078	  -28.6184	
  0.559412	-0.00114193	  0.550888	-0.00115045	  0.553735	-0.00113122	  0.554678	-0.0011412	  0.554678	    -28.53	
  0.635322	-0.00113852	  0.626149	-0.00114686	  0.630175	-0.00112739	  0.630549	-0.00113759	  0.630549	  -28.4398	
  0.712537	-0.00113511	  0.701533	-0.00114323	  0.705801	-0.00112351	  0.706623	-0.00113395	  0.706623	  -28.3487	
  0.790274	-0.00113168	  0.776987	-0.0011396	  0.781683	-0.00111969	  0.782981	-0.00113033	  0.782981	  -28.2581	
  0.866974	-0.00112824	  0.852255	-0.00113601	  0.858385	-0.00111599	  0.859205	-0.00112675	  0.859205	  -28.1687	
   0.94435	-0.00112477	  0.927518	-0.00113247	  0.934328	-0.00111243	  0.935399	-0.00112322	  0.935399	  -28.0806	
   1.02193	-0.00112124	   1.00274	-0.00112898	   1.00984	-0.00110898	    1.0115	-0.00111973	    1.0115	  -27.9933	
    1.0973	-0.00111761	   1.07808	-0.0011255	   1.08629	-0.00110558	   1.08722	-0.00111623	   1.08722	  -27.9058	
   1.17289	-0.00111385	    1.1535	 -0.001122	   1.16228	-0.00110216	   1.16289	-0.00111267	   1.16289	  -27.8167	
   1.24949	-0.00110994	   1.22895	-0.00111843	   1.23781	-0.00109861	   1.23875	-0.00110899	   1.23875	  -27.7249	
   1.32444	-0.00110588	   1.30438	-0.00111476	    1.3135	-0.00109489	   1.31411	-0.00110518	   1.31411	  -27.6294	
   1.39806	-0.00110169	   1.37974	-0.00111096	   1.38889	-0.00109097	    1.3889	-0.00110121	    1.3889	  -27.5302	
    1.4721	-0.0010974	    1.4548	-0.00110704	   1.46373	-0.00108686	   1.46355	-0.0010971	   1.46355	  -27.4275	
   1.54543	-0.00109308	   1.52996	-0.00110303	   1.53888	-0.00108261	   1.53809	-0.00109291	   1.53809	  -27.3226	
   1.61854	-0.00108877	   1.60495	-0.00109894	   1.61417	-0.00107831	   1.61255	-0.00108867	   1.61255	  -27.2168	
   1.69242	-0.00108452	   1.67997	-0.00109481	   1.68901	-0.00107402	   1.68713	-0.00108445	   1.68713	  -27.1112	
   1.76591	-0.00108036	   1.75496	-0.00109069	   1.76382	-0.00106981	   1.76156	-0.00108028	   1.76156	  -27.0071	
   1.83923	-0.00107629	   1.82989	-0.00108657	   1.83856	-0.0010657	    1.8359	-0.00107619	    1.8359	  -26.9047	
   1.91298	-0.00107228	   1.90451	-0.00108245	     1.913	-0.00106167	   1.91017	-0.00107214	   1.91017	  -26.8034	
   1.98667	-0.00106828	   1.97902	-0.00107832	   1.98732	-0.00105769	   1.98434	-0.0010681	   1.98434	  -26.7024	
   2.06027	-0.00106423	   2.05339	-0.00107414	   2.06192	-0.00105366	   2.05853	-0.00106401	   2.05853	  -26.6003	
   2.13438	-0.00106007	    2.1278	-0.0010699	    2.1361	-0.00104953	   2.13276	-0.00105983	   2.13276	  -26.4957	
   2.20829	-0.00105574	     2.202	-0.00106554	   2.21039	-0.00104522	   2.20689	-0.0010555	   2.20689	  -26.3875	
   2.28155	-0.00105123	   2.27618	-0.00106105	   2.28484	-0.0010407	   2.28086	 -0.001051	   2.28086	  -26.2749	
   2.35524	-0.00104656	   2.35029	-0.00105645	   2.35919	-0.00103599	   2.35491	-0.00104633	   2.35491	  -26.1583	
   2.42908	-0.00104175	   2.42411	-0.00105174	   2.43319	-0.00103113	   2.42879	-0.00104154	   2.42879	  -26.0385	
   2.50238	-0.00103686	   2.49803	-0.00104698	   2.50727	-0.00102619	   2.50256	-0.00103668	   2.50256	  -25.9169	
   2.57537	-0.00103197	    2.5718	-0.00104221	   2.58117	-0.00102124	   2.57611	-0.00103181	   2.57611	  -25.7952	
   2.64866	-0.00102711	   2.64539	-0.00103746	   2.65465	-0.00101636	   2.64957	-0.00102698	   2.64957	  -25.6745	
   2.72136	-0.00102233	     2.719	-0.00103277	   2.72814	-0.00101159	   2.72284	-0.00102223	   2.72284	  -25.5557	
   2.79375	-0.00101762	   2.79238	-0.00102813	   2.80154	-0.00100693	   2.79589	-0.00101756	   2.79589	   -25.439	
   2.86639	-0.00101297	   2.86592	-0.00102353	   2.87488	-0.00100235	   2.86906	-0.00101295	   2.86906	  -25.3237	
   2.93902	-0.00100832	   2.93937	-0.00101892	   2.94812	-0.00099779	   2.94217	-0.00100834	   2.94217	  -25.2086	
   3.01139	-0.00100362	    3.0125	-0.00101427	   3.02124	-0.000993174	   3.01504	-0.00100369	   3.01504	  -25.0922	
   3.08393	-0.000998829	   3.08571	-0.0010095	     3.094	-0.000988432	   3.08788	-0.000998921	   3.08788	   -24.973	
   3.15636	-0.000993909	   3.15874	-0.0010046	   3.16662	-0.000983513	   3.16057	-0.000994007	   3.16057	  -24.8502	
   3.22867	-0.00098885	   3.23159	-0.000999543	   3.23948	-0.000978393	   3.23325	-0.000988929	   3.23325	  -24.7232	
   3.30084	-0.000983666	   3.30444	-0.000994344	   3.31212	-0.000973097	    3.3058	-0.000983702	    3.3058	  -24.5926	
   3.37284	-0.000978397	   3.37706	-0.00098903	   3.38468	-0.000967674	   3.37819	-0.000978367	   3.37819	  -24.4592	
   3.44445	-0.000973086	   3.44983	-0.00098365	   3.45719	-0.000962197	   3.45049	-0.000972978	   3.45049	  -24.3244	
    3.5161	-0.000967775	   3.52252	-0.000978255	   3.52961	-0.000956741	   3.52274	-0.00096759	   3.52274	  -24.1898	
   3.58753	-0.000962504	   3.59488	-0.000972877	   3.60192	-0.000951369	   3.59478	-0.00096225	   3.59478	  -24.0563	
   3.65895	-0.000957273	   3.66712	-0.000967559	   3.67431	-0.000946116	   3.66679	-0.000956982	   3.66679	  -23.9246	
   3.73033	-0.000952074	   3.73921	-0.000962308	   3.74653	-0.000940979	   3.73869	-0.000951787	   3.73869	  -23.7947	
   3.80163	-0.000946885	   3.81093	-0.000957111	   3.81835	-0.000935919	    3.8103	-0.000946638	    3.8103	   -23.666	
   3.87264	-0.000941664	   3.88227	-0.000951946	    3.8902	-0.000930871	    3.8817	-0.000941494	    3.8817	  -23.5373	
   3.94339	-0.000936378	   3.95345	-0.000946756	   3.96183	-0.000925753	   3.95289	-0.000936296	   3.95289	  -23.4074	
   4.01405	-0.000930994	   4.02425	-0.000941487	   4.03322	-0.000920494	   4.02384	-0.000930992	   4.02384	  -23.2748	
    4.0848	-0.000925492	   4.09508	-0.000936105	   4.10459	-0.000915048	   4.09482	-0.000925548	   4.09482	  -23.1387	
   4.15539	-0.00091989	   4.16572	-0.000930574	   4.17569	-0.000909406	    4.1656	-0.000919957	    4.1656	  -22.9989	
   4.22603	-0.000914201	   4.23614	-0.000924907	   4.24652	-0.000903597	   4.23623	-0.000914235	   4.23623	  -22.8559	
   4.29648	-0.000908453	   4.30634	-0.000919135	   4.31728	-0.000897685	    4.3067	-0.000908424	    4.3067	  -22.7106	
   4.36672	-0.000902682	   4.37632	-0.000913302	   4.38774	-0.000891742	   4.37693	-0.000902575	   4.37693	  -22.5644	
   4.43686	-0.000896912	   4.44601	-0.000907466	   4.45786	-0.00088584	   4.44691	-0.000896739	   4.44691	  -22.4185	
   4.50697	-0.000891166	   4.51568	-0.000901681	   4.52789	-0.000880043	   4.51685	-0.000890963	   4.51685	  -22.2741	
   4.57684	-0.000885446	    4.5851	-0.000895963	    4.5976	-0.000874363	   4.58651	-0.000885257	   4.58651	  -22.1314	
   4.64644	-0.00087973	   4.65425	-0.000890305	     4.667	-0.000868778	    4.6559	-0.000879604	    4.6559	  -21.9901	
     4.716	-0.000874005	   4.72337	-0.000884677	   4.73631	-0.000863242	   4.72522	-0.000873975	   4.72522	  -21.8494	
   4.78528	-0.000868242	   4.79221	-0.000879035	   4.80529	-0.00085768	   4.79426	-0.000868319	   4.79426	   -21.708	
   4.85429	-0.000862421	   4.86077	-0.000873304	   4.87438	-0.000852017	   4.86315	-0.00086258	   4.86315	  -21.5645	
   4.92323	-0.000856523	   4.92928	-0.000867447	   4.94333	-0.000846193	   4.93195	-0.000856721	   4.93195	   -21.418	
   4.99188	-0.000850544	   4.99751	-0.000861442	   5.01208	-0.000840168	   5.00049	-0.000850718	   5.00049	   -21.268	
   5.06046	-0.000844493	   5.06567	-0.000855291	   5.08069	-0.000833957	   5.06894	-0.000844581	   5.06894	  -21.1145	
   5.12895	-0.000838382	   5.13375	-0.000849039	   5.14914	-0.000827604	   5.13728	-0.000838342	   5.13728	  -20.9585	
   5.19714	-0.000832223	   5.20153	-0.000842742	   5.21722	-0.000821167	    5.2053	-0.000832044	    5.2053	  -20.8011	
   5.26522	-0.000826034	   5.26902	-0.000836457	   5.28515	-0.000814726	   5.27313	-0.000825739	   5.27313	  -20.6435	
   5.33321	-0.000819819	   5.33643	-0.000830248	   5.35292	-0.000808359	   5.34085	-0.000819475	   5.34085	  -20.4869	
   5.40087	-0.000813586	   5.40354	-0.000824134	   5.42032	-0.000802114	   5.40824	-0.000813278	   5.40824	  -20.3319	
   5.46864	-0.000807334	   5.47016	-0.000818101	   5.48737	-0.000796004	   5.47539	-0.000807147	   5.47539	  -20.1787	
   5.53627	-0.000801058	   5.53673	-0.000812114	   5.55428	-0.000790002	   5.54243	-0.000801058	   5.54243	  -20.0264	
   5.60378	-0.000794751	   5.60303	-0.000806106	   5.62086	-0.000784047	   5.60922	-0.000794968	   5.60922	  -19.8742	
   5.67093	-0.0007884	   5.66887	-0.000800017	   5.68731	-0.000778061	   5.67571	-0.000788826	   5.67571	  -19.7207	
   5.73796	 -0.000782	   5.73469	-0.000793793	   5.75365	-0.000771969	    5.7421	-0.000782587	    5.7421	  -19.5647	
   5.80486	-0.000775554	   5.80027	-0.000787404	   5.81965	-0.000765713	   5.80826	-0.000776224	   5.80826	  -19.4056	
   5.87142	-0.000769064	   5.86563	-0.000780863	   5.88555	-0.000759268	    5.8742	-0.000769731	    5.8742	  -19.2433	
   5.93786	-0.000762538	   5.93097	-0.000774203	   5.95134	-0.000752649	   5.94006	-0.00076313	   5.94006	  -19.0782	
   6.00398	-0.00075598	    5.9961	-0.00076748	   6.01681	-0.000745903	   6.00563	-0.000756455	   6.00563	  -18.9114	
   6.06973	-0.000749391	   6.06095	-0.000760756	   6.08193	-0.00073911	   6.07087	-0.000749752	   6.07087	  -18.7438	
   6.13518	-0.000742788	   6.12582	-0.000754085	   6.14698	-0.000732387	   6.13599	-0.000743086	   6.13599	  -18.5772	
   6.20036	-0.000736171	   6.19047	-0.000747496	   6.21174	-0.000725784	   6.20086	-0.000736484	   6.20086	  -18.4121	
   6.26527	-0.00072954	   6.25472	-0.000740988	   6.27603	-0.000719322	   6.26534	-0.00072995	   6.26534	  -18.2487	
   6.33014	-0.000722898	   6.31901	-0.000734533	   6.34029	-0.000712982	   6.32981	-0.000723471	   6.32981	  -18.0868	
   6.39475	-0.000716231	   6.38312	-0.000728089	   6.40432	-0.000706688	   6.39406	-0.000717003	   6.39406	  -17.9251	
   6.45892	-0.000709532	   6.44685	-0.000721593	   6.46792	-0.000700348	    6.4579	-0.000710491	    6.4579	  -17.7623	
   6.52267	-0.0007028	   6.51023	-0.000714997	   6.53111	-0.000693859	   6.52134	-0.000703885	   6.52134	  -17.5971	
   6.58624	-0.00069602	    6.5735	-0.000708265	   6.59416	-0.000687139	   6.58463	-0.000697141	   6.58463	  -17.4285	
   6.64944	-0.000689189	   6.63646	-0.000701389	   6.65684	-0.00068016	   6.64758	-0.000690246	   6.64758	  -17.2561	
   6.71251	-0.000682303	   6.69912	-0.000694389	   6.71962	-0.000672931	   6.71042	-0.000683208	   6.71042	  -17.0802	
   6.77545	-0.000675361	   6.76152	-0.000687301	   6.78228	-0.000665528	   6.77309	-0.000676064	   6.77309	  -16.9016	
   6.83807	-0.000668368	   6.82368	-0.000680173	   6.84462	-0.000658081	   6.83546	-0.000668874	   6.83546	  -16.7219	
   6.90039	-0.000661332	   6.88561	-0.000673048	   6.90645	-0.000650716	   6.89748	-0.000661699	   6.89748	  -16.5425	
   6.96243	-0.000654264	   6.94734	-0.000665959	   6.96803	-0.000643545	   6.95927	-0.000654589	   6.95927	  -16.3647	
   7.02423	-0.00064718	   7.00889	-0.000658923	   7.02938	-0.000636635	   7.02084	-0.00064758	   7.02084	  -16.1895	
   7.08575	-0.000640085	   7.07007	-0.000651944	   7.09048	-0.000629989	    7.0821	-0.000640673	    7.0821	  -16.0168	
   7.14686	-0.000632985	    7.1307	-0.000645004	    7.1514	-0.000623538	   7.14299	-0.000633842	   7.14299	  -15.8461	
   7.20781	-0.000625876	   7.19126	-0.000638079	   7.21216	-0.000617151	   7.20374	-0.000627035	   7.20374	  -15.6759	
   7.26841	-0.000618749	   7.25155	-0.000631135	   7.27257	-0.000610698	   7.26418	-0.000620194	   7.26418	  -15.5048	
   7.32849	-0.000611596	   7.31138	-0.000624143	   7.33268	-0.000604035	   7.32418	-0.000613258	   7.32418	  -15.3315	
   7.38831	-0.000604406	   7.37103	-0.000617076	    7.3925	-0.000597067	   7.38395	-0.000606183	   7.38395	  -15.1546	
   7.44789	-0.00059717	    7.4305	-0.000609925	   7.45209	-0.000589772	   7.44349	-0.000598956	   7.44349	  -14.9739	
   7.50707	-0.000589886	   7.48963	-0.000602692	   7.51125	-0.000582183	   7.50265	-0.000591587	   7.50265	  -14.7897	
   7.56588	-0.000582555	   7.54844	-0.000595389	   7.56983	-0.000574407	   7.56138	-0.000584117	   7.56138	  -14.6029	
   7.62458	-0.000575186	   7.60698	-0.000588035	    7.6283	-0.000566595	   7.61995	-0.000576605	   7.61995	  -14.4151	
   7.68298	-0.00056779	   7.66528	-0.000580649	   7.68648	-0.00055888	   7.67825	-0.000569106	   7.67825	  -14.2277	
   7.74092	-0.000560384	   7.72317	-0.000573252	   7.74421	-0.000551381	    7.7361	-0.000561672	    7.7361	  -14.0418	
   7.79843	-0.000552974	    7.7807	-0.000565857	   7.80173	-0.000544151	   7.79362	-0.000554327	   7.79362	  -13.8582	
   7.85579	-0.00054556	   7.83813	-0.000558465	   7.85908	-0.000537172	     7.851	-0.000547066	     7.851	  -13.6766	
   7.91282	-0.000538142	   7.89526	-0.000551072	    7.9161	-0.000530381	   7.90806	-0.000539865	   7.90806	  -13.4966	
   7.96935	-0.000530713	   7.95194	-0.000543664	   7.97261	-0.000523652	   7.96463	-0.000532676	   7.96463	  -13.3169	
   8.02586	-0.000523262	   8.00843	-0.000536227	   8.02867	-0.000516845	   8.02099	-0.000525445	   8.02099	  -13.1361	
   8.08217	-0.00051578	   8.06456	-0.000528753	   8.08435	-0.000509845	   8.07703	-0.000518126	   8.07703	  -12.9531	
   8.13811	-0.000508259	   8.12037	-0.000521233	    8.1397	-0.000502571	   8.13273	-0.000510688	   8.13273	  -12.7672	
   8.19351	-0.000500695	   8.17572	-0.000513671	   8.19457	-0.000495012	   8.18793	-0.000503126	   8.18793	  -12.5781	
   8.24824	-0.000493091	   8.23065	-0.000506073	   8.24901	-0.000487217	   8.24263	-0.00049546	   8.24263	  -12.3865	
   8.30259	-0.000485455	   8.28545	-0.000498453	   8.30309	-0.000479274	   8.29704	-0.000487727	   8.29704	  -12.1932	
   8.35662	-0.000477803	   8.33994	-0.000490827	   8.35687	-0.000471309	   8.35114	-0.00047998	   8.35114	  -11.9995	
   8.41017	-0.000470142	   8.39396	-0.000483204	    8.4102	-0.000463442	   8.40478	-0.000472263	   8.40478	  -11.8066	
   8.46353	-0.000462481	   8.44758	-0.000475592	   8.46315	-0.000455766	   8.45809	-0.000464613	   8.45809	  -11.6153	
   8.51674	-0.000454828	   8.50108	-0.000467989	   8.51597	-0.000448318	   8.51126	-0.000457045	   8.51126	  -11.4261	
   8.56963	-0.000447181	   8.55428	-0.000460385	   8.56853	-0.000441076	   8.56414	-0.000449547	   8.56414	  -11.2387	
   8.62206	-0.000439536	   8.60703	-0.000452767	   8.62065	-0.000433971	   8.61658	-0.000442091	   8.61658	  -11.0523	
   8.67388	-0.000431883	    8.6592	-0.000445119	   8.67261	-0.000426891	   8.66856	-0.000434631	   8.66856	  -10.8658	
    8.7254	-0.000424207	   8.71106	-0.000437423	   8.72405	-0.000419716	   8.72017	-0.000427115	   8.72017	  -10.6779	
   8.77667	-0.0004165	    8.7627	-0.00042967	   8.77526	-0.00041235	   8.77154	-0.000419507	   8.77154	  -10.4877	
   8.82755	-0.000408752	   8.81394	-0.000421857	   8.82609	-0.000404731	   8.82253	-0.00041178	   8.82253	  -10.2945	
    8.8781	-0.000400957	   8.86487	-0.000413991	   8.87639	-0.000396853	   8.87312	-0.000403934	   8.87312	  -10.0983	
   8.92817	-0.000393118	   8.91533	-0.000406084	   8.92625	-0.000388766	   8.92325	-0.000395989	   8.92325	  -9.89974	
   8.97808	-0.000385248	   8.96561	-0.000398158	   8.97596	-0.000380553	   8.97322	-0.000387986	   8.97322	  -9.69966	
   9.02765	-0.000377359	   9.01557	-0.000390236	   9.02536	-0.000372321	   9.02286	-0.000379972	   9.02286	  -9.49929	
   9.07676	-0.000369461	   9.06507	-0.000382332	   9.07432	-0.00036417	   9.07205	-0.000371987	   9.07205	  -9.29969	
   9.12548	-0.000361562	   9.11397	-0.000374453	   9.12292	-0.000356174	   9.12079	-0.000364063	   9.12079	  -9.10158	
    9.1739	-0.00035367	   9.16278	-0.000366598	   9.17145	-0.00034837	   9.16938	-0.000356212	   9.16938	  -8.90531	
   9.22209	-0.000345787	   9.21137	-0.000358754	   9.21974	-0.00034074	   9.21773	-0.000348427	   9.21773	  -8.71068	
    9.2699	-0.000337909	   9.25957	-0.000350894	   9.26766	-0.00033323	   9.26571	-0.000340678	   9.26571	  -8.51694	
   9.31721	-0.000330024	   9.30726	-0.000343005	   9.31571	-0.000325762	   9.31339	-0.00033293	   9.31339	  -8.32326	
   9.36453	-0.000322122	   9.35454	-0.000335065	   9.36371	-0.000318252	   9.36093	-0.000325146	   9.36093	  -8.12866	
    9.4117	-0.000314197	   9.40169	-0.000327058	   9.41152	-0.000310629	    9.4083	-0.000317295	    9.4083	  -7.93237	
   9.45836	-0.000306246	   9.44858	-0.000319001	   9.45918	-0.000302838	   9.45537	-0.000309362	   9.45537	  -7.73404	
   9.50462	-0.000298266	   9.49506	-0.000310898	   9.50656	-0.000294855	   9.50208	-0.00030134	   9.50208	  -7.53349	
    9.5505	-0.000290265	   9.54102	-0.000302771	   9.55348	-0.000286695	   9.54833	-0.000293244	   9.54833	  -7.33109	
   9.59573	-0.000282248	   9.58634	-0.000294653	   9.60006	-0.000278404	   9.59404	-0.000285101	   9.59404	  -7.12754	
   9.64062	-0.000274218	   9.63155	-0.00028656	   9.64598	-0.000270044	   9.63938	-0.00027694	   9.63938	  -6.92351	
   9.68527	-0.000266177	   9.67651	-0.000278505	   9.69093	-0.000261682	   9.68424	-0.000268788	   9.68424	  -6.71969	
   9.72955	-0.000258122	   9.72109	-0.000270492	   9.73483	-0.000253376	   9.72849	-0.000260663	   9.72849	  -6.51658	
   9.77333	-0.000250043	   9.76518	-0.000262501	   9.77784	-0.000245161	   9.77211	-0.000252568	   9.77211	  -6.31421	
   9.81693	-0.000241933	   9.80865	-0.000254515	    9.8203	-0.000237045	   9.81529	-0.000244498	   9.81529	  -6.11244	
   9.86001	-0.000233778	   9.85185	-0.000246505	   9.86211	-0.000229018	   9.85799	-0.000236434	   9.85799	  -5.91085	
   9.90289	-0.000225587	   9.89469	-0.000238448	   9.90351	-0.000221048	   9.90036	-0.000228361	   9.90036	  -5.70902	
   9.94544	-0.000217366	   9.93723	-0.000230334	    9.9447	-0.00021309	   9.94246	-0.000220263	   9.94246	  -5.50658	
   9.98755	-0.000209139	   9.97935	-0.000222156	   9.98556	-0.000205099	   9.98415	-0.000212132	   9.98415	  -5.30329	
   10.0293	-0.000200932	   10.0209	-0.000213931	   10.0264	-0.000197039	   10.0255	-0.000203967	   10.0255	  -5.09918	
   10.0708	-0.000192767	   10.0619	-0.000205673	   10.0673	-0.00018889	   10.0667	-0.000195777	   10.0667	  -4.89442	
    10.112	-0.000184653	   10.1026	-0.000197401	   10.1081	-0.000180652	   10.1076	-0.000187569	   10.1076	  -4.68922	
   10.1529	-0.000176593	    10.143	-0.000189146	   10.1487	-0.000172345	   10.1482	-0.000179361	   10.1482	  -4.48404	
   10.1935	-0.000168572	   10.1832	-0.000180929	    10.189	-0.000164006	   10.1885	-0.000171169	   10.1885	  -4.27922	
   10.2335	-0.000160562	   10.2229	-0.000172759	   10.2288	-0.000155678	   10.2284	 -0.000163	   10.2284	  -4.07499	
    10.273	-0.000152531	   10.2622	-0.000164644	   10.2681	-0.00014739	   10.2678	-0.000154855	   10.2678	  -3.87138	
   10.3123	-0.000144448	   10.3008	-0.000156576	   10.3068	-0.000139167	   10.3066	-0.00014673	   10.3066	  -3.66826	
   10.3509	-0.00013629	   10.3389	-0.000148536	   10.3452	-0.00013101	    10.345	-0.000138612	    10.345	   -3.4653	
   10.3894	-0.000128062	   10.3769	-0.000140499	   10.3827	-0.000122906	    10.383	-0.000130489	    10.383	  -3.26222	
   10.4275	-0.000119776	   10.4146	-0.00013244	   10.4201	-0.000114823	   10.4207	-0.000122346	   10.4207	  -3.05866	
   10.4652	-0.000111459	    10.452	-0.000124328	   10.4571	-0.000106728	   10.4581	-0.000114172	   10.4581	  -2.85429	
   10.5024	-0.000103144	   10.4889	-0.000116143	   10.4937	-9.85895e-05	    10.495	-0.000105959	    10.495	  -2.64898	
    10.539	-9.48548e-05	   10.5252	-0.000107885	   10.5297	-9.03834e-05	   10.5313	-9.77077e-05	   10.5313	  -2.44269	
   10.5751	-8.66175e-05	   10.5611	-9.95614e-05	   10.5651	-8.21129e-05	   10.5671	-8.94306e-05	   10.5671	  -2.23577	
   10.6108	-7.84399e-05	   10.5968	-9.11894e-05	   10.6005	-7.3797e-05	   10.6027	-8.11421e-05	   10.6027	  -2.02855	
   10.6462	-7.03013e-05	    10.632	-8.28164e-05	   10.6358	-6.54607e-05	    10.638	-7.28594e-05	    10.638	  -1.82149	
    10.681	-6.21869e-05	   10.6668	-7.44755e-05	   10.6707	-5.71402e-05	   10.6728	-6.46009e-05	   10.6728	  -1.61502	
   10.7154	-5.40687e-05	   10.7013	-6.61669e-05	   10.7053	-4.88653e-05	   10.7073	-5.6367e-05	   10.7073	  -1.40917	
   10.7493	-4.5916e-05	   10.7353	-5.79287e-05	   10.7395	-4.06538e-05	   10.7414	-4.81662e-05	   10.7414	  -1.20415	
   10.7828	-3.77157e-05	   10.7688	-4.97445e-05	   10.7732	-3.25038e-05	   10.7749	-3.9988e-05	   10.7749	 -0.999699	
   10.8156	-2.94598e-05	   10.8017	-4.15952e-05	   10.8062	-2.43947e-05	   10.8078	-3.18165e-05	   10.8078	 -0.795414	
   10.8479	-2.11587e-05	   10.8344	-3.347e-05	   10.8386	-1.63067e-05	   10.8403	-2.36452e-05	   10.8403	 -0.591129	
   10.8797	-1.28332e-05	   10.8668	-2.53354e-05	   10.8707	-8.21128e-06	   10.8724	-1.546e-05	   10.8724	 -0.386499	
   10.9112	-4.50824e-06	   10.8988	-1.71688e-05	   10.9027	-7.50524e-08	   10.9042	-7.25069e-06	   10.9042	 -0.181267	
   10.9422	3.78831e-06	   10.9303	-8.96655e-06	   10.9343	8.10669e-06	   10.9356	9.76151e-07	   10.9356	 0.0244038	
   10.9728	1.20361e-05	   10.9616	-7.05904e-07	   10.9657	1.63422e-05	   10.9667	9.22414e-06	   10.9667	  0.230604	
   11.0031	2.02273e-05	   10.9924	7.5849e-06	   10.9966	2.46165e-05	   10.9974	1.74762e-05	   10.9974	  0.436906	
   11.0329	2.83628e-05	   11.0227	1.58885e-05	   11.0271	3.29069e-05	   11.0276	2.57194e-05	   11.0276	  0.642985	
   11.0622	3.64699e-05	   11.0525	2.41928e-05	    11.057	4.12006e-05	   11.0572	3.39544e-05	   11.0572	  0.848861	
    11.091	4.45696e-05	   11.0817	3.24759e-05	   11.0862	4.94676e-05	   11.0863	4.2171e-05	   11.0863	   1.05428	
   11.1191	5.26813e-05	   11.1102	4.07305e-05	   11.1151	5.76958e-05	   11.1148	5.03692e-05	   11.1148	   1.25923	
   11.1469	6.08281e-05	   11.1383	4.89538e-05	   11.1434	6.58904e-05	   11.1429	5.85574e-05	   11.1429	   1.46394	
   11.1745	6.90171e-05	   11.1659	5.71503e-05	   11.1714	7.40513e-05	   11.1706	6.67396e-05	   11.1706	   1.66849	
   11.2016	7.7246e-05	   11.1931	6.53451e-05	   11.1992	8.2193e-05	    11.198	7.4928e-05	    11.198	    1.8732	
   11.2285	8.54944e-05	     11.22	7.35445e-05	   11.2267	9.03379e-05	   11.2251	8.31256e-05	   11.2251	   2.07814	
   11.2548	9.37465e-05	   11.2465	8.17629e-05	   11.2539	9.84967e-05	   11.2517	9.13353e-05	   11.2517	   2.28338	
   11.2808	0.000101982	   11.2727	9.00057e-05	   11.2806	0.000106681	    11.278	9.95561e-05	    11.278	    2.4889	
   11.3063	0.000110192	   11.2985	9.82672e-05	   11.3069	0.000114884	   11.3039	0.000107781	   11.3039	   2.69453	
   11.3314	0.000118374	   11.3238	0.000106542	   11.3327	 0.0001231	   11.3293	0.000116005	   11.3293	   2.90013	
    11.356	0.000126536	   11.3486	0.000114812	   11.3579	0.000131315	   11.3542	0.000124221	   11.3542	   3.10553	
   11.3805	0.000134689	   11.3729	0.000123065	   11.3825	0.000139511	   11.3786	0.000132422	   11.3786	   3.31054	
   11.4045	0.000142859	   11.3966	0.000131296	   11.4065	0.000147672	   11.4025	0.000140609	   11.4025	   3.51522	
   11.4279	0.00015106	   11.4196	0.000139492	   11.4299	0.00015579	   11.4258	0.000148781	   11.4258	   3.71952	
   11.4508	0.000159292	   11.4421	0.000147643	   11.4527	0.000163864	   11.4485	0.000156933	   11.4485	   3.92332	
   11.4734	0.00016753	   11.4639	0.000155762	   11.4747	0.000171902	   11.4707	0.000165065	   11.4707	   4.12662	
   11.4954	0.000175757	   11.4849	0.000163863	   11.4965	0.000179914	   11.4923	0.000173178	   11.4923	   4.32945	
   11.5168	0.000183957	   11.5055	0.000171961	   11.5181	0.000187921	   11.5135	0.00018128	   11.5135	   4.53199	
    11.538	0.000192126	   11.5258	0.000180075	   11.5391	0.000195939	   11.5343	0.00018938	   11.5343	    4.7345	
   11.5588	0.000200272	   11.5456	0.000188237	   11.5599	0.000203977	   11.5548	0.000197495	   11.5548	   4.93739	
   11.5787	0.000208418	   11.5652	0.000196461	   11.5804	0.000212042	   11.5747	0.00020564	   11.5747	   5.14101	
   11.5976	0.000216583	   11.5843	0.000204735	   11.6005	0.000220125	   11.5942	0.000213815	   11.5942	   5.34537	
   11.6157	0.000224792	   11.6033	0.000213049	   11.6203	0.000228217	   11.6131	0.000222019	   11.6131	   5.55049	
   11.6334	0.000233047	   11.6219	0.000221381	   11.6397	 0.0002363	   11.6316	0.000230243	   11.6316	   5.75607	
   11.6507	0.000241333	   11.6402	0.000229708	   11.6587	0.000244355	   11.6499	0.000238465	   11.6499	   5.96163	
   11.6677	0.00024963	   11.6582	0.000237998	   11.6772	0.000252369	   11.6677	0.000246666	   11.6677	   6.16664	
   11.6849	0.000257897	   11.6757	0.000246215	   11.6952	0.000260341	   11.6853	0.000254818	   11.6853	   6.37044	
   11.7024	0.000266089	   11.6929	0.000254351	   11.7127	0.000268272	   11.7027	0.000262904	   11.7027	    6.5726	
   11.7197	0.000274179	   11.7096	0.000262403	   11.7297	0.000276182	   11.7196	0.000270921	   11.7196	   6.77303	
   11.7364	0.000282159	   11.7258	0.000270381	   11.7461	0.000284083	   11.7361	0.000278874	   11.7361	   6.97186	
   11.7533	0.000290082	   11.7416	0.000278314	    11.762	0.000291993	   11.7523	0.000286796	   11.7523	   7.16991	
   11.7695	0.00029798	   11.7569	0.000286233	   11.7773	0.00029992	   11.7679	0.000294711	   11.7679	   7.36778	
   11.7851	 0.0003059	   11.7717	0.000294173	   11.7921	0.000307867	    11.783	0.000302646	    11.783	   7.56616	
   11.7999	0.000313898	    11.786	0.000302151	   11.8063	0.000315826	   11.7974	0.000310625	   11.7974	   7.76564	
   11.8135	0.000322002	   11.7997	0.00031018	     11.82	0.000323781	   11.8111	0.000318655	   11.8111	   7.96636	
   11.8256	0.000330202	    11.813	0.000318262	   11.8331	0.00033171	   11.8239	0.000326725	   11.8239	   8.16812	
   11.8378	0.00033848	   11.8257	0.000326376	   11.8456	0.000339599	   11.8364	0.000334818	   11.8364	   8.37045	
   11.8498	0.000346769	   11.8379	0.000334492	   11.8575	0.000347433	   11.8484	0.000342898	   11.8484	   8.57245	
   11.8607	0.000354995	   11.8496	0.000342579	   11.8689	0.000355211	   11.8598	0.000350928	   11.8598	   8.77321	
   11.8717	0.000363102	   11.8608	0.000350609	   11.8798	0.000362948	   11.8708	0.000358886	   11.8708	   8.97216	
   11.8829	0.000371049	   11.8714	0.000358568	   11.8901	0.000370649	   11.8815	0.000366755	   11.8815	   9.16888	
   11.8924	0.000378846	   11.8816	0.000366454	   11.8999	0.000378321	   11.8913	0.00037454	   11.8913	   9.36351	
   11.9016	0.000386521	   11.8912	0.000374279	   11.9092	0.000385991	   11.9007	0.000382264	   11.9007	   9.55659	
   11.9121	0.000394116	   11.9004	0.000382069	    11.918	0.000393663	   11.9101	0.000389949	   11.9101	   9.74873	
   11.9211	0.000401698	   11.9091	0.000389852	   11.9262	0.000401349	   11.9188	0.000397633	   11.9188	   9.94082	
   11.9294	0.000409329	   11.9173	0.000397651	    11.934	0.000409049	   11.9269	0.000405343	   11.9269	   10.1336	
   11.9384	0.00041706	   11.9251	0.000405478	   11.9413	0.000416755	   11.9349	0.000413098	   11.9349	   10.3274	
   11.9463	0.000424912	   11.9324	0.000413328	   11.9482	0.000424462	   11.9423	 0.0004209	   11.9423	   10.5225	
   11.9536	0.000432858	   11.9393	0.000421184	   11.9546	0.000432157	   11.9492	0.000428733	   11.9492	   10.7183	
   11.9617	0.000440851	   11.9457	0.000429013	   11.9606	0.000439822	    11.956	0.000436562	    11.956	   10.9141	
   11.9685	0.000448837	   11.9518	0.000436789	   11.9662	0.000447453	   11.9622	0.00044436	   11.9622	    11.109	
   11.9736	0.000456751	   11.9574	0.000444491	   11.9714	0.00045504	   11.9675	0.000452094	   11.9675	   11.3023	
   11.9788	0.000464547	   11.9627	0.000452109	   11.9762	0.000462577	   11.9726	0.000459744	   11.9726	   11.4936	
   11.9835	0.00047219	   11.9676	0.000459647	   11.9807	0.000470063	   11.9773	 0.0004673	   11.9773	   11.6825	
   11.9872	0.000479687	   11.9721	0.000467118	   11.9848	0.000477499	   11.9814	0.000474768	   11.9814	   11.8692	
   11.9908	0.000487069	   11.9761	0.000474549	   11.9885	0.000484888	   11.9852	0.000482169	   11.9852	   12.0542	
   11.9939	0.00049437	   11.9796	0.00048197	    11.992	0.000492234	   11.9885	0.000489525	   11.9885	   12.2381	
   11.9961	0.000501658	   11.9828	0.000489403	   11.9951	0.000499549	   11.9913	0.00049687	   11.9913	   12.4217	
   11.9982	0.000508978	   11.9853	0.000496859	    11.998	0.000506835	   11.9938	0.000504224	   11.9938	   12.6056	
   12.0004	0.000516355	   11.9874	0.000504324	   12.0003	0.000514101	    11.996	0.000511593	    11.996	   12.7898	
   12.0018	0.000523811	   11.9891	0.000511791	   12.0024	0.000521361	   11.9978	0.000518988	   11.9978	   12.9747	
   12.0028	0.000531322	   11.9903	0.000519239	    12.004	0.000528617	    11.999	0.000526393	    11.999	   13.1598	
   12.0035	0.000538854	   11.9909	0.000526651	   12.0051	0.000535874	   11.9998	0.000533793	   11.9998	   13.3448	
   12.0034	0.000546363	   11.9911	0.000534018	   12.0057	0.000543133	        12	0.000541171	        12	   13.5293	
   12.0028	0.000553788	   11.9905	0.000541333	   12.0055	0.000550381	   11.9996	0.000548501	   11.9996	   13.7125	
    12.002	0.000561104	   11.9894	0.000548596	   12.0047	0.000557613	   11.9987	0.000555771	   11.9987	   13.8943	
   12.0003	0.000568296	   11.9877	0.000555825	   12.0032	0.000564814	    11.997	0.000562978	    11.997	   14.0744	
   11.9981	0.00057536	   11.9854	0.000563028	   12.0011	0.00057197	   11.9949	0.00057012	   11.9949	    14.253	
   11.9954	0.000582336	   11.9827	0.000570216	   11.9985	0.000579073	   11.9922	0.000577209	   11.9922	   14.4302	
   11.9923	0.000589265	   11.9796	0.000577389	   11.9955	0.000586114	   11.9891	0.000584256	   11.9891	   14.6064	
   11.9885	0.000596199	   11.9762	0.00058454	    11.992	0.000593102	   11.9856	0.00059128	   11.9856	    14.782	
   11.9844	0.000603183	   11.9724	0.000591662	   11.9882	0.000600042	   11.9817	0.000598295	   11.9817	   14.9574	
     11.98	0.00061023	   11.9683	0.000598748	    11.984	0.000606949	   11.9774	0.000605309	   11.9774	   15.1327	
   11.9748	0.000617344	   11.9639	0.000605788	   11.9796	0.000613838	   11.9728	0.000612323	   11.9728	   15.3081	
   11.9687	0.000624497	   11.9592	0.000612789	   11.9747	0.000620715	   11.9675	0.000619334	   11.9675	   15.4833	
   11.9625	0.000631643	    11.954	0.000619761	   11.9689	0.000627589	   11.9618	0.000626331	   11.9618	   15.6583	
   11.9559	0.00063874	   11.9481	0.000626708	   11.9625	0.000634462	   11.9555	0.000633303	   11.9555	   15.8326	
   11.9488	0.000645738	   11.9417	0.000633646	   11.9555	0.000641327	   11.9487	0.000640237	   11.9487	   16.0059	
   11.9411	0.000652609	   11.9347	0.000640576	   11.9479	0.00064818	   11.9413	0.000647122	   11.9413	    16.178	
    11.933	0.000659348	   11.9272	0.000647493	   11.9398	0.000655008	   11.9333	0.00065395	   11.9333	   16.3487	
   11.9244	0.000665972	   11.9192	0.000654396	   11.9313	 0.0006618	    11.925	0.000660723	    11.925	   16.5181	
   11.9155	0.000672526	   11.9108	0.000661275	   11.9224	0.000668547	   11.9162	0.000667449	   11.9162	   16.6862	
   11.9062	0.000679055	    11.902	0.000668114	   11.9132	0.000675246	   11.9071	0.000674138	   11.9071	   16.8535	
   11.8965	0.000685602	    11.893	0.00067491	   11.9036	0.000681897	   11.8977	0.000680803	   11.8977	   17.0201	
   11.8867	0.000692206	   11.8836	0.000681659	   11.8939	0.000688502	   11.8881	0.000687456	   11.8881	   17.1864	
   11.8762	0.000698876	   11.8736	0.000688371	   11.8836	0.000695068	   11.8778	0.000694105	   11.8778	   17.3526	
   11.8651	0.000705596	   11.8632	0.000695057	   11.8729	0.000701605	   11.8671	0.000700753	   11.8671	   17.5188	
   11.8534	0.000712336	   11.8521	0.000701723	   11.8619	0.000708122	   11.8558	0.000707394	   11.8558	   17.6848	
   11.8411	0.00071905	   11.8405	0.000708382	   11.8502	0.000714622	   11.8439	0.000714018	   11.8439	   17.8505	
   11.8285	0.000725698	   11.8284	0.000715038	   11.8381	0.000721109	   11.8317	0.000720615	   11.8317	   18.0154	
   11.8153	0.000732248	   11.8159	0.000721687	   11.8255	0.000727582	   11.8189	0.000727172	   11.8189	   18.1793	
   11.8019	0.000738679	   11.8031	0.000728328	   11.8126	0.000734033	   11.8059	0.00073368	   11.8059	    18.342	
    11.788	0.000745003	   11.7899	0.00073495	   11.7995	0.000740457	   11.7925	0.000740137	   11.7925	   18.5034	
   11.7733	0.00075124	   11.7759	0.00074154	   11.7859	0.000746842	   11.7784	0.000746541	   11.7784	   18.6635	
   11.7587	0.000757427	   11.7612	0.000748089	   11.7716	0.00075318	   11.7638	0.000752898	   11.7638	   18.8225	
   11.7435	0.000763606	   11.7459	0.000754591	   11.7567	0.000759466	   11.7487	0.000759221	   11.7487	   18.9805	
   11.7278	0.000769809	   11.7302	0.000761048	   11.7413	0.000765703	   11.7331	0.00076552	   11.7331	    19.138	
   11.7118	0.000776055	    11.714	0.000767462	   11.7253	0.000771893	   11.7171	0.000771803	   11.7171	   19.2951	
   11.6954	0.000782344	   11.6976	0.000773836	   11.7089	0.000778042	   11.7006	0.000778074	   11.7006	   19.4518	
   11.6789	0.000788657	   11.6807	0.000780179	    11.692	0.000784161	   11.6838	0.000784332	   11.6838	   19.6083	
    11.662	0.000794969	   11.6632	0.000786498	   11.6747	0.000790254	   11.6666	0.000790573	   11.6666	   19.7643	
   11.6445	0.000801237	   11.6451	0.000792801	   11.6568	0.000796331	   11.6488	0.00079679	   11.6488	   19.9197	
   11.6263	0.000807427	   11.6264	0.000799093	   11.6382	0.000802392	   11.6303	0.000802971	   11.6303	   20.0743	
   11.6077	0.000813521	   11.6073	0.000805374	   11.6192	0.000808437	   11.6114	0.000809111	   11.6114	   20.2278	
   11.5888	0.000819511	   11.5878	0.000811641	   11.5999	0.000814459	   11.5922	0.000815204	   11.5922	   20.3801	
   11.5693	0.000825413	   11.5681	0.000817887	   11.5802	0.000820445	   11.5726	0.000821248	   11.5726	   20.5312	
   11.5493	0.000831252	   11.5479	0.000824103	   11.5602	0.00082639	   11.5524	0.000827249	   11.5524	   20.6812	
   11.5292	0.000837056	   11.5269	0.000830282	   11.5398	0.00083229	    11.532	0.000833209	    11.532	   20.8302	
   11.5084	0.000842866	   11.5055	0.000836411	   11.5189	0.000838145	   11.5109	0.000839141	   11.5109	   20.9785	
   11.4872	0.000848704	   11.4836	0.000842488	   11.4974	0.000843957	   11.4894	0.00084505	   11.4894	   21.1262	
   11.4656	0.000854581	   11.4613	0.000848514	   11.4755	0.000849733	   11.4675	0.000850943	   11.4675	   21.2736	
   11.4438	0.000860493	   11.4389	0.000854502	   11.4533	0.000855478	   11.4453	0.000856824	   11.4453	   21.4206	
   11.4215	0.000866413	   11.4163	0.000860468	   11.4308	0.000861201	   11.4229	0.000862694	   11.4229	   21.5673	
    11.399	0.000872309	   11.3932	0.000866419	   11.4077	 0.0008669	      11.4	0.000868543	      11.4	   21.7136	
   11.3758	0.000878154	   11.3696	0.000872365	   11.3841	0.000872573	   11.3765	0.000874364	   11.3765	   21.8591	
   11.3522	0.000883915	   11.3456	0.000878302	   11.3599	0.000878218	   11.3526	0.000880145	   11.3526	   22.0036	
   11.3282	0.000889575	   11.3213	0.000884211	   11.3355	0.000883843	   11.3283	0.000885877	   11.3283	   22.1469	
   11.3039	0.000895133	   11.2967	0.000890068	   11.3104	0.00088944	   11.3037	0.000891547	   11.3037	   22.2887	
   11.2789	0.000900605	    11.272	0.000895843	   11.2847	0.000894986	   11.2785	0.000897145	   11.2785	   22.4286	
   11.2532	0.000906017	   11.2473	0.000901511	   11.2585	0.000900475	    11.253	0.000902668	    11.253	   22.5667	
   11.2271	0.000911396	   11.2225	0.000907066	   11.2318	0.000905897	   11.2271	0.00090812	   11.2271	    22.703	
   11.2006	0.000916772	   11.1972	0.00091251	   11.2047	0.000911244	   11.2008	0.000913508	   11.2008	   22.8377	
   11.1738	0.000922163	   11.1715	0.000917875	   11.1775	0.00091652	   11.1743	0.000918852	   11.1743	   22.9713	
   11.1467	0.000927573	   11.1452	0.000923199	   11.1499	0.000921741	   11.1473	0.000924171	   11.1473	   23.1043	
   11.1191	0.000932996	   11.1182	0.000928535	   11.1217	0.000926929	   11.1197	0.000929487	   11.1197	   23.2372	
   11.0909	0.00093841	   11.0904	0.000933928	   11.0931	0.000932093	   11.0915	0.00093481	   11.0915	   23.3703	
   11.0624	0.000943791	   11.0616	0.000939401	   11.0641	0.000937257	   11.0627	0.000940149	   11.0627	   23.5037	
   11.0337	0.00094911	   11.0319	0.000944954	   11.0346	0.000942427	   11.0334	0.000945497	   11.0334	   23.6374	
   11.0046	0.000954347	   11.0015	0.00095056	   11.0047	0.000947592	   11.0036	0.000950833	   11.0036	   23.7708	
   10.9749	0.000959497	   10.9702	0.000956175	   10.9742	0.00095275	   10.9731	0.000956141	   10.9731	   23.9035	
   10.9446	0.000964565	   10.9385	0.00096174	   10.9433	0.000957854	   10.9421	0.000961387	   10.9421	   24.0347	
    10.914	0.000969569	   10.9065	0.000967194	    10.912	0.000962887	   10.9109	0.00096655	   10.9109	   24.1638	
   10.8831	0.000974533	   10.8745	0.000972496	   10.8804	0.000967852	   10.8793	0.000971627	   10.8793	   24.2907	
   10.8516	0.000979481	   10.8421	0.000977629	    10.848	0.000972725	   10.8473	0.000976612	   10.8473	   24.4153	
   10.8196	0.000984433	   10.8097	0.000982606	   10.8152	0.000977517	   10.8148	0.000981519	   10.8148	    24.538	
   10.7872	0.000989393	   10.7773	0.000987463	   10.7819	0.000982272	   10.7821	0.000986376	   10.7821	   24.6594	
   10.7545	0.000994357	   10.7447	0.000992247	   10.7481	  0.000987	   10.7491	0.000991201	   10.7491	     24.78	
   10.7214	0.000999311	   10.7119	0.000997018	   10.7139	0.000991727	   10.7157	0.000996019	   10.7157	   24.9005	
   10.6879	0.00100424	   10.6787	0.00100183	   10.6792	0.000996481	    10.682	0.00100085	    10.682	   25.0212	
    10.654	0.00100912	    10.645	0.00100671	   10.6442	0.00100125	   10.6477	 0.0010057	   10.6477	   25.1424	
   10.6197	0.00101393	   10.6108	 0.0010117	   10.6087	0.00100603	   10.6131	0.00101055	   10.6131	   25.2638	
   10.5852	0.00101866	    10.576	0.00101676	    10.573	0.00101078	   10.5781	 0.0010154	   10.5781	    25.385	
     10.55	0.00102331	   10.5406	0.00102186	   10.5371	0.00101549	   10.5426	0.00102022	   10.5426	   25.5054	
   10.5144	0.00102788	   10.5047	0.00102693	   10.5009	0.00102012	   10.5066	0.00102498	   10.5066	   25.6244	
   10.4783	0.00103239	   10.4683	0.00103192	   10.4641	0.00102467	   10.4702	0.00102966	   10.4702	   25.7415	
   10.4419	0.00103686	   10.4313	0.00103678	   10.4271	0.00102913	   10.4334	0.00103426	   10.4334	   25.8564	
   10.4048	0.00104132	   10.3937	0.00104147	   10.3895	0.00103353	    10.396	0.00103877	    10.396	   25.9693	
   10.3672	0.00104577	   10.3556	0.00104599	   10.3515	0.00103788	   10.3581	0.00104321	   10.3581	   26.0803	
    10.329	0.00105023	   10.3173	0.00105037	   10.3132	0.00104223	   10.3199	0.00104761	   10.3199	   26.1902	
   10.2903	0.00105468	   10.2787	0.00105465	   10.2744	0.00104661	   10.2811	0.00105198	   10.2811	   26.2996	
   10.2509	0.00105913	   10.2395	0.00105891	   10.2351	0.00105104	   10.2418	0.00105636	   10.2418	    26.409	
   10.2111	0.00106355	   10.1999	 0.0010632	   10.1954	 0.0010555	   10.2021	0.00106075	   10.2021	   26.5187	
   10.1709	0.00106791	   10.1598	0.00106754	   10.1551	0.00105998	   10.1619	0.00106515	   10.1619	   26.6286	
   10.1306	0.00107221	   10.1196	0.00107196	   10.1141	0.00106443	   10.1214	0.00106954	   10.1214	   26.7384	
   10.0898	0.00107644	   10.0789	0.00107644	   10.0726	0.00106881	   10.0805	 0.0010739	   10.0805	   26.8474	
   10.0487	0.00108058	   10.0378	0.00108094	   10.0307	0.00107308	   10.0391	 0.0010782	   10.0391	    26.955	
   10.0074	0.00108464	   9.99608	0.00108539	   9.98826	0.00107722	   9.99724	0.00108242	   9.99724	   27.0604	
   9.96573	0.00108865	   9.95391	0.00108974	   9.94526	0.00108121	   9.95497	0.00108653	   9.95497	   27.1634	
   9.92354	0.00109261	   9.91126	0.00109395	    9.9019	0.00108507	   9.91224	0.00109054	   9.91224	   27.2636	
   9.88099	0.00109655	   9.86832	  0.001098	   9.85835	0.00108883	   9.86922	0.00109446	   9.86922	   27.3615	
   9.83804	0.00110047	   9.82526	 0.0011019	   9.81477	0.00109255	   9.82602	0.00109831	   9.82602	   27.4577	
   9.79445	0.00110438	    9.7816	0.00110567	   9.77131	0.00109627	   9.78245	0.00110211	   9.78245	   27.5527	
   9.75041	0.00110827	   9.73753	0.00110939	   9.72767	0.00110006	   9.73854	0.00110591	   9.73854	   27.6476	
   9.70611	0.00111213	   9.69323	 0.0011131	   9.68351	0.00110393	   9.69428	0.00110972	   9.69428	   27.7429	
   9.66129	0.00111595	   9.64846	0.00111684	   9.63889	0.00110787	   9.64955	0.00111356	   9.64955	   27.8389	
   9.61595	0.00111971	   9.60319	0.00112066	   9.59381	0.00111188	   9.60432	0.00111741	   9.60432	   27.9354	
   9.57027	0.00112339	   9.55761	0.00112453	   9.54803	0.00111587	   9.55864	0.00112126	   9.55864	   28.0316	
   9.52423	  0.001127	   9.51169	0.00112843	   9.50155	0.00111981	   9.51249	0.00112508	   9.51249	   28.1269	
   9.47759	0.00113052	    9.4654	0.00113231	   9.45522	0.00112362	   9.46607	0.00112882	   9.46607	   28.2204	
   9.43055	0.00113397	   9.41872	0.00113613	   9.40874	0.00112726	   9.41934	0.00113245	   9.41934	   28.3113	
   9.38331	0.00113737	   9.37184	0.00113983	   9.36147	0.00113071	   9.37221	0.00113597	   9.37221	   28.3992	
   9.33588	0.00114072	   9.32462	0.00114338	   9.31424	0.00113399	   9.32491	0.00113936	   9.32491	   28.4841	
   9.28797	0.00114406	   9.27691	0.00114678	    9.2672	0.00113714	   9.27736	0.00114266	   9.27736	   28.5664	
   9.23977	0.00114739	   9.22894	0.00115005	   9.21926	0.00114021	   9.22932	0.00114589	   9.22932	   28.6471	
   9.19104	0.00115071	   9.18066	0.00115324	   9.17125	0.00114328	   9.18099	0.00114908	   9.18099	   28.7269	
   9.14179	0.00115403	   9.13184	0.00115639	   9.12337	0.00114638	   9.13234	0.00115227	   9.13234	   28.8067	
   9.09223	0.00115733	    9.0827	0.00115954	   9.07407	0.00114957	     9.083	0.00115548	     9.083	    28.887	
   9.04253	0.00116059	   9.03342	0.00116274	   9.02426	0.00115283	    9.0334	0.00115872	    9.0334	    28.968	
   8.99226	0.00116379	   8.98354	0.00116598	   8.97426	0.00115616	   8.98336	0.00116198	   8.98336	   29.0494	
   8.94162	0.00116692	   8.93329	0.00116926	   8.92331	0.00115951	   8.93274	0.00116523	   8.93274	   29.1307	
   8.89061	0.00116995	   8.88286	0.00117256	   8.87249	0.00116284	   8.88199	0.00116845	   8.88199	   29.2112	
   8.83922	0.00117288	   8.83181	0.00117584	   8.82154	 0.0011661	   8.83086	0.00117161	   8.83086	   29.2901	
   8.78743	0.00117572	   8.78036	0.00117907	   8.77002	0.00116926	   8.77927	0.00117468	   8.77927	    29.367	
   8.73546	0.00117848	   8.72871	0.00118219	   8.71835	0.00117231	   8.72751	0.00117766	   8.72751	   29.4415	
   8.68308	0.00118118	   8.67664	0.00118519	   8.66672	0.00117524	   8.67548	0.00118054	   8.67548	   29.5134	
   8.63028	0.00118385	   8.62413	0.00118804	   8.61467	0.00117809	   8.62303	0.00118333	   8.62303	   29.5831	
   8.57727	0.00118651	   8.57141	0.00119075	   8.56241	0.00118086	   8.57037	0.00118604	   8.57037	    29.651	
   8.52384	0.00118919	   8.51804	0.00119336	   8.51013	0.00118357	   8.51733	0.00118871	   8.51733	   29.7177	
   8.46997	0.00119188	   8.46424	 0.0011959	   8.45737	0.00118623	   8.46386	0.00119134	   8.46386	   29.7835	
   8.41589	0.00119458	   8.41023	0.00119842	   8.40414	0.00118884	   8.41009	0.00119395	   8.41009	   29.8487	
   8.36159	0.00119728	   8.35601	0.00120096	   8.35087	 0.0011914	   8.35616	0.00119655	   8.35616	   29.9136	
   8.30685	0.00119994	   8.30134	0.00120355	   8.29732	0.00119391	   8.30184	0.00119913	   8.30184	   29.9783	
   8.25188	0.00120256	   8.24646	0.00120616	   8.24327	0.00119637	    8.2472	 0.0012017	    8.2472	   30.0424	
   8.19646	 0.0012051	   8.19155	0.00120879	   8.18915	 0.0011988	   8.19239	0.00120423	   8.19239	   30.1058	
   8.14062	0.00120756	   8.13618	 0.0012114	   8.13468	0.00120121	   8.13716	0.00120672	   8.13716	   30.1681	
   8.08458	0.00120992	   8.08057	0.00121395	   8.07991	0.00120362	   8.08169	0.00120916	   8.08169	   30.2291	
   8.02852	 0.0012122	   8.02492	0.00121641	   8.02485	0.00120603	    8.0261	0.00121155	    8.0261	   30.2887	
   7.97203	0.00121441	    7.9688	0.00121879	   7.96927	0.00120845	   7.97003	0.00121388	   7.97003	   30.3471	
   7.91531	0.00121659	   7.91222	0.00122107	    7.9134	0.00121087	   7.91365	0.00121618	   7.91365	   30.4044	
   7.85837	0.00121874	   7.85562	0.00122328	   7.85726	0.00121326	   7.85708	0.00121843	   7.85708	   30.4606	
     7.801	0.00122088	   7.79856	0.00122546	   7.80062	0.00121558	   7.80006	0.00122064	   7.80006	    30.516	
   7.74342	0.00122304	   7.74126	0.00122761	   7.74371	0.00121782	    7.7428	0.00122282	    7.7428	   30.5706	
   7.68553	 0.0012252	   7.68379	0.00122978	   7.68629	0.00121993	    7.6852	0.00122497	    7.6852	   30.6243	
   7.62723	0.00122736	   7.62587	0.00123197	   7.62841	0.00122191	   7.62717	0.00122708	   7.62717	    30.677	
   7.56875	0.00122949	   7.56773	0.00123414	   7.57032	0.00122377	   7.56893	0.00122913	   7.56893	   30.7283	
   7.51009	0.00123157	   7.50938	0.00123628	    7.5116	0.00122551	   7.51036	0.00123112	   7.51036	    30.778	
   7.45104	0.00123357	   7.45061	0.00123835	   7.45249	0.00122718	   7.45138	0.00123303	   7.45138	   30.8259	
   7.39184	0.00123548	   7.39145	0.00124031	   7.39323	0.00122882	   7.39217	0.00123487	   7.39217	   30.8717	
   7.33248	 0.0012373	    7.3319	0.00124213	   7.33361	0.00123045	   7.33266	0.00123663	   7.33266	   30.9157	
   7.27275	0.00123903	     7.272	0.00124383	   7.27363	 0.0012321	    7.2728	0.00123832	    7.2728	    30.958	
   7.21289	0.00124069	   7.21197	0.00124542	   7.21355	0.00123378	    7.2128	0.00123996	    7.2128	   30.9991	
   7.15248	0.00124231	    7.1514	0.00124694	   7.15313	0.00123547	   7.15234	0.00124157	   7.15234	   31.0393	
   7.09176	0.00124391	   7.09052	0.00124844	    7.0924	0.00123714	   7.09156	0.00124316	   7.09156	    31.079	
   7.03095	 0.0012455	   7.02958	0.00124994	   7.03139	0.00123877	   7.03064	0.00124474	   7.03064	   31.1184	
   6.96965	0.00124709	   6.96814	0.00125149	    6.9701	0.00124032	    6.9693	 0.0012463	    6.9693	   31.1575	
    6.9081	0.00124867	   6.90646	0.00125308	   6.90856	0.00124176	   6.90771	0.00124784	   6.90771	   31.1959	
   6.84631	0.00125022	   6.84475	0.00125471	   6.84699	0.00124309	   6.84602	0.00124934	   6.84602	   31.2335	
   6.78409	0.00125171	   6.78282	0.00125633	   6.78498	 0.0012443	   6.78396	0.00125078	   6.78396	   31.2696	
   6.72168	0.00125313	   6.72067	0.00125791	   6.72276	0.00124542	   6.72171	0.00125215	   6.72171	   31.3038	
    6.6589	0.00125445	   6.65791	 0.0012594	   6.66056	0.00124646	   6.65912	0.00125344	   6.65912	    31.336	
   6.59597	0.00125568	   6.59499	0.00126078	   6.59796	0.00124747	   6.59631	0.00125464	   6.59631	   31.3661	
    6.5327	0.00125683	   6.53194	0.00126203	    6.5352	0.00124847	   6.53328	0.00125578	   6.53328	   31.3944	
   6.46912	0.00125792	   6.46876	0.00126315	   6.47229	0.00124948	   6.47006	0.00125685	   6.47006	   31.4213	
   6.40525	0.00125896	   6.40527	0.00126418	   6.40903	0.00125051	   6.40652	0.00125788	   6.40652	   31.4471	
   6.34114	0.00125999	   6.34147	0.00126516	   6.34567	0.00125154	   6.34276	 0.0012589	   6.34276	   31.4725	
   6.27658	0.00126102	   6.27736	0.00126613	    6.2818	0.00125256	   6.27858	 0.0012599	   6.27858	   31.4976	
   6.21184	0.00126206	   6.21302	0.00126711	   6.21767	0.00125354	   6.21417	 0.0012609	   6.21417	   31.5225	
   6.14693	0.00126312	   6.14867	0.00126811	   6.15309	0.00125444	   6.14956	0.00126189	   6.14956	   31.5473	
   6.08166	0.00126416	   6.08391	0.00126913	   6.08812	0.00125526	   6.08456	0.00126285	   6.08456	   31.5712	
   6.01629	0.00126516	   6.01898	0.00127014	   6.02299	0.00125597	   6.01942	0.00126376	   6.01942	   31.5939	
   5.95083	0.00126608	   5.95391	 0.0012711	   5.95774	0.00125658	   5.95416	0.00126459	   5.95416	   31.6147	
    5.8853	 0.0012669	   5.88851	  0.001272	   5.89217	 0.0012571	   5.88866	0.00126533	   5.88866	   31.6333	
   5.81971	0.00126759	   5.82302	0.00127279	   5.82652	0.00125755	   5.82308	0.00126598	   5.82308	   31.6494	
   5.75381	0.00126814	   5.75719	0.00127346	    5.7607	0.00125796	   5.75724	0.00126652	   5.75724	    31.663	
    5.6877	0.00126858	   5.69113	0.00127402	   5.69443	0.00125835	   5.69108	0.00126698	   5.69108	   31.6746	
   5.62118	0.00126896	   5.62484	0.00127448	   5.62796	0.00125875	   5.62466	 0.0012674	   5.62466	   31.6849	
   5.55431	0.00126931	   5.55817	0.00127488	   5.56132	0.00125915	   5.55793	0.00126778	   5.55793	   31.6945	
   5.48734	0.00126968	   5.49135	0.00127524	   5.49454	0.00125955	   5.49108	0.00126816	   5.49108	    31.704	
   5.42008	 0.0012701	   5.42421	0.00127561	   5.42722	0.00125994	   5.42384	0.00126855	   5.42384	   31.7137	
   5.35257	0.00127059	   5.35679	0.00127597	   5.35964	0.00126029	   5.35633	0.00126895	   5.35633	   31.7238	
   5.28485	0.00127112	   5.28934	0.00127636	   5.29183	0.00126058	   5.28867	0.00126935	   5.28867	   31.7338	
   5.21674	0.00127165	    5.2216	0.00127674	   5.22362	0.00126079	   5.22065	0.00126973	   5.22065	   31.7432	
    5.1485	0.00127213	   5.15369	0.00127712	   5.15526	0.00126092	   5.15248	0.00127005	   5.15248	   31.7513	
   5.08037	 0.0012725	   5.08562	0.00127745	   5.08658	0.00126095	   5.08419	 0.0012703	   5.08419	   31.7575	
   5.01194	0.00127272	   5.01722	0.00127772	   5.01763	 0.0012609	    5.0156	0.00127045	    5.0156	   31.7612	
   4.94367	0.00127279	   4.94874	 0.0012779	   4.94865	0.00126077	   4.94702	0.00127049	   4.94702	   31.7622	
   4.87556	0.00127272	   4.87999	0.00127799	   4.87946	0.00126059	   4.87834	0.00127043	   4.87834	   31.7608	
   4.80721	0.00127254	   4.81103	0.00127799	    4.8101	0.00126037	   4.80945	 0.0012703	   4.80945	   31.7575	
   4.73864	0.00127233	   4.74209	 0.0012779	   4.74082	0.00126013	   4.74052	0.00127012	   4.74052	    31.753	
   4.67001	 0.0012721	   4.67294	0.00127776	   4.67136	0.00125988	   4.67144	0.00126992	   4.67144	   31.7479	
    4.6006	0.00127193	   4.60367	0.00127757	   4.60161	0.00125964	   4.60196	0.00126971	   4.60196	   31.7428	
   4.53113	0.00127182	   4.53409	0.00127736	   4.53204	0.00125939	   4.53242	0.00126952	   4.53242	    31.738	
   4.46163	0.00127175	   4.46426	0.00127712	   4.46223	0.00125911	    4.4627	0.00126933	    4.4627	   31.7332	
   4.39148	0.00127169	   4.39422	0.00127688	   4.39201	0.00125879	   4.39257	0.00126912	   4.39257	    31.728	
   4.32162	0.00127159	    4.3238	0.00127662	   4.32166	0.00125841	   4.32236	0.00126887	   4.32236	   31.7218	
   4.25224	 0.0012714	   4.25328	0.00127634	   4.25121	0.00125794	   4.25224	0.00126856	   4.25224	   31.7139	
   4.18187	 0.0012711	   4.18267	0.00127601	   4.18048	0.00125737	   4.18167	0.00126816	   4.18167	    31.704	
   4.11202	0.00127066	   4.11181	0.00127561	   4.10952	 0.0012567	   4.11112	0.00126766	   4.11112	   31.6914	
    4.0421	0.00127008	   4.04074	0.00127515	   4.03839	0.00125596	   4.04041	0.00126706	   4.04041	   31.6766	
   3.97109	0.00126941	   3.96951	 0.0012746	   3.96691	0.00125517	   3.96917	0.00126639	   3.96917	   31.6599	
   3.90036	0.00126867	   3.89816	0.00127398	   3.89535	0.00125436	   3.89796	0.00126567	   3.89796	   31.6417	
   3.82971	0.00126792	   3.82652	0.00127328	   3.82353	0.00125356	   3.82659	0.00126492	   3.82659	   31.6229	
   3.75812	0.00126717	   3.75485	0.00127252	   3.75151	0.00125278	   3.75483	0.00126416	   3.75483	   31.6039	
   3.68672	0.00126644	   3.68319	0.00127171	   3.67955	0.00125202	   3.68315	0.00126339	   3.68315	   31.5848	
   3.61508	0.00126574	   3.61129	0.00127087	   3.60725	0.00125128	   3.61121	0.00126263	   3.61121	   31.5658	
   3.54265	0.00126504	   3.53927	0.00127001	   3.53488	0.00125052	   3.53894	0.00126186	   3.53894	   31.5464	
   3.47038	 0.0012643	   3.46717	0.00126914	   3.46206	 0.0012497	   3.46654	0.00126105	   3.46654	   31.5262	
   3.39829	0.00126349	    3.3948	0.00126824	   3.38907	0.00124882	   3.39405	0.00126018	   3.39405	   31.5045	
   3.32596	0.00126259	   3.32244	0.00126731	   3.31617	0.00124782	   3.32152	0.00125924	   3.32152	    31.481	
   3.25325	0.00126158	    3.2497	0.00126633	   3.24296	0.00124671	   3.24864	0.00125821	   3.24864	   31.4552	
   3.18042	0.00126047	   3.17686	0.00126529	   3.16972	 0.0012455	   3.17567	0.00125709	   3.17567	   31.4272	
   3.10732	0.00125926	   3.10395	0.00126419	   3.09626	0.00124421	   3.10251	0.00125589	   3.10251	   31.3972	
   3.03399	0.00125799	   3.03096	0.00126301	   3.02266	0.00124287	    3.0292	0.00125462	    3.0292	   31.3655	
   2.96071	0.00125666	   2.95799	0.00126174	   2.94895	0.00124152	   2.95588	0.00125331	   2.95588	   31.3327	
   2.88708	0.00125532	   2.88464	0.00126041	   2.87496	0.00124018	   2.88223	0.00125197	   2.88223	   31.2993	
   2.81337	0.00125396	    2.8112	0.00125903	   2.80098	0.00123887	   2.80852	0.00125062	   2.80852	   31.2655	
   2.73964	 0.0012526	   2.73771	 0.0012576	   2.72682	0.00123758	   2.73472	0.00124926	   2.73472	   31.2315	
   2.66591	0.00125123	   2.66399	0.00125615	   2.65254	 0.0012363	   2.66081	0.00124789	   2.66081	   31.1973	
   2.59223	0.00124983	   2.59031	0.00125466	    2.5784	0.00123499	   2.58698	 0.0012465	   2.58698	   31.1624	
   2.51842	0.00124839	    2.5165	0.00125316	   2.50421	0.00123362	   2.51304	0.00124506	   2.51304	   31.1264	
   2.44437	0.00124688	   2.44261	0.00125163	   2.43001	0.00123217	   2.43899	0.00124356	   2.43899	   31.0889	
   2.37028	0.00124529	   2.36867	0.00125006	   2.35564	 0.0012306	   2.36487	0.00124198	   2.36487	   31.0495	
   2.29601	0.00124361	   2.29452	0.00124845	   2.28116	0.00122891	   2.29056	0.00124033	   2.29056	   31.0082	
    2.2218	0.00124185	   2.22043	0.00124679	    2.2068	0.00122713	   2.21634	0.00123859	   2.21634	   30.9648	
   2.14748	0.00124002	   2.14621	0.00124507	    2.1322	0.00122528	   2.14196	0.00123679	   2.14196	   30.9197	
   2.07311	0.00123812	   2.07192	0.00124328	   2.05761	0.00122338	   2.06754	0.00123493	   2.06754	   30.8732	
   1.99871	0.00123618	   1.99759	0.00124142	   1.98307	0.00122148	   1.99312	0.00123303	   1.99312	   30.8257	
   1.92412	0.00123422	   1.92307	0.00123951	   1.90841	0.00121959	   1.91854	 0.0012311	   1.91854	   30.7776	
   1.84962	0.00123223	   1.84862	0.00123754	   1.83373	0.00121772	   1.84399	0.00122916	   1.84399	    30.729	
   1.77501	0.00123022	   1.77406	0.00123551	   1.75881	0.00121586	   1.76929	 0.0012272	   1.76929	     30.68	
   1.70036	 0.0012282	   1.69943	0.00123345	   1.68393	  0.001214	   1.69457	0.00122522	   1.69457	   30.6305	
   1.62569	0.00122615	   1.62501	0.00123136	   1.60911	0.00121211	   1.61994	 0.0012232	   1.61994	   30.5801	
   1.55086	0.00122405	   1.55038	0.00122923	   1.53419	0.00121015	   1.54514	0.00122114	   1.54514	   30.5286	
   1.47612	0.00122191	   1.47582	0.00122708	   1.45943	0.00120809	   1.47045	0.00121903	   1.47045	   30.4756	
   1.40129	0.00121969	   1.40115	0.00122489	   1.38443	0.00120594	   1.39562	0.00121684	   1.39562	    30.421	
   1.32642	 0.0012174	   1.32642	0.00122266	   1.30946	0.00120368	   1.32076	0.00121458	   1.32076	   30.3645	
    1.2516	0.00121504	   1.25172	0.00122038	   1.23445	0.00120135	   1.24593	0.00121226	   1.24593	   30.3065	
   1.17662	0.00121262	   1.17684	0.00121806	   1.15935	0.00119898	   1.17094	0.00120988	   1.17094	   30.2471	
   1.10131	0.00121014	   1.10182	0.00121568	   1.08442	0.00119661	   1.09585	0.00120747	   1.09585	   30.1869	
   1.02595	0.00120762	   1.02672	0.00121324	   1.00925	0.00119425	   1.02064	0.00120504	   1.02064	    30.126	
  0.950597	0.00120507	  0.951592	0.00121075	  0.934126	0.00119193	  0.945438	0.00120258	  0.945438	   30.0645	
  0.875489	0.00120249	   0.87647	0.00120821	  0.859287	0.00118961	  0.870415	0.00120011	  0.870415	   30.0026	
  0.800234	 0.0011999	  0.801401	0.00120564	  0.784335	0.00118726	  0.795324	 0.0011976	  0.795324	   29.9399	
  0.725095	0.00119727	  0.726421	0.00120302	   0.70953	0.00118485	  0.720349	0.00119505	  0.720349	   29.8761	
  0.650001	0.00119461	  0.651302	0.00120036	  0.634639	0.00118234	  0.645314	0.00119244	  0.645314	    29.811	
  0.574883	0.00119191	  0.576147	0.00119767	  0.559761	0.00117972	  0.570264	0.00118976	  0.570264	   29.7441	
  0.499993	0.00118915	  0.501211	0.00119493	  0.484935	0.00117696	   0.49538	0.00118701	   0.49538	   29.6753	
  0.424934	0.00118632	  0.426096	0.00119214	  0.409988	0.00117409	  0.420339	0.00118419	  0.420339	   29.6046	
   0.34997	0.00118343	  0.351069	 0.0011893	   0.33497	0.00117113	  0.345336	0.00118129	  0.345336	   29.5322	
  0.274925	0.00118048	  0.276163	0.00118638	  0.259927	0.00116815	  0.270338	0.00117834	  0.270338	   29.4584	
  0.199846	0.00117745	  0.201199	 0.0011834	  0.184902	0.00116517	  0.195316	0.00117534	  0.195316	   29.3836	
  0.124673	0.00117438	  0.126117	0.00118035	  0.109986	0.00116225	  0.120259	0.00117233	  0.120259	   29.3082	
 0.0493505	0.00117126	 0.0510763	0.00117724	 0.0349518	0.00115939	 0.0451262	 0.0011693	 0.0451262	   29.2324	
-0.0260649	0.00116811	-0.0238877	0.00117408	-0.0399418	0.00115659	-0.0299648	0.00116626	-0.0299648	   29.1565	
 -0.101525	0.00116493	-0.0989492	 0.0011709	 -0.115085	 0.0011538	 -0.105186	0.00116321	 -0.105186	   29.0802	
 -0.176984	0.00116172	  -0.17406	 0.0011677	 -0.190206	0.00115099	 -0.180417	0.00116014	 -0.180417	   29.0034	
 -0.252399	0.00115849	 -0.249174	0.00116449	 -0.265057	 0.0011481	 -0.255543	0.00115703	 -0.255543	   28.9257	
 -0.327943	0.00115522	 -0.324461	0.00116128	 -0.340038	0.00114509	 -0.330814	0.00115386	 -0.330814	   28.8465	
 -0.403352	 0.0011519	 -0.400073	0.00115805	 -0.414889	0.00114192	 -0.406105	0.00115063	 -0.406105	   28.7656	
 -0.478701	0.00114853	 -0.475943	0.00115479	 -0.489684	 0.0011386	 -0.481442	0.00114731	 -0.481442	   28.6827	
 -0.554056	 0.0011451	 -0.551795	0.00115148	 -0.564493	0.00113514	 -0.556782	0.00114391	 -0.556782	   28.5977	
 -0.629376	 0.0011416	 -0.627588	0.00114807	 -0.639482	0.00113158	 -0.632148	0.00114042	 -0.632148	   28.5104	
 -0.704618	0.00113802	 -0.703072	0.00114457	 -0.714595	0.00112796	 -0.707429	0.00113685	 -0.707429	   28.4213	
  -0.77975	0.00113438	 -0.778439	0.00114097	 -0.789781	0.00112434	 -0.782657	0.00113323	 -0.782657	   28.3307	
 -0.854737	0.00113068	 -0.853448	0.00113728	 -0.864993	0.00112073	 -0.857726	0.00112957	 -0.857726	   28.2392	
 -0.929761	0.00112694	 -0.927877	0.00113353	 -0.940188	0.00111718	 -0.932609	0.00112588	 -0.932609	    28.147	
  -1.00478	0.00112316	  -1.00194	0.00112975	  -1.01512	0.00111366	  -1.00728	0.00112219	  -1.00728	   28.0547	
  -1.07996	0.00111935	  -1.07627	0.00112597	  -1.09018	0.00111016	  -1.08214	0.00111849	  -1.08214	   27.9623	
  -1.15504	0.00111551	  -1.15059	0.00112222	  -1.16512	0.00110664	  -1.15691	0.00111479	  -1.15691	   27.8698	
  -1.22998	0.00111165	  -1.22485	 0.0011185	   -1.2401	0.00110306	  -1.23165	0.00111107	  -1.23165	   27.7767	
  -1.30497	0.00110774	  -1.29966	0.00111479	   -1.3151	0.00109937	  -1.30658	 0.0011073	  -1.30658	   27.6825	
  -1.37975	 0.0011038	  -1.37473	0.00111106	  -1.38985	0.00109556	  -1.38144	0.00110347	  -1.38144	   27.5868	
  -1.45451	0.00109979	  -1.44935	0.00110728	  -1.46454	0.00109162	  -1.45614	0.00109956	  -1.45614	   27.4891	
  -1.52921	0.00109573	  -1.52395	0.00110339	  -1.53915	0.00108756	  -1.53077	0.00109556	  -1.53077	    27.389	
  -1.60381	 0.0010916	  -1.59891	0.00109938	  -1.61363	0.00108341	  -1.60545	0.00109147	  -1.60545	   27.2866	
  -1.67834	 0.0010874	  -1.67284	0.00109524	  -1.68816	0.00107922	  -1.67978	0.00108729	  -1.67978	   27.1822	
   -1.7527	0.00108315	   -1.7467	0.00109097	   -1.7625	0.00107502	  -1.75397	0.00108305	  -1.75397	   27.0761	
  -1.82688	0.00107884	  -1.82127	0.00108662	  -1.83684	0.00107083	  -1.82833	0.00107876	  -1.82833	   26.9691	
  -1.90106	0.00107449	   -1.8948	0.00108221	  -1.91112	0.00106667	  -1.90233	0.00107446	  -1.90233	   26.8614	
  -1.97499	0.00107011	  -1.96816	0.00107779	  -1.98512	0.00106253	  -1.97609	0.00107015	  -1.97609	   26.7536	
  -2.04887	0.00106571	  -2.04238	 0.0010734	  -2.05923	 0.0010584	  -2.05016	0.00106584	  -2.05016	    26.646	
  -2.12266	0.00106129	   -2.1161	0.00106905	   -2.1332	0.00105423	  -2.12399	0.00106152	  -2.12399	   26.5381	
  -2.19634	0.00105685	  -2.18952	0.00106474	    -2.207	0.00104999	  -2.19762	0.00105719	  -2.19762	   26.4298	
  -2.27008	0.00105238	  -2.26354	0.00106043	  -2.28082	0.00104565	  -2.27148	0.00105282	  -2.27148	   26.3204	
  -2.34363	0.00104785	  -2.33674	0.00105608	  -2.35441	0.00104119	  -2.34493	0.00104837	  -2.34493	   26.2093	
   -2.4174	0.00104327	  -2.41002	0.00105166	  -2.42796	0.00103661	  -2.41846	0.00104385	  -2.41846	   26.0962	
  -2.49111	0.00103862	  -2.48394	0.00104713	  -2.50143	0.00103193	  -2.49216	0.00103923	  -2.49216	   25.9807	
  -2.56453	 0.0010339	  -2.55737	0.00104248	  -2.57481	0.00102718	  -2.56557	0.00103452	  -2.56557	    25.863	
  -2.63765	0.00102911	  -2.63032	0.00103772	  -2.64827	0.00102238	  -2.63875	0.00102974	  -2.63875	   25.7435	
  -2.71066	0.00102426	  -2.70364	0.00103287	  -2.72156	0.00101758	  -2.71195	 0.0010249	  -2.71195	   25.6226	
  -2.78354	0.00101936	  -2.77704	0.00102797	  -2.79466	0.00101279	  -2.78508	0.00102004	  -2.78508	    25.501	
  -2.85648	0.00101442	  -2.85001	0.00102304	  -2.86775	0.00100803	  -2.85808	0.00101516	  -2.85808	   25.3791	
  -2.92922	0.00100946	  -2.92344	0.00101813	  -2.94081	0.00100327	  -2.93116	0.00101029	  -2.93116	   25.2572	
  -3.00218	0.00100447	  -2.99685	0.00101326	  -3.01402	 0.0009985	  -3.00435	0.00100541	  -3.00435	   25.1352	
  -3.07508	0.000999471	  -3.06957	0.00100841	  -3.08711	0.000993684	  -3.07725	0.00100052	  -3.07725	   25.0131	
  -3.14769	0.000994457	  -3.14224	0.00100359	  -3.16006	0.000988801	     -3.15	0.000995616	     -3.15	   24.8904	
  -3.22042	0.000989417	  -3.21506	0.00099875	  -3.23305	0.000983833	  -3.22284	0.000990667	  -3.22284	   24.7667	
  -3.29302	0.000984338	  -3.28776	0.000993861	  -3.30585	0.000978778	  -3.29554	0.000985659	  -3.29554	   24.6415	
   -3.3654	0.00097921	  -3.36043	0.000988889	  -3.37854	0.000973638	  -3.36812	0.000980579	  -3.36812	   24.5145	
  -3.43783	0.00097402	  -3.43314	0.000983806	  -3.45119	0.000968429	  -3.44072	0.000975418	  -3.44072	   24.3855	
  -3.51005	0.000968764	  -3.50565	0.000978608	  -3.52358	0.000963166	  -3.51309	0.000970179	  -3.51309	   24.2545	
  -3.58185	0.000963443	  -3.57835	0.000973305	  -3.59589	0.000957874	  -3.58536	0.000964874	  -3.58536	   24.1219	
  -3.65363	0.000958064	    -3.651	0.000967922	  -3.66811	0.000952569	  -3.65758	0.000959518	  -3.65758	    23.988	
  -3.72538	0.000952641	  -3.72356	 0.0009625	  -3.73999	0.000947255	  -3.72965	0.000954132	  -3.72965	   23.8533	
  -3.79686	0.000947181	  -3.79579	0.000957067	  -3.81175	0.000941927	  -3.80147	0.000948725	  -3.80147	   23.7181	
  -3.86827	0.000941699	  -3.86791	0.000951653	  -3.88337	0.000936578	  -3.87318	0.00094331	  -3.87318	   23.5827	
  -3.93938	0.000936202	  -3.93967	0.000946264	  -3.95461	0.000931197	  -3.94455	0.000937888	  -3.94455	   23.4472	
  -4.01059	0.000930689	  -4.01151	0.000940894	  -4.02591	0.000925774	    -4.016	0.000932452	    -4.016	   23.3113	
  -4.08189	0.000925159	  -4.08316	0.000935495	  -4.09701	0.000920303	  -4.08735	0.000926986	  -4.08735	   23.1746	
  -4.15322	0.000919603	  -4.15441	0.000930043	   -4.1679	0.000914776	  -4.15851	0.000921474	  -4.15851	   23.0369	
  -4.22435	0.000914008	  -4.22568	0.000924532	  -4.23858	0.000909192	  -4.22954	0.000915911	  -4.22954	   22.8978	
  -4.29527	0.000908362	  -4.29674	0.000918956	  -4.30903	0.00090356	  -4.30035	0.000910293	  -4.30035	   22.7573	
  -4.36618	0.000902657	  -4.36735	0.000913328	  -4.37947	0.000897877	    -4.371	0.000904621	    -4.371	   22.6155	
  -4.43663	0.000896885	  -4.43775	0.000907679	  -4.44985	0.000892161	  -4.44141	0.000898909	  -4.44141	   22.4727	
  -4.50684	0.000891045	  -4.50792	0.000902039	  -4.51997	0.000886429	  -4.51158	0.000893171	  -4.51158	   22.3293	
  -4.57682	0.000885135	  -4.57786	0.00089644	   -4.5898	0.000880678	  -4.58149	0.000887418	  -4.58149	   22.1854	
  -4.64675	0.000879167	  -4.64777	0.00089089	  -4.65956	0.000874915	  -4.65136	0.000881657	  -4.65136	   22.0414	
  -4.71642	0.000873153	  -4.71742	0.000885388	  -4.72902	0.000869136	  -4.72096	0.000875893	  -4.72096	   21.8973	
  -4.78582	0.000867112	  -4.78681	0.000879901	   -4.7984	0.000863326	  -4.79034	0.000870113	  -4.79034	   21.7528	
  -4.85516	0.00086107	  -4.85614	0.000874371	  -4.86768	0.000857469	  -4.85966	0.000864303	  -4.85966	   21.6076	
  -4.92421	0.000855048	   -4.9252	0.000868749	  -4.93663	0.000851542	  -4.92868	0.000858447	  -4.92868	   21.4612	
  -4.99319	0.000849061	  -4.99397	0.000862992	  -5.00547	0.00084554	  -4.99754	0.000852531	  -4.99754	   21.3133	
  -5.06208	0.000843118	  -5.06252	0.000857064	  -5.07419	0.000839457	  -5.06627	0.000846546	  -5.06627	   21.1637	
  -5.13066	0.000837207	   -5.1308	0.000850966	  -5.14258	0.000833291	  -5.13468	0.000840488	  -5.13468	   21.0122	
  -5.19936	 0.0008313	   -5.1988	0.000844725	  -5.21105	0.000827069	  -5.20307	0.000834364	  -5.20307	   20.8591	
  -5.26793	0.000825354	  -5.26675	0.000838399	  -5.27937	0.000820823	  -5.27135	0.000828192	  -5.27135	   20.7048	
  -5.33636	0.000819321	  -5.33442	0.000832051	  -5.34734	0.000814578	  -5.33937	0.000821983	  -5.33937	   20.5496	
  -5.40445	0.000813154	  -5.40181	0.000825733	  -5.41495	0.000808361	  -5.40707	0.000815749	  -5.40707	   20.3937	
   -5.4724	0.000806828	  -5.46915	0.000819493	  -5.48243	0.000802177	  -5.47466	0.000809499	  -5.47466	   20.2375	
     -5.54	0.000800339	   -5.5362	0.000813352	  -5.54957	0.000796017	  -5.54192	0.000803236	  -5.54192	   20.0809	
  -5.60753	0.000793708	   -5.6031	0.000807293	  -5.61648	0.000789844	  -5.60903	0.000796948	  -5.60903	   19.9237	
  -5.67493	0.000786989	  -5.66993	0.000801279	  -5.68327	0.00078364	  -5.67604	0.000790636	  -5.67604	   19.7659	
  -5.74197	0.000780243	  -5.73648	0.000795245	  -5.74973	0.000777348	  -5.74273	0.000784279	  -5.74273	    19.607	
  -5.80868	0.000773532	  -5.80277	0.000789138	  -5.81588	0.000770956	  -5.80911	0.000777875	  -5.80911	   19.4469	
  -5.87527	0.000766906	  -5.86879	0.000782907	  -5.88193	0.000764471	  -5.87533	0.000771428	  -5.87533	   19.2857	
  -5.94155	0.000760386	  -5.93457	0.000776525	  -5.94768	0.000757893	  -5.94127	0.000764935	  -5.94127	   19.1234	
   -6.0073	0.000753953	  -5.99991	0.000769996	  -6.01335	0.000751247	  -6.00685	0.000758399	  -6.00685	     18.96	
  -6.07299	0.00074758	  -6.06524	0.000763339	  -6.07894	0.000744588	  -6.07239	0.000751836	  -6.07239	   18.7959	
  -6.13839	0.000741202	  -6.13036	0.000756592	  -6.14424	0.00073794	  -6.13766	0.000745245	  -6.13766	   18.6311	
  -6.20332	0.000734761	  -6.19506	0.000749812	  -6.20925	0.000731335	  -6.20255	0.000738636	  -6.20255	   18.4659	
  -6.26802	0.000728208	  -6.25958	0.000743049	  -6.27421	0.000724764	  -6.26727	0.000732007	  -6.26727	   18.3002	
  -6.33249	0.000721511	  -6.32393	0.000736339	   -6.3389	0.000718206	  -6.33177	0.000725352	  -6.33177	   18.1338	
  -6.39653	0.000714672	   -6.3879	0.000729697	  -6.40334	0.000711641	  -6.39592	0.00071867	  -6.39592	   17.9668	
   -6.4604	0.000707734	  -6.45152	0.000723113	  -6.46775	0.000705025	  -6.45989	0.000711957	  -6.45989	   17.7989	
   -6.5241	0.000700741	  -6.51504	0.00071655	  -6.53191	0.000698324	  -6.52368	0.000705205	  -6.52368	   17.6301	
  -6.58743	0.000693777	  -6.57824	0.000709956	  -6.59565	0.000691517	   -6.5871	0.000698417	   -6.5871	   17.4604	
  -6.65042	0.00068688	  -6.64094	0.000703269	  -6.65919	0.00068459	  -6.65018	0.000691579	  -6.65018	   17.2895	
   -6.7133	0.00068006	   -6.7036	0.000696434	  -6.72255	0.000677566	  -6.71315	0.000684687	  -6.71315	   17.1172	
  -6.77588	0.000673319	  -6.76601	0.000689433	  -6.78554	0.00067048	  -6.77581	0.000677744	  -6.77581	   16.9436	
  -6.83818	0.000666619	   -6.8282	0.000682284	  -6.84818	0.00066337	  -6.83819	0.000670758	  -6.83819	   16.7689	
  -6.90022	 0.0006599	  -6.89019	0.000675032	  -6.91029	0.000656266	  -6.90023	0.000663733	  -6.90023	   16.5933	
  -6.96204	0.000653109	  -6.95199	0.00066775	  -6.97212	0.000649187	  -6.96205	0.000656682	  -6.96205	   16.4171	
  -7.02343	0.000646192	  -7.01342	0.000660519	  -7.03351	0.000642134	  -7.02345	0.000649615	  -7.02345	   16.2404	
  -7.08455	0.000639135	  -7.07462	0.000653397	  -7.09458	0.00063509	  -7.08458	0.00064254	  -7.08458	   16.0635	
  -7.14553	0.000631934	  -7.13549	0.000646409	  -7.15548	0.000628024	   -7.1455	0.000635456	   -7.1455	   15.8864	
  -7.20617	0.000624627	  -7.19608	0.000639538	  -7.21601	0.000620914	  -7.20609	0.00062836	  -7.20609	    15.709	
   -7.2663	0.000617282	  -7.25621	0.00063273	  -7.27622	0.000613732	  -7.26624	0.000621248	  -7.26624	   15.5312	
  -7.32618	0.000609955	  -7.31612	0.000625896	  -7.33592	0.000606466	  -7.32607	0.000614106	  -7.32607	   15.3526	
  -7.38584	0.000602702	  -7.37586	0.000618939	  -7.39538	0.000599121	  -7.38569	0.00060692	  -7.38569	    15.173	
   -7.4451	0.000595556	  -7.43523	0.000611798	  -7.45442	0.000591707	  -7.44492	0.000599687	  -7.44492	   14.9922	
    -7.504	0.000588515	  -7.49449	0.000604442	  -7.51309	0.00058425	  -7.50386	0.000592402	  -7.50386	   14.8101	
  -7.56263	0.00058155	  -7.55349	0.000596888	  -7.57165	0.00057678	  -7.56259	0.000585073	  -7.56259	   14.6268	
  -7.62099	0.000574611	  -7.61223	0.000589191	   -7.6299	0.000569317	  -7.62104	0.000577706	  -7.62104	   14.4427	
   -7.6789	0.00056764	  -7.67052	0.000581425	  -7.68767	0.000561864	  -7.67903	0.00057031	  -7.67903	   14.2577	
  -7.73661	0.000560578	  -7.72821	0.000573692	  -7.74524	0.000554427	  -7.73669	0.000562899	  -7.73669	   14.0725	
  -7.79418	0.000553381	  -7.78578	0.00056607	  -7.80263	  0.000547	   -7.7942	0.000555484	   -7.7942	   13.8871	
   -7.8514	0.000546036	  -7.84306	0.000558588	  -7.85967	0.00053956	  -7.85138	0.000548061	  -7.85138	   13.7015	
  -7.90813	0.000538561	  -7.90007	0.000551249	   -7.9162	0.000532087	  -7.90814	0.000540632	  -7.90814	   13.5158	
  -7.96442	0.000530994	  -7.95666	0.00054401	  -7.97269	0.000524558	  -7.96459	0.000533187	  -7.96459	   13.3297	
  -8.02039	0.000523388	  -8.01309	0.00053679	  -8.02897	0.000516959	  -8.02082	0.000525712	  -8.02082	   13.1428	
  -8.07601	0.00051579	  -8.06918	0.000529504	  -8.08486	0.000509292	  -8.07668	0.000518195	  -8.07668	   12.9549	
  -8.13115	0.000508245	  -8.12478	0.000522084	  -8.14041	0.000501568	  -8.13211	0.000510632	  -8.13211	   12.7658	
  -8.18586	0.000500777	  -8.17994	0.000514498	  -8.19589	0.000493818	  -8.18723	0.000503031	  -8.18723	   12.5758	
  -8.24021	0.000493383	  -8.23493	0.000506749	  -8.25112	0.000486079	  -8.24209	0.000495404	  -8.24209	   12.3851	
  -8.29425	0.000486019	   -8.2896	0.00049887	  -8.30593	0.000478372	  -8.29659	0.000487754	  -8.29659	   12.1938	
  -8.34783	0.000478621	  -8.34378	0.000490918	  -8.36018	0.000470706	  -8.35059	0.000480081	  -8.35059	    12.002	
  -8.40122	0.000471135	  -8.39796	0.000482969	  -8.41414	0.000463087	  -8.40444	0.000472397	  -8.40444	   11.8099	
  -8.45433	0.000463527	   -8.4518	0.000475087	  -8.46788	0.00045551	    -8.458	0.000464708	    -8.458	   11.6177	
  -8.50714	0.000455782	   -8.5053	0.000467314	  -8.52123	0.000447951	  -8.51122	0.000457016	  -8.51122	   11.4254	
  -8.55972	0.000447948	  -8.55833	0.000459655	  -8.57405	0.000440374	  -8.56403	0.000449326	  -8.56403	   11.2331	
  -8.61211	0.000440068	  -8.61094	0.000452082	  -8.62682	0.000432742	  -8.61662	0.000441631	  -8.61662	   11.0408	
  -8.66438	0.000432204	  -8.66341	0.000444557	  -8.67939	0.000425033	  -8.66906	0.000433931	  -8.66906	   10.8483	
  -8.71636	0.000424413	  -8.71559	0.000437019	  -8.73159	0.000417228	  -8.72118	0.00042622	  -8.72118	   10.6555	
  -8.76789	0.000416736	  -8.76732	0.000429405	  -8.78327	0.000409351	  -8.77283	0.000418497	  -8.77283	   10.4624	
  -8.81931	0.000409186	  -8.81847	0.000421674	  -8.83478	0.000401419	  -8.82418	0.00041076	  -8.82418	    10.269	
  -8.87062	0.000401727	  -8.86953	0.000413806	  -8.88611	0.000393445	  -8.87542	0.000402993	  -8.87542	   10.0748	
  -8.92165	0.000394281	  -8.92014	0.00040581	  -8.93711	0.000385468	   -8.9263	0.000395186	   -8.9263	   9.87965	
  -8.97225	0.000386753	  -8.97038	0.000397726	  -8.98763	0.00037751	  -8.97675	0.00038733	  -8.97675	   9.68324	
  -9.02251	0.000379062	   -9.0201	0.000389613	  -9.03755	0.000369566	  -9.02672	0.000379414	  -9.02672	   9.48534	
  -9.07248	0.000371157	  -9.06939	0.000381548	  -9.08696	0.000361642	  -9.07628	0.000371449	  -9.07628	   9.28622	
  -9.12204	0.000363019	  -9.11833	0.000373587	  -9.13614	0.000353724	   -9.1255	0.000363443	   -9.1255	   9.08608	
  -9.17125	0.000354694	    -9.167	0.000365756	  -9.18497	 0.0003458	  -9.17441	0.000355417	  -9.17441	   8.88541	
  -9.21998	0.000346277	  -9.21526	0.000358047	   -9.2333	0.000337848	  -9.22285	0.000347391	  -9.22285	   8.68476	
   -9.2681	0.000337867	  -9.26319	0.000350415	  -9.28122	0.000329849	  -9.27084	0.000339377	  -9.27084	   8.48443	
  -9.31593	0.000329565	  -9.31044	0.000342784	  -9.32882	0.000321808	   -9.3184	0.000331386	   -9.3184	   8.28464	
  -9.36354	0.00032146	  -9.35692	0.000335071	  -9.37617	0.000313734	  -9.36554	0.000323422	  -9.36554	   8.08555	
  -9.41079	0.000313569	  -9.40253	0.000327205	  -9.42313	0.000305641	  -9.41215	0.000315472	  -9.41215	   7.88679	
  -9.45754	0.000305861	  -9.44719	0.000319146	  -9.46958	0.000297552	  -9.45811	0.00030752	  -9.45811	   7.68799	
  -9.50369	0.000298256	  -9.49104	0.000310883	  -9.51541	0.000289484	  -9.50338	0.000299541	  -9.50338	   7.48852	
  -9.54955	0.000290647	  -9.53421	0.000302456	  -9.56073	0.000281453	  -9.54816	0.000291519	  -9.54816	   7.28797	
   -9.5952	0.000282925	  -9.57713	0.000293946	  -9.60568	0.00027346	  -9.59267	0.000283444	  -9.59267	    7.0861	
   -9.6405	0.000275007	  -9.61999	0.00028545	   -9.6503	0.000265494	  -9.63693	0.000275317	  -9.63693	   6.88292	
  -9.68533	0.00026685	  -9.66267	0.000277069	  -9.69448	0.000257535	  -9.68083	0.000267151	  -9.68083	   6.67879	
  -9.72959	0.000258476	  -9.70565	0.000268872	  -9.73809	0.000249563	  -9.72444	0.00025897	  -9.72444	   6.47426	
  -9.77357	0.00024994	  -9.74897	0.000260883	  -9.78168	0.000241555	  -9.76807	0.000250793	  -9.76807	   6.26982	
  -9.81717	0.00024134	  -9.79247	0.00025308	  -9.82487	0.000233502	  -9.81151	0.000242641	  -9.81151	   6.06601	
  -9.86048	0.000232776	  -9.83599	0.000245389	  -9.86778	0.000225395	  -9.85475	0.00023452	  -9.85475	     5.863	
  -9.90337	0.000224335	  -9.87979	0.000237713	  -9.91029	0.000217244	  -9.89781	0.000226431	  -9.89781	   5.66077	
  -9.94574	0.00021607	  -9.92308	0.000229948	  -9.95227	0.00020906	  -9.94036	0.000218359	  -9.94036	   5.45899	
  -9.98769	0.000207993	  -9.96576	0.000222001	  -9.99406	0.000200861	  -9.98251	0.000210285	  -9.98251	   5.25712	
  -10.0293	0.000200064	  -10.0079	0.000213829	  -10.0353	0.000192666	  -10.0242	0.000202186	  -10.0242	   5.05465	
  -10.0708	0.000192203	    -10.05	0.000205437	  -10.0764	0.000184491	  -10.0657	0.000194044	  -10.0657	   4.85109	
  -10.1119	0.000184318	  -10.0914	0.000196877	  -10.1171	0.000176348	  -10.1068	0.000185847	  -10.1068	   4.64618	
  -10.1525	0.000176325	  -10.1325	0.000188236	  -10.1574	0.000168239	  -10.1475	 0.0001776	  -10.1475	   4.43999	
  -10.1926	0.000168164	  -10.1731	0.00017961	  -10.1972	0.000160154	  -10.1877	0.000169309	  -10.1877	   4.23273	
  -10.2321	0.000159813	  -10.2131	0.000171094	  -10.2365	0.000152081	  -10.2273	0.000160996	  -10.2273	    4.0249	
  -10.2712	0.000151295	  -10.2524	0.000162745	  -10.2756	0.000144007	  -10.2664	0.000152683	  -10.2664	   3.81706	
  -10.3101	0.000142676	  -10.2916	0.000154576	  -10.3143	0.000135914	  -10.3054	0.000144389	  -10.3054	   3.60972	
  -10.3487	0.000134036	  -10.3304	0.000146557	  -10.3527	0.000127789	  -10.3439	0.000136127	  -10.3439	   3.40319	
  -10.3869	0.000125464	  -10.3687	0.000138621	  -10.3907	0.000119628	  -10.3821	0.000127904	  -10.3821	    3.1976	
  -10.4246	0.000117029	  -10.4067	0.000130683	  -10.4283	0.000111433	  -10.4198	0.000119715	  -10.4198	   2.99287	
  -10.4617	0.000108769	  -10.4441	0.00012266	  -10.4652	0.000103211	   -10.457	0.000111547	   -10.457	   2.78867	
  -10.4986	0.000100672	  -10.4811	0.000114487	  -10.5015	9.49714e-05	  -10.4937	0.000103377	  -10.4937	   2.58442	
  -10.5351	9.26953e-05	   -10.518	0.000106133	  -10.5373	8.67354e-05	  -10.5301	9.5188e-05	  -10.5301	    2.3797	
  -10.5713	8.47714e-05	  -10.5545	9.76086e-05	   -10.573	7.85106e-05	  -10.5663	8.69635e-05	  -10.5663	   2.17409	
  -10.6072	7.68142e-05	  -10.5908	8.89633e-05	  -10.6084	7.0308e-05	  -10.6021	7.86952e-05	  -10.6021	   1.96738	
  -10.6427	6.87477e-05	  -10.6267	8.0275e-05	  -10.6434	6.21298e-05	  -10.6376	7.03842e-05	  -10.6376	    1.7596	
  -10.6776	6.05284e-05	  -10.6621	7.1625e-05	   -10.678	5.39698e-05	  -10.6726	6.20411e-05	  -10.6726	   1.55103	
  -10.7121	5.21418e-05	  -10.6969	6.30844e-05	   -10.712	4.58199e-05	   -10.707	5.3682e-05	   -10.707	   1.34205	
  -10.7458	4.36164e-05	  -10.7312	5.46949e-05	  -10.7454	3.76676e-05	  -10.7408	4.53263e-05	  -10.7408	   1.13316	
  -10.7793	3.50139e-05	  -10.7649	4.64619e-05	  -10.7783	2.94987e-05	  -10.7742	3.69915e-05	  -10.7742	  0.924787	
  -10.8125	2.64103e-05	  -10.7981	3.83556e-05	   -10.811	2.1305e-05	  -10.8072	2.86903e-05	  -10.8072	  0.717257	
  -10.8452	1.7883e-05	  -10.8306	3.0314e-05	  -10.8434	1.30831e-05	  -10.8397	2.04267e-05	  -10.8397	  0.510668	
  -10.8776	9.49108e-06	  -10.8629	2.22594e-05	  -10.8756	4.83399e-06	   -10.872	1.21948e-05	   -10.872	  0.304871	
  -10.9095	1.25508e-06	  -10.8949	1.41211e-05	  -10.9074	-3.43397e-06	  -10.9039	3.98073e-06	  -10.9039	 0.0995183	
   -10.941	-6.83642e-06	  -10.9264	5.84981e-06	  -10.9387	-1.17061e-05	  -10.9354	-4.23091e-06	  -10.9354	 -0.105773	
   -10.972	-1.48316e-05	  -10.9575	-2.57187e-06	  -10.9695	-1.997e-05	  -10.9663	-1.24578e-05	  -10.9663	 -0.311446	
  -11.0023	-2.27997e-05	   -10.988	-1.11251e-05	  -10.9997	-2.82182e-05	  -10.9967	-2.07143e-05	  -10.9967	 -0.517858	
  -11.0321	-3.08122e-05	  -11.0179	-1.97607e-05	  -11.0293	-3.64474e-05	  -11.0264	-2.90068e-05	  -11.0264	 -0.725169	
  -11.0614	-3.89283e-05	  -11.0473	-2.84061e-05	  -11.0584	-4.46588e-05	  -11.0557	-3.73311e-05	  -11.0557	 -0.933277	
  -11.0903	-4.71825e-05	  -11.0764	-3.69924e-05	  -11.0873	-5.28618e-05	  -11.0847	-4.56789e-05	  -11.0847	  -1.14197	
  -11.1191	-5.55729e-05	  -11.1051	-4.54609e-05	  -11.1161	-6.10705e-05	  -11.1134	-5.40348e-05	  -11.1134	  -1.35087	
  -11.1474	-6.40626e-05	  -11.1336	-5.37868e-05	  -11.1443	-6.92951e-05	  -11.1418	-6.23815e-05	  -11.1418	  -1.55954	
  -11.1753	-7.25883e-05	  -11.1618	-6.19785e-05	  -11.1723	-7.75352e-05	  -11.1698	-7.07006e-05	  -11.1698	  -1.76752	
  -11.2028	-8.10863e-05	  -11.1896	-7.00759e-05	  -11.1998	-8.57863e-05	  -11.1974	-7.89828e-05	  -11.1974	  -1.97457	
  -11.2299	-8.94967e-05	   -11.217	-7.81371e-05	  -11.2269	-9.40377e-05	  -11.2246	-8.72238e-05	  -11.2246	   -2.1806	
  -11.2564	-9.77825e-05	  -11.2439	-8.62305e-05	  -11.2535	-0.000102277	  -11.2513	-9.543e-05	  -11.2513	  -2.38575	
  -11.2824	-0.000105934	  -11.2702	-9.44109e-05	  -11.2795	-0.000110491	  -11.2774	-0.000103612	  -11.2774	   -2.5903	
  -11.3078	-0.000113971	   -11.296	-0.000102714	  -11.3051	-0.00011868	   -11.303	-0.000111788	   -11.303	  -2.79471	
  -11.3326	-0.000121943	  -11.3212	-0.000111142	  -11.3301	-0.000126842	   -11.328	-0.000119976	   -11.328	  -2.99939	
  -11.3568	-0.000129913	  -11.3459	-0.000119664	  -11.3546	-0.000134985	  -11.3525	-0.000128188	  -11.3525	  -3.20469	
  -11.3806	-0.000137942	  -11.3701	-0.000128227	  -11.3786	-0.000143121	  -11.3764	-0.00013643	  -11.3764	  -3.41075	
  -11.4043	-0.000146073	   -11.394	-0.000136771	  -11.4025	-0.000151266	  -11.4002	-0.000144703	  -11.4002	  -3.61759	
  -11.4275	-0.000154317	  -11.4175	-0.00014524	  -11.4257	-0.00015943	  -11.4236	-0.000152996	  -11.4236	  -3.82489	
  -11.4504	-0.000162659	  -11.4406	-0.000153598	  -11.4487	-0.000167617	  -11.4466	-0.000161291	  -11.4466	  -4.03228	
  -11.4729	-0.000171059	  -11.4633	-0.00016183	  -11.4714	-0.000175821	  -11.4692	-0.00016957	  -11.4692	  -4.23925	
  -11.4951	-0.000179458	  -11.4856	-0.000169948	  -11.4938	-0.00018402	  -11.4915	-0.000177809	  -11.4915	  -4.44522	
  -11.5169	-0.000187798	  -11.5077	-0.000177991	  -11.5158	-0.000192204	  -11.5135	-0.000185998	  -11.5135	  -4.64994	
  -11.5384	-0.000196035	  -11.5293	-0.000186007	  -11.5374	-0.000200366	   -11.535	-0.000194136	   -11.535	   -4.8534	
  -11.5593	-0.000204141	  -11.5505	-0.00019405	  -11.5585	-0.000208486	  -11.5561	-0.000202225	  -11.5561	  -5.05563	
  -11.5798	-0.000212122	  -11.5712	-0.00020216	  -11.5791	-0.000216558	  -11.5767	-0.00021028	  -11.5767	    -5.257	
  -11.5998	-0.000220013	  -11.5915	-0.000210358	  -11.5991	-0.000224591	  -11.5968	-0.000218321	  -11.5968	  -5.45801	
  -11.6192	-0.000227866	  -11.6112	-0.000218637	  -11.6187	-0.000232594	  -11.6163	-0.000226366	  -11.6163	  -5.65914	
   -11.638	-0.000235736	  -11.6303	-0.000226973	  -11.6376	-0.000240586	  -11.6353	-0.000234431	  -11.6353	  -5.86079	
  -11.6563	-0.000243672	  -11.6489	-0.000235324	   -11.656	-0.00024858	  -11.6537	-0.000242525	  -11.6537	  -6.06314	
   -11.674	-0.000251703	  -11.6669	-0.000243642	  -11.6739	-0.000256586	  -11.6716	-0.000250644	  -11.6716	  -6.26609	
  -11.6911	-0.00025983	  -11.6843	-0.00025189	  -11.6913	-0.000264608	  -11.6889	-0.000258776	  -11.6889	   -6.4694	
  -11.7078	-0.000268029	  -11.7014	-0.000260043	   -11.708	-0.000272631	  -11.7057	-0.000266901	  -11.7057	  -6.67253	
   -11.724	-0.00027626	  -11.7177	-0.000268093	  -11.7243	-0.000280647	   -11.722	 -0.000275	   -11.722	    -6.875	
  -11.7396	-0.000284467	  -11.7335	-0.000276052	  -11.7401	-0.000288639	  -11.7377	-0.000283053	  -11.7377	  -7.07632	
  -11.7547	-0.000292605	  -11.7489	-0.000283945	  -11.7553	-0.000296598	   -11.753	-0.000291049	   -11.753	  -7.27624	
  -11.7694	-0.000300639	  -11.7637	-0.000291809	    -11.77	-0.000304518	  -11.7677	-0.000298989	  -11.7677	  -7.47472	
  -11.7834	-0.00030856	  -11.7778	-0.000299675	  -11.7844	-0.000312396	  -11.7819	-0.000306877	  -11.7819	  -7.67192	
  -11.7967	-0.000316379	  -11.7917	-0.000307571	  -11.7981	-0.000320232	  -11.7955	-0.000314727	  -11.7955	  -7.86818	
  -11.8097	-0.000324131	  -11.8049	-0.000315514	  -11.8116	-0.000328042	  -11.8087	-0.000322563	  -11.8087	  -8.06407	
  -11.8224	-0.000331862	  -11.8174	-0.000323508	   -11.825	-0.000335835	  -11.8216	-0.000330402	  -11.8216	  -8.26004	
  -11.8345	-0.000339619	  -11.8297	-0.000331542	  -11.8376	-0.000343615	  -11.8339	-0.000338259	  -11.8339	  -8.45647	
  -11.8464	-0.000347437	  -11.8418	-0.000339595	  -11.8496	-0.00035139	  -11.8459	-0.00034614	  -11.8459	  -8.65351	
  -11.8577	-0.000355334	  -11.8531	-0.000347639	  -11.8613	-0.000359162	  -11.8574	-0.000354045	  -11.8574	  -8.85112	
  -11.8685	-0.000363305	  -11.8642	-0.00035565	  -11.8722	-0.000366926	  -11.8683	-0.00036196	  -11.8683	  -9.04901	
  -11.8788	-0.000371322	  -11.8751	-0.000363606	  -11.8828	-0.000374677	  -11.8789	-0.000369868	  -11.8789	  -9.24671	
  -11.8887	-0.000379344	  -11.8854	-0.000371497	  -11.8929	-0.000382408	   -11.889	-0.00037775	   -11.889	  -9.44375	
  -11.8981	-0.000387323	  -11.8952	-0.000379323	  -11.9028	-0.000390115	  -11.8987	-0.000385587	  -11.8987	  -9.63968	
   -11.907	-0.000395219	  -11.9046	-0.000387093	  -11.9118	-0.000397793	  -11.9078	-0.000393368	  -11.9078	  -9.83421	
  -11.9155	-0.000402982	  -11.9135	-0.000394823	  -11.9204	-0.000405437	  -11.9165	-0.00040108	  -11.9165	   -10.027	
  -11.9237	-0.000410616	  -11.9217	-0.00040253	  -11.9286	-0.000413045	  -11.9247	-0.00040873	  -11.9247	  -10.2183	
  -11.9315	-0.000418162	  -11.9292	-0.000410231	  -11.9362	-0.000420619	  -11.9323	-0.000416337	  -11.9323	  -10.4084	
  -11.9385	-0.000425659	  -11.9362	-0.000417941	  -11.9431	-0.00042816	  -11.9393	-0.00042392	  -11.9393	   -10.598	
   -11.945	-0.000433162	  -11.9425	-0.000425665	  -11.9496	-0.00043567	  -11.9457	-0.000431499	  -11.9457	  -10.7875	
  -11.9509	-0.000440731	  -11.9483	-0.000433397	  -11.9556	-0.000443158	  -11.9516	-0.000439095	  -11.9516	  -10.9774	
  -11.9564	-0.000448402	  -11.9538	-0.000441127	  -11.9609	-0.000450628	   -11.957	-0.000446719	   -11.957	   -11.168	
  -11.9613	-0.000456185	  -11.9587	-0.000448844	  -11.9657	-0.000458089	  -11.9619	-0.000454372	  -11.9619	  -11.3593	
  -11.9658	-0.000464052	  -11.9631	-0.000456535	  -11.9699	-0.000465541	  -11.9663	-0.000462043	  -11.9663	  -11.5511	
  -11.9697	-0.000471959	  -11.9671	-0.000464187	  -11.9737	-0.000472987	  -11.9702	-0.000469711	  -11.9702	  -11.7428	
  -11.9732	-0.00047984	  -11.9706	-0.000471795	   -11.977	-0.000480424	  -11.9736	-0.000477353	  -11.9736	  -11.9338	
  -11.9762	-0.000487628	  -11.9737	-0.000479356	  -11.9798	-0.000487843	  -11.9766	-0.000484942	  -11.9766	  -12.1236	
  -11.9789	-0.000495273	  -11.9763	-0.000486875	  -11.9823	-0.000495236	  -11.9792	-0.000492461	  -11.9792	  -12.3115	
  -11.9811	-0.000502753	  -11.9786	-0.000494359	  -11.9843	-0.000502598	  -11.9813	-0.000499903	  -11.9813	  -12.4976	
   -11.983	-0.000510075	  -11.9806	-0.000501813	   -11.986	-0.000509923	  -11.9832	-0.00050727	  -11.9832	  -12.6818	
  -11.9845	-0.000517275	  -11.9822	-0.000509247	  -11.9874	-0.000517212	  -11.9847	-0.000514578	  -11.9847	  -12.8645	
  -11.9857	-0.000524416	  -11.9835	-0.000516661	  -11.9884	-0.000524468	  -11.9858	-0.000521848	  -11.9858	  -13.0462	
  -11.9866	-0.000531564	  -11.9845	-0.000524056	  -11.9891	-0.000531696	  -11.9867	-0.000529105	  -11.9867	  -13.2276	
  -11.9872	-0.000538777	  -11.9852	-0.000531429	  -11.9896	-0.000538904	  -11.9873	-0.00053637	  -11.9873	  -13.4092	
  -11.9876	-0.000546087	  -11.9857	-0.000538776	  -11.9898	-0.000546099	  -11.9877	-0.000543654	  -11.9877	  -13.5914	
  -11.9877	-0.000553503	  -11.9858	-0.00054609	  -11.9896	-0.000553285	  -11.9877	-0.000550959	  -11.9877	   -13.774	
  -11.9877	-0.000560999	  -11.9854	-0.000553363	  -11.9889	-0.000560462	  -11.9873	-0.000558274	  -11.9873	  -13.9569	
   -11.987	-0.000568525	  -11.9847	-0.000560599	  -11.9879	-0.000567633	  -11.9865	-0.000565585	  -11.9865	  -14.1396	
  -11.9857	-0.000576017	  -11.9834	-0.000567803	  -11.9866	-0.000574791	  -11.9852	-0.000572871	  -11.9852	  -14.3218	
  -11.9841	-0.000583422	  -11.9815	-0.000574983	  -11.9847	-0.000581926	  -11.9834	-0.00058011	  -11.9834	  -14.5028	
  -11.9819	-0.000590696	  -11.9788	-0.000582135	  -11.9822	-0.000589032	   -11.981	-0.000587288	   -11.981	  -14.6822	
   -11.979	-0.000597823	  -11.9756	-0.000589268	  -11.9793	-0.000596109	   -11.978	-0.0005944	   -11.978	    -14.86	
  -11.9755	-0.000604817	  -11.9719	-0.000596385	  -11.9758	-0.000603152	  -11.9744	-0.000601451	  -11.9744	  -15.0363	
  -11.9715	-0.000611718	  -11.9677	-0.000603491	  -11.9717	-0.000610166	  -11.9703	-0.000608458	  -11.9703	  -15.2115	
  -11.9671	-0.000618575	  -11.9631	-0.000610578	  -11.9675	-0.000617152	  -11.9659	-0.000615435	  -11.9659	  -15.3859	
  -11.9623	-0.00062544	  -11.9581	-0.000617639	  -11.9626	-0.000624114	   -11.961	-0.000622398	   -11.961	  -15.5599	
  -11.9569	-0.000632359	  -11.9526	-0.000624667	  -11.9571	-0.000631051	  -11.9555	-0.000629359	  -11.9555	   -15.734	
  -11.9512	-0.00063936	  -11.9468	-0.000631648	  -11.9514	-0.000637964	  -11.9498	-0.000636324	  -11.9498	  -15.9081	
  -11.9449	-0.000646438	  -11.9404	-0.000638562	  -11.9451	-0.000644848	  -11.9435	-0.000643282	  -11.9435	  -16.0821	
  -11.9383	-0.000653563	  -11.9336	-0.000645411	   -11.938	-0.000651705	  -11.9366	-0.000650226	  -11.9366	  -16.2557	
  -11.9313	-0.000660689	  -11.9263	-0.000652213	  -11.9308	-0.000658534	  -11.9294	-0.000657145	  -11.9294	  -16.4286	
  -11.9236	-0.000667767	  -11.9183	-0.00065899	  -11.9231	-0.000665335	  -11.9217	-0.00066403	  -11.9217	  -16.6008	
  -11.9153	-0.000674751	  -11.9097	-0.000665773	  -11.9148	-0.000672114	  -11.9133	-0.000670879	  -11.9133	   -16.772	
  -11.9064	-0.000681612	  -11.9007	-0.000672583	  -11.9061	-0.00067888	  -11.9044	-0.000677692	  -11.9044	  -16.9423	
  -11.8971	-0.000688338	  -11.8912	-0.000679429	  -11.8972	-0.00068564	  -11.8952	-0.000684469	  -11.8952	  -17.1117	
  -11.8874	-0.000694952	  -11.8814	-0.0006863	  -11.8879	-0.0006924	  -11.8856	-0.000691218	  -11.8856	  -17.2804	
  -11.8773	-0.000701491	  -11.8713	-0.000693174	   -11.878	-0.000699153	  -11.8755	-0.000697939	  -11.8755	  -17.4485	
   -11.867	-0.000707993	  -11.8605	-0.000700023	  -11.8678	-0.000705886	  -11.8651	-0.000704634	  -11.8651	  -17.6158	
  -11.8565	-0.000714502	  -11.8496	-0.000706814	   -11.857	-0.00071256	  -11.8543	-0.000711292	  -11.8543	  -17.7823	
  -11.8455	-0.000721049	  -11.8383	-0.000713522	  -11.8456	-0.00071916	  -11.8432	-0.00071791	  -11.8432	  -17.9478	
  -11.8339	-0.000727648	  -11.8264	-0.000720132	  -11.8339	-0.000725684	  -11.8314	-0.000724488	  -11.8314	  -18.1122	
  -11.8216	-0.000734296	  -11.8139	-0.000726649	  -11.8216	-0.000732127	  -11.8191	-0.000731024	  -11.8191	  -18.2756	
  -11.8088	-0.000740972	   -11.801	-0.000733108	  -11.8088	-0.0007385	  -11.8062	-0.000737527	  -11.8062	  -18.4382	
  -11.7956	-0.00074765	  -11.7876	-0.000739547	  -11.7956	-0.000744839	  -11.7929	-0.000744012	  -11.7929	  -18.6003	
  -11.7819	-0.000754299	   -11.774	-0.000745985	  -11.7818	-0.000751172	  -11.7792	-0.000750486	  -11.7792	  -18.7621	
   -11.768	-0.000760889	    -11.76	-0.000752457	  -11.7677	-0.000757531	  -11.7652	-0.000756959	  -11.7652	   -18.924	
  -11.7537	-0.000767406	  -11.7455	-0.000758971	  -11.7534	-0.000763926	  -11.7509	-0.000763434	  -11.7509	  -19.0859	
   -11.739	-0.000773843	  -11.7302	-0.000765498	  -11.7386	-0.000770365	  -11.7359	-0.000769902	  -11.7359	  -19.2476	
  -11.7236	-0.000780191	  -11.7144	-0.000772021	   -11.723	-0.000776833	  -11.7203	-0.000776349	  -11.7203	  -19.4087	
  -11.7077	-0.000786458	   -11.698	-0.000778505	   -11.707	-0.000783294	  -11.7042	-0.000782752	  -11.7042	  -19.5688	
  -11.6912	-0.000792655	  -11.6813	-0.000784899	  -11.6904	-0.000789704	  -11.6876	-0.000789086	  -11.6876	  -19.7271	
  -11.6744	-0.000798804	  -11.6642	-0.000791193	  -11.6732	-0.000796027	  -11.6706	-0.000795341	  -11.6706	  -19.8835	
  -11.6571	-0.000804919	  -11.6467	-0.000797379	  -11.6558	-0.000802229	  -11.6532	-0.000801509	  -11.6532	  -20.0377	
  -11.6396	-0.000811032	  -11.6286	-0.000803464	   -11.638	-0.000808303	  -11.6354	-0.0008076	  -11.6354	    -20.19	
  -11.6214	-0.000817151	  -11.6099	-0.000809482	  -11.6195	-0.000814258	  -11.6169	-0.00081363	  -11.6169	  -20.3408	
  -11.6027	-0.000823285	  -11.5909	-0.00081547	  -11.6003	-0.000820126	   -11.598	-0.000819627	   -11.598	  -20.4907	
  -11.5835	-0.000829444	  -11.5714	-0.000821464	  -11.5807	-0.000825948	  -11.5785	-0.000825619	  -11.5785	  -20.6405	
  -11.5638	-0.000835597	  -11.5515	-0.00082749	  -11.5606	-0.000831766	  -11.5587	-0.000831618	  -11.5587	  -20.7904	
  -11.5439	-0.000841727	  -11.5314	-0.000833549	  -11.5403	-0.000837614	  -11.5385	-0.00083763	  -11.5385	  -20.9407	
  -11.5237	-0.000847812	  -11.5107	-0.000839634	  -11.5196	-0.000843515	   -11.518	-0.000843654	   -11.518	  -21.0913	
  -11.5028	-0.000853805	  -11.4892	-0.000845716	  -11.4983	-0.000849464	  -11.4968	-0.000849662	  -11.4968	  -21.2415	
  -11.4813	-0.000859693	  -11.4673	-0.000851763	  -11.4764	-0.000855437	   -11.475	-0.000855631	   -11.475	  -21.3908	
  -11.4593	-0.000865466	  -11.4449	-0.000857744	   -11.454	-0.000861399	  -11.4527	-0.000861536	  -11.4527	  -21.5384	
  -11.4369	-0.000871122	  -11.4222	-0.000863629	  -11.4312	-0.000867306	  -11.4301	-0.000867352	  -11.4301	  -21.6838	
  -11.4141	-0.00087671	   -11.399	-0.000869402	  -11.4082	-0.000873122	  -11.4071	-0.000873078	  -11.4071	   -21.827	
   -11.391	-0.000882261	  -11.3755	-0.000875073	  -11.3846	-0.000878823	  -11.3837	-0.000878719	  -11.3837	   -21.968	
  -11.3673	-0.000887815	  -11.3514	-0.00088066	  -11.3606	-0.000884403	  -11.3598	-0.000884293	  -11.3598	  -22.1073	
   -11.343	-0.00089341	  -11.3268	-0.000886194	  -11.3359	-0.000889874	  -11.3353	-0.000889826	  -11.3353	  -22.2457	
  -11.3183	-0.000899055	  -11.3018	-0.000891712	  -11.3109	-0.000895263	  -11.3103	-0.000895343	  -11.3103	  -22.3836	
  -11.2932	-0.000904749	  -11.2765	-0.000897246	  -11.2856	-0.000900608	  -11.2851	-0.000900868	  -11.2851	  -22.5217	
  -11.2677	-0.000910459	  -11.2507	-0.000902803	  -11.2597	-0.000905947	  -11.2593	-0.000906403	  -11.2593	  -22.6601	
  -11.2416	-0.000916141	  -11.2242	-0.000908398	  -11.2334	-0.000911305	  -11.2331	-0.000911948	  -11.2331	  -22.7987	
  -11.2149	-0.000921751	  -11.1972	-0.000914016	  -11.2067	-0.000916697	  -11.2063	-0.000917488	  -11.2063	  -22.9372	
  -11.1878	-0.000927247	  -11.1698	-0.000919623	  -11.1794	-0.000922118	   -11.179	-0.000922996	   -11.179	  -23.0749	
  -11.1603	-0.000932616	  -11.1422	-0.000925189	  -11.1519	-0.000927545	  -11.1514	-0.00092845	  -11.1514	  -23.2113	
  -11.1325	-0.000937858	  -11.1142	-0.000930682	   -11.124	-0.00093295	  -11.1236	-0.00093383	  -11.1236	  -23.3457	
  -11.1045	-0.000942991	  -11.0858	-0.000936074	  -11.0954	-0.000938295	  -11.0952	-0.00093912	  -11.0952	   -23.478	
  -11.0758	-0.000948071	  -11.0569	-0.00094136	  -11.0662	-0.000943551	  -11.0663	-0.000944327	  -11.0663	  -23.6082	
  -11.0467	-0.000953131	  -11.0276	-0.000946542	  -11.0367	-0.000948702	   -11.037	-0.000949458	   -11.037	  -23.7365	
  -11.0172	-0.000958214	  -10.9978	-0.000951645	  -11.0069	-0.000953743	  -11.0073	-0.000954534	  -11.0073	  -23.8633	
  -10.9873	-0.000963348	  -10.9675	-0.000956703	  -10.9765	-0.000958686	  -10.9771	-0.000959579	  -10.9771	  -23.9895	
  -10.9566	-0.000968529	  -10.9366	-0.00096175	  -10.9454	-0.000963559	  -10.9462	-0.000964613	  -10.9462	  -24.1153	
  -10.9257	-0.000973739	  -10.9053	-0.000966822	  -10.9139	-0.000968398	  -10.9149	-0.000969653	  -10.9149	  -24.2413	
  -10.8943	-0.000978934	  -10.8736	-0.000971934	   -10.882	-0.000973233	  -10.8833	-0.000974701	  -10.8833	  -24.3675	
  -10.8624	-0.000984066	  -10.8416	-0.000977087	  -10.8498	-0.000978088	  -10.8513	-0.000979747	  -10.8513	  -24.4937	
  -10.8302	-0.000989104	  -10.8088	-0.000982264	   -10.817	-0.000982973	  -10.8187	-0.00098478	  -10.8187	  -24.6195	
  -10.7974	-0.000994005	  -10.7756	-0.000987427	  -10.7838	-0.000987884	  -10.7856	-0.000989772	  -10.7856	  -24.7443	
  -10.7641	-0.000998765	  -10.7421	-0.000992537	  -10.7501	-0.000992788	  -10.7521	-0.000994697	  -10.7521	  -24.8674	
  -10.7305	-0.00100341	  -10.7083	-0.000997557	  -10.7162	-0.000997656	  -10.7183	-0.00099954	  -10.7183	  -24.9885	
  -10.6965	-0.00100796	  -10.6742	-0.00100246	   -10.682	-0.00100246	  -10.6842	-0.00100429	  -10.6842	  -25.1074	
  -10.6618	-0.00101248	  -10.6396	-0.00100724	  -10.6472	-0.00100717	  -10.6495	-0.00100896	  -10.6495	  -25.2241	
  -10.6267	-0.00101702	  -10.6045	-0.0010119	  -10.6119	-0.00101177	  -10.6144	-0.00101356	  -10.6144	   -25.339	
  -10.5912	-0.0010216	  -10.5692	-0.00101648	  -10.5764	-0.00101627	  -10.5789	-0.00101811	  -10.5789	  -25.4529	
  -10.5553	-0.00102624	  -10.5336	-0.00102101	  -10.5407	-0.00102068	  -10.5432	-0.00102265	  -10.5432	  -25.5662	
   -10.519	-0.00103095	  -10.4973	-0.00102556	  -10.5045	-0.00102504	  -10.5069	-0.00102718	  -10.5069	  -25.6796	
  -10.4821	-0.00103569	  -10.4607	-0.00103014	  -10.4677	-0.00102938	  -10.4702	-0.00103174	  -10.4702	  -25.7934	
  -10.4449	-0.00104042	  -10.4237	-0.0010348	  -10.4306	-0.00103371	  -10.4331	-0.00103631	  -10.4331	  -25.9077	
  -10.4076	-0.00104509	  -10.3864	-0.00103953	  -10.3934	-0.00103805	  -10.3958	-0.00104089	  -10.3958	  -26.0223	
  -10.3697	-0.00104964	  -10.3486	-0.0010443	  -10.3558	-0.00104242	   -10.358	-0.00104545	   -10.358	  -26.1364	
  -10.3314	-0.00105406	  -10.3102	-0.00104908	  -10.3176	-0.00104677	  -10.3197	-0.00104997	  -10.3197	  -26.2493	
  -10.2927	-0.00105832	  -10.2716	-0.00105381	  -10.2792	-0.0010511	  -10.2812	-0.00105441	  -10.2812	  -26.3603	
  -10.2538	-0.00106242	  -10.2325	-0.00105843	  -10.2406	-0.00105538	  -10.2423	-0.00105875	  -10.2423	  -26.4686	
  -10.2142	-0.0010664	   -10.193	-0.00106291	  -10.2013	-0.00105958	  -10.2029	-0.00106296	  -10.2029	  -26.5741	
  -10.1742	-0.0010703	  -10.1531	-0.00106722	  -10.1616	-0.00106369	   -10.163	-0.00106707	   -10.163	  -26.6768	
  -10.1339	-0.00107419	   -10.113	-0.00107135	  -10.1216	-0.00106772	  -10.1228	-0.00107109	  -10.1228	  -26.7772	
  -10.0932	-0.00107813	  -10.0728	-0.00107533	   -10.081	-0.00107168	  -10.0823	-0.00107505	  -10.0823	  -26.8762	
  -10.0521	-0.00108214	  -10.0322	-0.00107922	  -10.0398	-0.00107558	  -10.0414	-0.00107898	  -10.0414	  -26.9745	
  -10.0105	-0.00108626	  -9.99122	-0.00108306	  -9.99828	-0.00107946	       -10	-0.00108292	       -10	  -27.0731	
  -9.96869	-0.00109044	  -9.94978	-0.00108691	  -9.95649	-0.00108332	  -9.95832	-0.00108689	  -9.95832	  -27.1723	
  -9.92635	-0.00109466	  -9.90785	-0.00109084	  -9.91443	-0.00108718	  -9.91621	-0.00109089	  -9.91621	  -27.2723	
  -9.88346	-0.00109884	  -9.86541	-0.00109485	  -9.87183	-0.00109104	  -9.87356	-0.00109491	  -9.87356	  -27.3727	
   -9.8402	-0.00110292	  -9.82263	-0.00109896	  -9.82888	-0.00109489	  -9.83057	-0.00109892	  -9.83057	  -27.4731	
  -9.79676	-0.00110685	   -9.7797	-0.00110313	  -9.78554	-0.00109872	  -9.78733	-0.0011029	  -9.78733	  -27.5725	
  -9.75287	-0.00111061	  -9.73613	-0.00110732	  -9.74178	-0.0011025	  -9.74359	-0.00110681	  -9.74359	  -27.6702	
   -9.7085	-0.0011142	  -9.69213	-0.00111145	  -9.69757	-0.00110622	   -9.6994	-0.00111062	   -9.6994	  -27.7656	
  -9.66385	-0.00111764	  -9.64788	-0.00111549	   -9.6531	-0.00110987	  -9.65494	-0.00111433	  -9.65494	  -27.8583	
  -9.61887	-0.00112101	  -9.60291	-0.00111938	  -9.60811	-0.00111346	  -9.60996	-0.00111795	  -9.60996	  -27.9487	
  -9.57333	-0.00112436	  -9.55744	-0.00112311	  -9.56259	-0.00111699	  -9.56445	-0.00112149	  -9.56445	  -28.0372	
  -9.52742	-0.00112774	  -9.51166	-0.00112669	  -9.51674	-0.00112047	  -9.51861	-0.00112497	  -9.51861	  -28.1242	
  -9.48133	-0.0011312	  -9.46533	-0.00113015	  -9.47073	-0.00112389	  -9.47246	-0.00112841	  -9.47246	  -28.2104	
   -9.4348	-0.00113471	  -9.41843	-0.00113354	  -9.42432	-0.00112727	  -9.42585	-0.00113184	  -9.42585	   -28.296	
  -9.38782	-0.00113826	  -9.37118	-0.0011369	  -9.37747	-0.00113061	  -9.37882	-0.00113526	  -9.37882	  -28.3814	
  -9.34058	-0.00114182	   -9.3236	-0.00114028	  -9.33039	-0.0011339	  -9.33152	-0.00113867	  -9.33152	  -28.4667	
  -9.29263	-0.0011453	   -9.2754	-0.00114371	  -9.28262	-0.00113714	  -9.28355	-0.00114205	  -9.28355	  -28.5513	
  -9.24419	-0.00114866	    -9.227	-0.00114719	  -9.23438	-0.00114033	  -9.23519	-0.00114539	  -9.23519	  -28.6349	
  -9.19546	-0.00115189	  -9.17838	-0.0011507	  -9.18586	-0.00114347	  -9.18657	-0.00114869	  -9.18657	  -28.7172	
  -9.14642	-0.00115497	  -9.12908	-0.00115423	  -9.13725	-0.00114656	  -9.13758	-0.00115192	  -9.13758	   -28.798	
  -9.09684	-0.00115794	  -9.07933	-0.00115772	   -9.0883	-0.00114961	  -9.08815	-0.00115509	  -9.08815	  -28.8773	
  -9.04692	-0.00116084	  -9.02933	-0.00116114	  -9.03899	-0.00115263	  -9.03841	-0.0011582	  -9.03841	  -28.9551	
  -8.99665	-0.00116371	  -8.97926	-0.00116442	  -8.98952	-0.00115565	  -8.98848	-0.00116126	  -8.98848	  -29.0315	
  -8.94613	-0.00116661	  -8.92883	-0.00116755	  -8.93959	-0.00115865	  -8.93818	-0.00116427	  -8.93818	  -29.1067	
  -8.89523	-0.00116953	  -8.87807	-0.00117051	  -8.88925	-0.00116164	  -8.88752	-0.00116722	  -8.88752	  -29.1806	
  -8.84414	-0.00117246	  -8.82741	-0.00117331	  -8.83871	-0.00116462	  -8.83675	-0.00117013	  -8.83675	  -29.2532	
  -8.79265	-0.0011754	  -8.77698	 -0.001176	  -8.78751	-0.00116755	  -8.78571	-0.00117298	  -8.78571	  -29.3246	
  -8.74073	-0.00117834	  -8.72632	-0.00117864	  -8.73589	-0.00117044	  -8.73432	-0.0011758	  -8.73432	  -29.3951	
  -8.68861	-0.00118123	  -8.67541	-0.00118128	  -8.68384	-0.00117325	  -8.68262	-0.00117859	  -8.68262	  -29.4647	
  -8.63605	-0.00118407	  -8.62443	-0.00118398	  -8.63136	-0.00117598	  -8.63061	-0.00118135	  -8.63061	  -29.5337	
  -8.58305	-0.00118685	  -8.57293	-0.00118676	  -8.57845	-0.00117863	  -8.57814	-0.00118408	  -8.57814	   -29.602	
  -8.52982	-0.00118956	   -8.5205	-0.00118961	  -8.52532	-0.00118121	  -8.52522	-0.00118679	  -8.52522	  -29.6698	
  -8.47615	-0.0011922	  -8.46781	-0.00119251	  -8.47175	-0.00118371	   -8.4719	-0.00118947	   -8.4719	  -29.7368	
  -8.42204	-0.00119479	  -8.41484	-0.00119539	  -8.41774	-0.00118617	  -8.41821	-0.00119211	  -8.41821	  -29.8028	
   -8.3677	-0.00119734	  -8.36096	-0.00119819	  -8.36352	-0.00118858	  -8.36406	-0.0011947	  -8.36406	  -29.8675	
  -8.31292	-0.00119985	  -8.30684	-0.00120088	  -8.30906	-0.00119097	  -8.30961	-0.00119723	  -8.30961	  -29.9308	
  -8.25771	-0.00120231	  -8.25268	-0.0012034	  -8.25415	-0.00119334	  -8.25485	-0.00119968	  -8.25485	  -29.9921	
  -8.20228	-0.00120472	  -8.19825	-0.00120575	  -8.19901	-0.0011957	  -8.19985	-0.00120206	  -8.19985	  -30.0515	
  -8.14685	-0.00120707	  -8.14374	-0.00120799	  -8.14385	-0.00119805	  -8.14481	-0.00120437	  -8.14481	  -30.1093	
  -8.09096	-0.00120936	  -8.08888	-0.00121015	  -8.08823	-0.00120038	  -8.08936	-0.00120663	  -8.08936	  -30.1657	
  -8.03484	-0.00121158	  -8.03289	-0.00121229	  -8.03236	-0.00120268	  -8.03336	-0.00120885	  -8.03336	  -30.2212	
  -7.97828	-0.00121374	  -7.97709	-0.00121448	  -7.97603	-0.00120493	  -7.97713	-0.00121105	  -7.97713	  -30.2762	
  -7.92129	-0.00121586	   -7.9208	-0.00121673	  -7.91925	-0.00120712	  -7.92045	-0.00121324	  -7.92045	  -30.3309	
  -7.86409	-0.00121793	  -7.86302	-0.00121906	  -7.86227	-0.00120925	  -7.86313	-0.00121541	  -7.86313	  -30.3853	
  -7.80669	-0.00121997	  -7.80593	-0.00122143	  -7.80485	-0.0012113	  -7.80582	-0.00121757	  -7.80582	  -30.4392	
  -7.74888	-0.00122199	  -7.74945	-0.00122379	  -7.74703	-0.00121329	  -7.74845	-0.00121969	  -7.74845	  -30.4922	
  -7.69072	-0.00122399	  -7.69159	-0.00122608	  -7.68902	-0.0012152	  -7.69044	-0.00122176	  -7.69044	  -30.5439	
  -7.63238	-0.00122596	  -7.63437	-0.00122825	  -7.63083	-0.00121706	  -7.63252	-0.00122376	  -7.63252	  -30.5939	
  -7.57366	-0.00122791	  -7.57772	-0.00123027	  -7.57224	-0.00121887	  -7.57454	-0.00122568	  -7.57454	  -30.6421	
  -7.51478	-0.00122982	  -7.51948	-0.00123213	  -7.51349	-0.00122065	  -7.51592	-0.00122753	  -7.51592	  -30.6884	
  -7.45575	-0.0012317	  -7.46124	-0.00123387	  -7.45457	-0.00122241	  -7.45719	-0.00122932	  -7.45719	  -30.7331	
  -7.39635	-0.00123352	  -7.40318	-0.00123554	  -7.39528	-0.00122416	  -7.39827	-0.00123107	  -7.39827	  -30.7768	
  -7.33681	-0.00123529	  -7.34318	-0.00123718	  -7.33585	-0.0012259	  -7.33861	-0.00123279	  -7.33861	  -30.8197	
  -7.27713	 -0.001237	  -7.28265	-0.00123884	  -7.27605	-0.00122763	  -7.27861	-0.00123449	  -7.27861	  -30.8622	
   -7.2171	-0.00123865	  -7.22278	-0.00124055	  -7.21593	-0.00122934	   -7.2186	-0.00123618	   -7.2186	  -30.9044	
  -7.15696	-0.00124024	  -7.16193	-0.00124231	  -7.15527	-0.00123101	  -7.15805	-0.00123785	  -7.15805	  -30.9464	
  -7.09628	-0.00124177	  -7.10059	-0.00124412	  -7.09433	-0.00123263	  -7.09707	-0.00123951	  -7.09707	  -30.9877	
  -7.03531	-0.00124326	  -7.03964	-0.00124591	  -7.03313	-0.00123417	  -7.03603	-0.00124111	  -7.03603	  -31.0279	
  -6.97407	-0.00124471	  -6.97799	-0.00124765	  -6.97168	-0.00123562	  -6.97458	-0.00124266	  -6.97458	  -31.0665	
  -6.91257	-0.00124613	  -6.91591	-0.0012493	  -6.90979	-0.00123697	  -6.91275	-0.00124413	  -6.91275	  -31.1034	
  -6.85084	-0.00124753	  -6.85426	-0.00125082	   -6.8477	-0.00123823	  -6.85093	-0.00124553	  -6.85093	  -31.1382	
  -6.78888	-0.00124889	  -6.79217	-0.00125222	  -6.78542	-0.00123941	  -6.78882	-0.00124684	  -6.78882	   -31.171	
  -6.72666	-0.00125023	   -6.7292	-0.00125349	  -6.72277	-0.00124053	  -6.72621	-0.00124808	  -6.72621	  -31.2021	
  -6.66426	-0.00125152	   -6.6661	-0.00125468	  -6.65998	-0.00124162	  -6.66345	-0.00124927	  -6.66345	  -31.2318	
  -6.60169	-0.00125276	  -6.60289	-0.0012558	  -6.59685	-0.0012427	  -6.60048	-0.00125042	  -6.60048	  -31.2606	
  -6.53874	-0.00125395	  -6.53937	-0.00125691	  -6.53341	-0.00124379	  -6.53717	-0.00125155	  -6.53717	  -31.2888	
  -6.47567	-0.00125508	  -6.47599	-0.00125804	  -6.46989	-0.00124489	  -6.47385	-0.00125267	  -6.47385	  -31.3167	
  -6.41227	-0.00125614	  -6.41251	-0.00125919	   -6.4059	-0.00124601	  -6.41022	-0.00125378	  -6.41022	  -31.3445	
  -6.34857	-0.00125716	  -6.34834	-0.00126037	  -6.34167	-0.00124712	  -6.34619	-0.00125489	  -6.34619	  -31.3721	
   -6.2848	-0.00125814	  -6.28394	-0.00126157	  -6.27723	-0.0012482	  -6.28199	-0.00125597	  -6.28199	  -31.3993	
  -6.22057	-0.00125908	  -6.21945	-0.00126277	  -6.21241	-0.00124922	  -6.21747	-0.00125702	  -6.21747	  -31.4255	
  -6.15612	-0.00125999	  -6.15456	-0.00126392	  -6.14744	-0.00125014	  -6.15271	-0.00125802	  -6.15271	  -31.4504	
  -6.09127	-0.00126087	  -6.08911	-0.00126499	  -6.08192	-0.00125096	  -6.08743	-0.00125894	  -6.08743	  -31.4735	
  -6.02605	-0.00126171	  -6.02357	-0.00126597	  -6.01613	-0.00125161	  -6.02192	-0.00125976	  -6.02192	  -31.4941	
  -5.96071	-0.00126252	  -5.95796	-0.00126684	  -5.95009	-0.00125213	  -5.95625	-0.00126049	  -5.95625	  -31.5123	
  -5.89528	-0.00126328	  -5.89187	-0.00126759	  -5.88383	-0.00125255	  -5.89032	-0.00126114	  -5.89032	  -31.5285	
  -5.82956	-0.00126398	  -5.82556	-0.00126826	  -5.81738	-0.00125293	  -5.82416	-0.00126172	  -5.82416	  -31.5431	
  -5.76378	-0.00126463	  -5.75927	-0.00126884	  -5.75056	-0.0012533	  -5.75787	-0.00126226	  -5.75787	  -31.5565	
  -5.69787	-0.00126522	  -5.69276	-0.00126939	  -5.68341	-0.00125375	  -5.69134	-0.00126279	  -5.69134	  -31.5697	
  -5.63173	-0.00126575	  -5.62609	-0.00126992	  -5.61494	-0.00125429	  -5.62425	-0.00126332	  -5.62425	   -31.583	
  -5.56519	-0.00126622	   -5.5591	-0.00127046	  -5.54505	-0.00125494	  -5.55644	-0.00126387	  -5.55644	  -31.5969	
  -5.49851	-0.00126663	  -5.49181	-0.00127102	  -5.47535	-0.00125566	  -5.48856	-0.00126443	  -5.48856	  -31.6109	
  -5.43149	 -0.001267	  -5.42449	-0.00127157	  -5.40564	-0.00125639	  -5.42054	-0.00126499	  -5.42054	  -31.6247	
  -5.36418	-0.00126732	  -5.35714	-0.00127212	   -5.3349	-0.00125707	  -5.35208	-0.0012655	  -5.35208	  -31.6376	
  -5.29663	-0.0012676	  -5.28958	-0.00127261	  -5.26491	-0.00125763	  -5.28371	-0.00126595	  -5.28371	  -31.6487	
  -5.22885	-0.00126785	  -5.22204	-0.00127303	  -5.19648	-0.00125798	  -5.21579	-0.00126628	  -5.21579	  -31.6571	
  -5.16069	-0.00126806	  -5.15413	-0.00127333	  -5.12703	-0.0012581	  -5.14728	-0.0012665	  -5.14728	  -31.6625	
   -5.0924	-0.00126823	   -5.0861	-0.00127353	  -5.05808	-0.00125801	  -5.07886	-0.00126659	  -5.07886	  -31.6647	
   -5.0238	-0.00126837	  -5.01819	-0.00127362	  -4.99045	-0.00125773	  -5.01081	-0.00126657	  -5.01081	  -31.6644	
  -4.95492	-0.00126846	  -4.94998	-0.00127363	   -4.9228	-0.00125736	  -4.94257	-0.00126648	  -4.94257	  -31.6621	
  -4.88583	-0.00126851	  -4.88173	-0.00127359	  -4.85513	-0.00125697	  -4.87423	-0.00126636	  -4.87423	  -31.6589	
  -4.81655	-0.00126851	  -4.81304	-0.00127354	  -4.78769	-0.00125663	  -4.80576	-0.00126623	  -4.80576	  -31.6557	
  -4.74712	-0.00126844	  -4.74417	-0.00127351	  -4.71962	-0.0012564	  -4.73697	-0.00126612	  -4.73697	   -31.653	
  -4.67764	-0.00126832	  -4.67538	-0.00127351	    -4.651	-0.0012563	  -4.66801	-0.00126604	  -4.66801	   -31.651	
  -4.60785	-0.00126812	  -4.60625	-0.00127352	  -4.58231	-0.00125631	  -4.59881	-0.00126598	  -4.59881	  -31.6495	
  -4.53783	-0.00126785	  -4.53705	-0.00127353	  -4.51295	-0.00125637	  -4.52927	-0.00126592	  -4.52927	  -31.6479	
  -4.46759	-0.00126753	  -4.46758	-0.0012735	  -4.44341	-0.00125642	  -4.45953	-0.00126582	  -4.45953	  -31.6454	
   -4.3972	-0.00126716	   -4.3979	-0.00127339	  -4.37352	-0.00125638	  -4.38954	-0.00126564	  -4.38954	   -31.641	
  -4.32689	-0.00126675	  -4.32805	-0.00127315	   -4.3025	-0.00125619	  -4.31915	-0.00126536	  -4.31915	  -31.6341	
  -4.25627	-0.00126633	  -4.25805	-0.00127278	  -4.23151	-0.00125581	  -4.24861	-0.00126497	  -4.24861	  -31.6243	
  -4.18538	-0.00126589	  -4.18796	-0.00127226	    -4.161	-0.00125525	  -4.17811	-0.00126447	  -4.17811	  -31.6116	
  -4.11438	-0.00126541	  -4.11738	-0.00127163	   -4.0898	-0.00125453	  -4.10719	-0.00126386	  -4.10719	  -31.5964	
  -4.04321	-0.00126489	  -4.04658	-0.00127091	  -4.01831	-0.00125372	  -4.03603	-0.00126318	  -4.03603	  -31.5794	
   -3.9717	-0.00126432	  -3.97584	-0.00127016	  -3.94741	-0.00125289	  -3.96498	-0.00126246	  -3.96498	  -31.5614	
  -3.90011	-0.00126364	  -3.90473	-0.00126942	  -3.87605	-0.00125209	  -3.89363	-0.00126172	  -3.89363	  -31.5429	
  -3.82826	-0.00126287	  -3.83354	-0.00126872	  -3.80429	-0.00125137	  -3.82203	-0.00126099	  -3.82203	  -31.5246	
  -3.75622	-0.00126201	  -3.76251	-0.00126807	  -3.73345	-0.00125074	  -3.75073	-0.00126027	  -3.75073	  -31.5068	
  -3.68402	-0.00126107	  -3.69123	-0.00126746	  -3.66243	-0.00125018	  -3.67923	-0.00125957	  -3.67923	  -31.4893	
  -3.61192	-0.00126008	  -3.61996	-0.00126685	  -3.59065	-0.00124966	  -3.60751	-0.00125886	  -3.60751	  -31.4716	
  -3.53953	-0.00125907	  -3.54847	-0.00126621	  -3.51908	-0.00124909	  -3.53569	-0.00125813	  -3.53569	  -31.4532	
   -3.4671	-0.00125809	  -3.47685	-0.00126549	  -3.44707	-0.00124843	  -3.46367	-0.00125733	  -3.46367	  -31.4333	
  -3.39448	-0.00125713	  -3.40494	-0.00126464	  -3.37446	-0.00124761	  -3.39129	-0.00125646	  -3.39129	  -31.4115	
   -3.3217	-0.00125622	  -3.33279	-0.00126364	  -3.30218	-0.00124662	  -3.31889	-0.0012555	  -3.31889	  -31.3874	
  -3.24881	-0.00125533	  -3.26045	-0.00126251	  -3.22961	-0.00124547	  -3.24629	-0.00125444	  -3.24629	   -31.361	
  -3.17585	-0.00125443	  -3.18777	-0.00126127	  -3.15616	-0.00124419	  -3.17326	-0.0012533	  -3.17326	  -31.3324	
  -3.10287	-0.00125346	    -3.115	-0.00125995	  -3.08301	-0.00124284	   -3.1003	-0.00125209	   -3.1003	  -31.3021	
   -3.0299	-0.00125238	   -3.0422	-0.00125862	  -3.01036	-0.00124148	  -3.02749	-0.00125083	  -3.02749	  -31.2708	
  -2.95692	-0.00125118	  -2.96934	-0.00125731	  -2.93711	-0.00124017	  -2.95446	-0.00124955	  -2.95446	  -31.2388	
  -2.88402	-0.00124983	  -2.89652	-0.00125604	  -2.86423	-0.00123893	  -2.88159	-0.00124827	  -2.88159	  -31.2067	
  -2.81101	-0.00124837	  -2.82334	-0.00125481	  -2.79152	-0.00123778	  -2.80862	-0.00124699	  -2.80862	  -31.1747	
  -2.73794	-0.00124682	  -2.75008	-0.0012536	  -2.71795	-0.00123667	  -2.73532	-0.0012457	  -2.73532	  -31.1424	
  -2.66485	-0.00124522	  -2.67658	-0.00125236	  -2.64425	-0.00123557	  -2.66189	-0.00124438	  -2.66189	  -31.1096	
  -2.59156	-0.00124363	  -2.60288	-0.00125105	   -2.5711	-0.0012344	  -2.58851	-0.00124303	  -2.58851	  -31.0757	
  -2.51813	-0.00124207	  -2.52905	-0.00124962	  -2.49766	-0.00123312	  -2.51494	-0.00124161	  -2.51494	  -31.0401	
   -2.4446	-0.00124057	  -2.45492	-0.00124805	  -2.42397	-0.00123168	  -2.44116	-0.0012401	  -2.44116	  -31.0025	
  -2.37102	-0.0012391	  -2.38076	-0.00124633	  -2.35079	-0.00123006	  -2.36752	-0.0012385	  -2.36752	  -30.9624	
  -2.29722	-0.00123765	   -2.3064	-0.0012445	   -2.2772	-0.00122828	  -2.29361	-0.00123681	  -2.29361	  -30.9202	
  -2.22325	-0.00123617	   -2.2319	-0.00124258	  -2.20329	-0.00122648	  -2.21948	-0.00123508	  -2.21948	  -30.8769	
  -2.14938	-0.00123457	  -2.15751	-0.00124067	  -2.12953	-0.00122464	  -2.14547	-0.00123329	  -2.14547	  -30.8323	
  -2.07521	-0.00123282	  -2.08285	-0.00123883	  -2.05574	-0.00122278	  -2.07127	-0.00123148	  -2.07127	  -30.7869	
  -2.00101	-0.00123094	   -2.0082	-0.00123708	  -1.98154	-0.00122095	  -1.99692	-0.00122965	  -1.99692	  -30.7414	
  -1.92683	-0.00122894	  -1.93337	-0.00123542	  -1.90721	-0.00121915	  -1.92247	-0.00122784	  -1.92247	  -30.6959	
   -1.8525	-0.00122689	  -1.85842	-0.00123382	   -1.8328	-0.00121738	  -1.84791	-0.00122603	  -1.84791	  -30.6508	
