# User: ACHyster
# File name: C:/ACHYSTER/ACHyster SENS/SHAMS/CoFe2O4-1gl-water-15 Glycerol- Sens-07-03-2023/CoFe2O4-1gl-water-15 Glycerol- 10_100F- 12kAm -Sens-07-03-20230007#1.txt
# Saved at: ma. mar. 7 15:14:27 2023
# Hyster Loop (3 iterations). Intensity: 12.0 kA/m; Tuned frequency: 101.8 kHz
# Units x axis: (kA/m)
# Units y axis: "Repeats y" & "Average y" (10^(-3)Am^2); "Mass avg y" (Am^2/kg)
# Magnetic mass: 4e-05 g
# Parameter      	Repeat   1	Repeat   2	Repeat   3	Average   	Sigma     
# H_C (kA/m)     	      11.0	      11.0	      11.0	      11.0	       0.0
# M_R (Am^2/kg)  	      24.1	      24.0	      24.1	      24.1	       0.1
# M_max (Am^2/kg)	      10.5	      10.5	      10.6	      10.5	       0.1
# Area (mJ/kg)   	    1132.3	    1126.5	    1129.2	    1129.3	       2.4
# SAR (W/g)      	     115.3	     114.7	     115.0	     115.0	       0.2
#Repeat 1 x	Repeat 1 y	Repeat 2 x	Repeat 2 y	Repeat 3 x	Repeat 3 y	Average x 	Average y 	Mass avg x 	Mass avg y 
  -1.85989	-0.00101399	   -1.8635	-0.00100725	  -1.85113	-0.00101307	  -1.85817	-0.00101144	  -1.85817	  -25.2859	
  -1.78552	-0.00101263	  -1.78825	-0.00100584	  -1.77606	-0.00101156	  -1.78327	-0.00101001	  -1.78327	  -25.2502	
  -1.71113	-0.00101115	   -1.7136	-0.00100439	  -1.70106	-0.00101001	   -1.7086	-0.00100852	   -1.7086	   -25.213	
  -1.63658	-0.00100956	  -1.63955	-0.00100288	  -1.62577	-0.00100843	  -1.63397	-0.00100696	  -1.63397	  -25.1739	
  -1.56191	-0.00100787	  -1.56503	-0.00100127	  -1.55044	-0.00100681	  -1.55913	-0.00100532	  -1.55913	  -25.1329	
  -1.48698	-0.0010061	  -1.48982	-0.000999565	  -1.47513	-0.00100514	  -1.48397	-0.0010036	  -1.48397	  -25.0901	
  -1.41184	-0.00100428	  -1.41526	-0.000997753	  -1.39966	-0.00100345	  -1.40892	-0.00100183	  -1.40892	  -25.0456	
  -1.33673	-0.00100243	  -1.34153	-0.000995845	  -1.32429	-0.00100171	  -1.33419	-0.000999996	  -1.33419	  -24.9999	
  -1.26151	-0.00100058	  -1.26735	-0.000993852	  -1.24885	-0.000999944	  -1.25924	-0.000998127	  -1.25924	  -24.9532	
  -1.18622	-0.00099876	  -1.19241	-0.000991802	  -1.17339	-0.000998139	  -1.18401	-0.000996234	  -1.18401	  -24.9058	
   -1.1109	-0.000996964	  -1.11756	-0.000989726	  -1.09814	-0.000996296	  -1.10887	-0.000994329	  -1.10887	  -24.8582	
   -1.0354	-0.000995201	  -1.04332	-0.000987654	  -1.02273	-0.000994414	  -1.03382	-0.000992423	  -1.03382	  -24.8106	
 -0.959968	-0.00099346	 -0.969006	-0.000985613	 -0.947408	-0.000992494	 -0.958794	-0.000990522	 -0.958794	  -24.7631	
 -0.884825	-0.000991717	 -0.893693	-0.000983616	 -0.871825	-0.000990537	 -0.883448	-0.000988624	 -0.883448	  -24.7156	
 -0.809603	-0.000989951	 -0.818654	-0.000981673	  -0.79623	-0.00098854	 -0.808162	-0.000986722	 -0.808162	   -24.668	
 -0.734538	-0.000988137	 -0.744287	-0.000979779	 -0.720854	-0.000986507	 -0.733226	-0.000984808	 -0.733226	  -24.6202	
 -0.659271	-0.000986245	 -0.669614	-0.000977915	 -0.645334	-0.000984436	 -0.658073	-0.000982865	 -0.658073	  -24.5716	
 -0.584046	-0.000984255	 -0.594309	-0.00097605	 -0.569911	-0.000982327	 -0.582755	-0.000980877	 -0.582755	  -24.5219	
 -0.508804	-0.000982157	 -0.518941	-0.000974147	 -0.494233	-0.00098018	 -0.507326	-0.000978828	 -0.507326	  -24.4707	
 -0.433486	-0.000979947	 -0.444227	-0.000972177	 -0.418549	-0.000977989	 -0.432087	-0.000976704	 -0.432087	  -24.4176	
 -0.358041	-0.000977634	 -0.369286	-0.000970102	 -0.343092	-0.000975749	 -0.356807	-0.000974495	 -0.356807	  -24.3624	
 -0.282423	-0.000975238	 -0.293501	-0.000967892	 -0.267694	-0.000973455	 -0.281206	-0.000972195	 -0.281206	  -24.3049	
 -0.206874	-0.000972781	 -0.217746	-0.000965532	 -0.192386	-0.000971104	 -0.205669	-0.000969806	 -0.205669	  -24.2451	
 -0.131239	-0.000970287	 -0.142443	-0.000963018	 -0.117008	-0.000968692	  -0.13023	-0.000967332	  -0.13023	  -24.1833	
-0.0555602	-0.000967782	-0.0670181	-0.000960378	 -0.041603	-0.000966218	-0.0547271	-0.000964793	-0.0547271	  -24.1198	
 0.0201173	-0.000965288	0.00886658	-0.00095764	 0.0335965	-0.000963677	 0.0208601	-0.000962202	 0.0208601	   -24.055	
 0.0956591	-0.000962818	 0.0846535	-0.000954831	  0.108954	-0.000961076	  0.096422	-0.000959575	  0.096422	  -23.9894	
  0.171134	-0.000960377	  0.159831	-0.000952005	  0.184226	-0.000958428	  0.171731	-0.000956937	  0.171731	  -23.9234	
  0.246895	-0.00095796	  0.235082	-0.000949215	   0.25919	-0.000955748	  0.247056	-0.000954308	  0.247056	  -23.8577	
  0.322686	-0.000955547	  0.311034	-0.00094648	  0.334217	-0.000953046	  0.322646	-0.000951691	  0.322646	  -23.7923	
  0.398275	-0.000953115	  0.387017	-0.000943815	  0.409265	-0.000950329	  0.398186	-0.000949086	  0.398186	  -23.7272	
  0.473733	-0.000950639	  0.462605	-0.000941225	  0.484485	-0.000947616	  0.473608	-0.000946494	  0.473608	  -23.6623	
  0.549127	-0.000948086	  0.538173	-0.000938699	  0.559635	-0.000944906	  0.548979	-0.000943897	  0.548979	  -23.5974	
  0.624809	-0.000945437	  0.614068	-0.000936199	  0.634778	-0.000942201	  0.624552	-0.000941279	  0.624552	   -23.532	
  0.700525	-0.00094268	  0.690033	-0.000933682	  0.709974	-0.000939491	  0.700177	-0.000938618	  0.700177	  -23.4654	
   0.77604	-0.00093981	  0.765541	-0.000931113	  0.784989	-0.000936772	  0.775524	-0.000935898	  0.775524	  -23.3975	
  0.851525	-0.000936832	  0.840877	-0.000928448	  0.859993	-0.000934021	  0.850798	-0.0009331	  0.850798	  -23.3275	
  0.926942	-0.000933761	  0.916786	-0.000925635	  0.934949	-0.000931221	  0.926226	-0.000930206	  0.926226	  -23.2551	
   1.00226	-0.000930623	  0.992607	-0.000922677	   1.00982	-0.000928355	   1.00156	-0.000927218	   1.00156	  -23.1805	
   1.07764	-0.000927444	   1.06792	-0.000919582	   1.08478	-0.000925399	   1.07678	-0.000924142	   1.07678	  -23.1035	
   1.15313	-0.000924246	   1.14312	-0.00091636	   1.15958	-0.000922345	   1.15195	-0.000920983	   1.15195	  -23.0246	
    1.2286	-0.000921056	   1.21856	-0.000913047	   1.23401	-0.000919189	   1.22706	-0.000917764	   1.22706	  -22.9441	
   1.30399	-0.000917887	   1.29398	-0.000909691	   1.30845	-0.000915941	   1.30214	-0.000914506	   1.30214	  -22.8627	
   1.37929	-0.000914745	   1.36916	-0.000906343	   1.38267	-0.000912614	   1.37704	-0.000911234	   1.37704	  -22.7808	
   1.45465	-0.000911626	   1.44417	-0.000903042	   1.45703	-0.000909229	   1.45195	-0.000907966	   1.45195	  -22.6991	
   1.52984	-0.000908516	   1.51909	-0.000899822	    1.5313	-0.00090581	   1.52674	-0.000904716	   1.52674	  -22.6179	
   1.60493	-0.000905395	   1.59427	-0.000896696	   1.60525	-0.00090237	   1.60148	-0.000901487	   1.60148	  -22.5372	
   1.67998	-0.000902237	   1.66946	-0.000893655	   1.67927	-0.00089892	   1.67624	-0.000898271	   1.67624	  -22.4568	
   1.75507	-0.000899016	   1.74444	-0.000890682	   1.75312	-0.000895479	   1.75088	-0.000895059	   1.75088	  -22.3765	
   1.83024	-0.000895713	   1.81937	-0.000887739	   1.82678	-0.00089205	   1.82546	-0.000891834	   1.82546	  -22.2958	
   1.90525	-0.000892315	   1.89422	-0.000884777	   1.90042	-0.000888628	   1.89996	-0.000888574	   1.89996	  -22.2143	
    1.9799	-0.000888821	   1.96876	-0.000881755	   1.97383	-0.000885208	   1.97417	-0.000885262	   1.97417	  -22.1315	
   2.05456	-0.000885236	   2.04319	-0.000878648	   2.04736	-0.000881774	   2.04837	-0.000881886	   2.04837	  -22.0471	
   2.12899	-0.000881575	   2.11746	-0.000875419	    2.1208	-0.000878315	   2.12242	-0.000878436	   2.12242	  -21.9609	
   2.20338	-0.000877858	   2.19176	-0.000872038	    2.1941	-0.000874814	   2.19641	-0.000874903	   2.19641	  -21.8726	
   2.27769	-0.000874113	   2.26603	-0.00086852	   2.26744	-0.000871251	   2.27039	-0.000871294	   2.27039	  -21.7824	
   2.35189	-0.000870363	   2.34007	-0.000864872	    2.3406	-0.000867613	   2.34419	-0.000867616	   2.34419	  -21.6904	
   2.42615	-0.000866627	   2.41395	-0.000861112	   2.41394	-0.000863894	   2.41801	-0.000863878	   2.41801	  -21.5969	
   2.50024	-0.000862915	   2.48773	-0.000857284	   2.48723	-0.000860096	   2.49173	-0.000860098	   2.49173	  -21.5025	
   2.57422	-0.00085923	   2.56151	-0.000853425	   2.56053	-0.000856227	   2.56542	-0.000856294	   2.56542	  -21.4073	
   2.64819	-0.000855565	   2.63513	-0.00084957	    2.6339	-0.000852295	   2.63907	-0.000852477	   2.63907	  -21.3119	
    2.7219	-0.000851902	    2.7086	-0.000845741	   2.70712	-0.000848314	   2.71254	-0.000848652	   2.71254	  -21.2163	
   2.79515	-0.000848215	   2.78197	-0.000841947	   2.78026	-0.000844299	   2.78579	-0.00084482	   2.78579	  -21.1205	
   2.86833	-0.000844473	   2.85532	-0.000838188	    2.8532	-0.000840263	   2.85895	-0.000840975	   2.85895	  -21.0244	
   2.94123	-0.000840653	   2.92843	-0.000834452	   2.92593	-0.000836221	   2.93186	-0.000837109	   2.93186	  -20.9277	
   3.01402	-0.000836732	   3.00129	-0.000830727	   2.99862	-0.000832191	   3.00464	-0.000833217	   3.00464	  -20.8304	
   3.08669	-0.000832679	   3.07407	-0.000826985	   3.07124	-0.000828177	   3.07733	-0.00082928	   3.07733	   -20.732	
    3.1592	-0.000828511	   3.14695	-0.000823195	   3.14359	-0.000824172	   3.14991	-0.000825293	   3.14991	  -20.6323	
   3.23175	-0.000824248	   3.21931	-0.000819342	   3.21603	-0.000820162	   3.22236	-0.00082125	   3.22236	  -20.5313	
    3.3041	-0.000819896	   3.29155	-0.000815409	   3.28834	-0.000816137	   3.29466	-0.000817147	   3.29466	  -20.4287	
   3.37634	-0.0008155	   3.36373	-0.000811383	   3.36031	-0.000812076	   3.36679	-0.000812987	   3.36679	  -20.3247	
   3.44854	-0.000811103	   3.43595	-0.000807271	   3.43232	-0.000807959	   3.43894	-0.000808778	   3.43894	  -20.2194	
   3.52049	-0.000806732	   3.50797	-0.000803085	   3.50415	-0.00080377	   3.51087	-0.000804529	   3.51087	  -20.1132	
   3.59217	-0.000802412	   3.57958	-0.000798839	   3.57617	-0.000799497	   3.58264	-0.000800249	   3.58264	  -20.0062	
   3.66378	-0.000798162	   3.65119	-0.000794556	   3.64814	-0.000795138	   3.65437	-0.000795952	   3.65437	  -19.8988	
   3.73538	-0.000793979	   3.72284	-0.000790261	   3.72013	-0.000790689	   3.72612	-0.000791643	   3.72612	  -19.7911	
   3.80705	-0.000789839	   3.79404	-0.000785967	   3.79202	-0.000786167	    3.7977	-0.000787324	    3.7977	  -19.6831	
   3.87856	-0.000785716	   3.86461	-0.000781668	   3.86379	-0.00078159	   3.86899	-0.000782991	   3.86899	  -19.5748	
    3.9499	-0.000781584	   3.93514	-0.000777367	   3.93542	-0.000776977	   3.94015	-0.000778643	   3.94015	  -19.4661	
   4.02097	-0.000777396	    4.0058	-0.00077305	    4.0068	-0.000772352	   4.01119	-0.000774266	   4.01119	  -19.3566	
   4.09184	-0.000773108	   4.07619	-0.000768697	   4.07802	-0.000767734	   4.08202	-0.000769846	   4.08202	  -19.2462	
   4.16233	-0.000768703	   4.14629	-0.000764287	   4.14917	-0.000763145	    4.1526	-0.000765378	    4.1526	  -19.1345	
   4.23263	-0.000764165	   4.21592	-0.000759803	   4.22031	-0.000758586	   4.22295	-0.000760851	   4.22295	  -19.0213	
   4.30273	-0.000759485	   4.28519	-0.000755233	   4.29124	-0.000754049	   4.29305	-0.000756256	   4.29305	  -18.9064	
   4.37282	-0.000754681	     4.354	-0.000750578	   4.36194	-0.000749525	   4.36292	-0.000751594	   4.36292	  -18.7899	
   4.44287	-0.000749777	   4.42267	-0.000745842	    4.4326	-0.000744991	   4.43271	-0.00074687	   4.43271	  -18.6717	
   4.51268	-0.000744801	   4.49129	-0.000741044	     4.503	-0.000740423	   4.50232	-0.00074209	   4.50232	  -18.5522	
   4.58224	-0.000739789	   4.55965	-0.000736207	   4.57334	-0.000735802	   4.57174	-0.000737266	   4.57174	  -18.4317	
   4.65175	-0.000734775	   4.62784	-0.000731359	    4.6436	-0.000731106	   4.64106	-0.000732413	   4.64106	  -18.3103	
   4.72099	-0.000729777	   4.69635	-0.000726554	   4.71357	-0.000726326	    4.7103	-0.000727552	    4.7103	  -18.1888	
   4.79007	-0.000724818	   4.76542	-0.000721811	   4.78306	-0.000721455	   4.77952	-0.000722694	   4.77952	  -18.0674	
   4.85907	-0.000719925	   4.83431	-0.000717142	   4.85247	-0.000716501	   4.84862	-0.000717856	   4.84862	  -17.9464	
   4.92778	-0.000715101	   4.90274	-0.000712528	    4.9216	-0.00071148	   4.91737	-0.000713036	   4.91737	  -17.8259	
   4.99622	-0.000710337	   4.97121	-0.000707929	   4.99044	-0.000706408	   4.98596	-0.000708225	   4.98596	  -17.7056	
   5.06458	-0.000705622	   5.03997	-0.000703325	    5.0592	-0.000701311	   5.05458	-0.000703419	   5.05458	  -17.5855	
   5.13285	-0.000700935	   5.10852	-0.000698668	   5.12766	-0.000696211	   5.12301	-0.000698605	   5.12301	  -17.4651	
   5.20093	-0.000696241	   5.17665	-0.000693907	   5.19623	-0.000691126	   5.19127	-0.000693758	   5.19127	   -17.344	
    5.2689	-0.000691507	   5.24449	-0.000689021	   5.26468	-0.000686072	   5.25936	-0.000688866	   5.25936	  -17.2217	
   5.33657	-0.000686701	   5.31213	-0.000683997	   5.33281	-0.00068105	   5.32717	-0.000683916	   5.32717	  -17.0979	
   5.40404	-0.0006818	   5.37909	-0.000678837	   5.40072	-0.00067606	   5.39462	-0.000678899	   5.39462	  -16.9725	
   5.47142	-0.000676789	    5.4459	-0.000673545	   5.46852	-0.000671088	   5.46195	-0.000673807	   5.46195	  -16.8452	
   5.53849	-0.000671665	   5.51342	-0.000668145	   5.53601	-0.00066612	   5.52931	-0.000668643	   5.52931	  -16.7161	
   5.60548	-0.000666434	   5.58129	-0.0006627	   5.60319	-0.000661135	   5.59665	-0.000663423	   5.59665	  -16.5856	
   5.67236	-0.000661108	   5.64821	-0.000657254	   5.67028	-0.000656113	   5.66362	-0.000658159	   5.66362	   -16.454	
   5.73895	-0.000655716	   5.71494	-0.000651865	   5.73706	-0.000651037	   5.73032	-0.000652873	   5.73032	  -16.3218	
   5.80506	-0.000650291	   5.78242	-0.000646568	   5.80366	-0.000645889	   5.79704	-0.000647582	   5.79704	  -16.1896	
   5.87111	-0.000644857	   5.84962	-0.000641382	   5.87016	-0.000640656	   5.86363	-0.000642298	   5.86363	  -16.0575	
   5.93689	-0.000639464	   5.91512	-0.000636311	   5.93638	-0.000635339	   5.92946	-0.000637038	   5.92946	  -15.9259	
   6.00224	-0.000634124	    5.9797	-0.000631332	   6.00213	-0.000629939	   5.99469	-0.000631798	   5.99469	   -15.795	
   6.06736	-0.000628836	   6.04517	-0.000626415	   6.06783	-0.000624468	   6.06012	-0.000626573	   6.06012	  -15.6643	
   6.13227	-0.000623597	   6.11078	-0.000621516	   6.13328	-0.000618942	   6.12544	-0.000621352	   6.12544	  -15.5338	
   6.19678	-0.000618402	   6.17467	-0.000616584	   6.19829	-0.000613384	   6.18991	-0.000616123	   6.18991	  -15.4031	
   6.26102	-0.000613224	   6.23785	-0.000611577	   6.26328	-0.000607812	   6.25405	-0.000610871	   6.25405	  -15.2718	
   6.32509	-0.000608011	   6.30201	-0.000606455	   6.32805	-0.000602248	   6.31839	-0.000605571	   6.31839	  -15.1393	
   6.38912	-0.000602733	   6.36619	-0.000601188	   6.39243	-0.000596711	   6.38258	-0.000600211	   6.38258	  -15.0053	
   6.45299	-0.000597363	   6.42935	-0.000595775	   6.45643	-0.000591213	   6.44625	-0.000594784	   6.44625	  -14.8696	
   6.51672	-0.000591874	   6.49279	-0.000590216	   6.52028	-0.000585759	   6.50993	-0.000589283	   6.50993	  -14.7321	
   6.58013	-0.00058625	   6.55737	-0.000584541	   6.58379	-0.00058035	   6.57376	-0.000583714	   6.57376	  -14.5928	
   6.64362	-0.000580508	   6.62174	-0.00057878	   6.64708	-0.000574971	   6.63748	-0.000578086	   6.63748	  -14.4522	
   6.70699	-0.000574665	   6.68486	-0.000572968	   6.71027	-0.000569602	   6.70071	-0.000572412	   6.70071	  -14.3103	
   6.77006	-0.000568755	    6.7472	-0.000567148	   6.77317	-0.00056422	   6.76348	-0.000566708	   6.76348	  -14.1677	
   6.83267	-0.000562835	   6.81009	-0.00056135	   6.83562	-0.000558795	   6.82612	-0.000560994	   6.82612	  -14.0248	
   6.89522	-0.000556937	   6.87299	-0.000555604	   6.89764	-0.000553306	   6.88862	-0.000555282	   6.88862	  -13.8821	
   6.95753	-0.000551095	   6.93485	-0.000549923	   6.95946	-0.000547734	   6.95061	-0.000549584	   6.95061	  -13.7396	
   7.01944	-0.000545326	   6.99643	-0.000544311	   7.02091	-0.000542067	   7.01226	-0.000543901	   7.01226	  -13.5975	
   7.08078	-0.000539634	   7.05813	-0.000538757	   7.08213	-0.000536303	   7.07368	-0.000538231	   7.07368	  -13.4558	
   7.14198	-0.000534012	   7.11976	-0.000533241	   7.14303	-0.000530451	   7.13492	-0.000532568	   7.13492	  -13.3142	
   7.20288	-0.000528429	   7.18055	-0.000527738	   7.20365	-0.000524531	   7.19569	-0.000526899	   7.19569	  -13.1725	
    7.2633	-0.000522852	   7.24097	-0.000522215	   7.26401	-0.000518562	    7.2561	-0.00052121	    7.2561	  -13.0302	
    7.3234	-0.000517245	   7.30202	-0.00051664	   7.32406	-0.000512573	   7.31649	-0.000515486	   7.31649	  -12.8872	
   7.38329	-0.000511566	   7.36287	-0.000510989	   7.38391	-0.000506591	   7.37669	-0.000509715	   7.37669	  -12.7429	
   7.44281	-0.000505788	   7.42298	-0.000505244	    7.4434	-0.000500635	    7.4364	-0.000503889	    7.4364	  -12.5972	
   7.50182	-0.000499894	    7.4826	-0.000499401	   7.50239	-0.00049472	    7.4956	-0.000498005	    7.4956	  -12.4501	
   7.56055	-0.000493888	   7.54217	-0.000493464	   7.56129	-0.000488846	   7.55467	-0.000492066	   7.55467	  -12.3017	
   7.61903	-0.000487776	   7.60151	-0.000487448	   7.61995	-0.000483003	    7.6135	-0.000486076	    7.6135	  -12.1519	
   7.67712	-0.000481583	   7.66006	-0.000481374	   7.67819	-0.000477166	   7.67179	-0.000480041	   7.67179	   -12.001	
   7.73466	-0.000475337	   7.71839	-0.000475276	   7.73617	-0.000471312	   7.72974	-0.000473975	   7.72974	  -11.8494	
    7.7917	-0.000469073	   7.77663	-0.000469184	   7.79401	-0.000465423	   7.78745	-0.000467893	   7.78745	  -11.6973	
   7.84851	-0.000462826	   7.83459	-0.000463124	   7.85155	-0.000459474	   7.84488	-0.000461808	   7.84488	  -11.5452	
   7.90492	-0.000456625	   7.89213	-0.000457113	   7.90863	-0.000453458	   7.90189	-0.000455732	   7.90189	  -11.3933	
   7.96079	-0.000450484	    7.9491	-0.000451161	   7.96541	-0.000447371	   7.95843	-0.000449672	   7.95843	  -11.2418	
   8.01657	-0.000444403	   8.00595	-0.000445264	   8.02202	-0.000441225	   8.01485	-0.000443631	   8.01485	  -11.0908	
    8.0721	-0.000438374	   8.06252	-0.000439406	    8.0783	-0.000435038	   8.07097	-0.000437606	   8.07097	  -10.9401	
   8.12723	-0.000432377	   8.11865	-0.000433565	   8.13411	-0.000428828	   8.12666	-0.00043159	   8.12666	  -10.7897	
     8.182	-0.000426388	   8.17421	-0.000427709	   8.18969	-0.000422621	   8.18197	-0.000425573	   8.18197	  -10.6393	
   8.23639	-0.00042038	   8.22965	-0.000421807	    8.2451	-0.000416438	   8.23704	-0.000419542	   8.23704	  -10.4885	
   8.29053	-0.000414322	   8.28481	-0.000415835	   8.30016	-0.000410297	   8.29183	-0.000413485	   8.29183	  -10.3371	
   8.34429	-0.000408189	   8.33953	-0.000409775	   8.35475	-0.00040421	   8.34619	-0.000407391	   8.34619	  -10.1848	
   8.39772	-0.000401975	    8.3937	-0.000403618	    8.4093	-0.00039817	   8.40024	-0.000401254	   8.40024	  -10.0314	
   8.45107	-0.000395671	   8.44776	-0.000397371	   8.46337	-0.000392163	   8.45407	-0.000395068	   8.45407	  -9.87671	
   8.50418	-0.000389288	   8.50156	-0.000391047	   8.51711	-0.000386167	   8.50762	-0.000388834	   8.50762	  -9.72084	
   8.55691	-0.000382843	   8.55495	-0.000384671	    8.5704	-0.00038015	   8.56075	-0.000382554	   8.56075	  -9.56386	
   8.60913	-0.000376361	     8.608	-0.000378266	   8.62328	-0.000374087	   8.61347	-0.000376238	   8.61347	  -9.40595	
     8.661	-0.000369877	   8.66094	-0.000371865	   8.67602	-0.000367952	   8.66599	-0.000369898	   8.66599	  -9.24745	
   8.71268	-0.000363409	   8.71363	-0.000365494	   8.72846	-0.000361727	   8.71826	-0.000363544	   8.71826	  -9.08859	
   8.76403	-0.00035697	   8.76593	-0.000359166	   8.78047	-0.000355407	   8.77015	-0.000357181	   8.77015	  -8.92952	
   8.81521	-0.000350559	   8.81771	-0.00035289	   8.83222	-0.000348995	   8.82171	-0.000350815	   8.82171	  -8.77037	
   8.86578	-0.000344173	   8.86922	-0.000346665	   8.88384	-0.000342509	   8.87295	-0.000344449	   8.87295	  -8.61123	
   8.91593	-0.000337798	   8.92054	-0.000340476	    8.9352	-0.000335972	   8.92389	-0.000338082	   8.92389	  -8.45204	
   8.96582	-0.000331417	   8.97152	-0.000334303	   8.98616	-0.00032941	    8.9745	-0.00033171	    8.9745	  -8.29275	
   9.01532	-0.000325019	   9.02202	-0.000328124	   9.03659	-0.000322858	   9.02464	-0.000325334	   9.02464	  -8.13335	
    9.0645	-0.000318592	   9.07232	-0.000321914	   9.08676	-0.000316342	   9.07453	-0.000318949	   9.07453	  -7.97373	
   9.11362	-0.000312129	   9.12218	-0.000315651	   9.13674	-0.000309888	   9.12418	-0.000312556	   9.12418	   -7.8139	
   9.16254	-0.000305644	   9.17177	-0.000309324	   9.18639	-0.000303508	   9.17357	-0.000306159	   9.17357	  -7.65396	
   9.21112	-0.000299144	   9.22097	-0.000302926	   9.23557	-0.000297197	   9.22255	-0.000299756	   9.22255	   -7.4939	
   9.25925	-0.000292644	   9.26964	-0.000296461	   9.28419	-0.00029094	   9.27103	-0.000293348	   9.27103	  -7.33371	
   9.30699	-0.000286159	   9.31808	-0.000289941	   9.33231	-0.000284716	   9.31913	-0.000286938	   9.31913	  -7.17346	
   9.35462	-0.000279706	   9.36605	-0.000283389	   9.37994	-0.000278498	   9.36687	-0.000280531	   9.36687	  -7.01328	
   9.40201	-0.000273294	   9.41372	-0.000276824	   9.42725	-0.000272258	   9.41433	-0.000274125	   9.41433	  -6.85313	
   9.44903	-0.000266909	   9.46099	-0.000270273	   9.47413	-0.000265966	   9.46138	-0.000267716	   9.46138	   -6.6929	
   9.49575	-0.000260532	   9.50774	-0.000263756	   9.52046	-0.000259597	   9.50798	-0.000261295	   9.50798	  -6.53238	
   9.54214	-0.00025414	   9.55386	-0.000257288	   9.56614	-0.000253139	   9.55405	-0.000254856	   9.55405	  -6.37139	
    9.5882	-0.000247713	   9.59945	-0.000250867	   9.61148	-0.000246588	   9.59971	-0.000248389	   9.59971	  -6.20973	
     9.634	-0.000241229	    9.6448	-0.000244483	   9.65654	-0.000239952	   9.64511	-0.000241888	   9.64511	   -6.0472	
   9.67941	-0.000234667	   9.68979	-0.000238123	   9.70141	-0.000233245	    9.6902	-0.000235345	    9.6902	  -5.88362	
   9.72433	-0.000228037	   9.73431	-0.000231762	   9.74577	-0.000226493	    9.7348	-0.000228764	    9.7348	   -5.7191	
   9.76866	-0.000221343	   9.77826	-0.000225368	   9.78953	-0.00021973	   9.77882	-0.000222147	   9.77882	  -5.55368	
    9.8125	-0.000214595	   9.82155	-0.000218917	   9.83298	-0.000212982	   9.82235	-0.000215498	   9.82235	  -5.38744	
   9.85615	-0.000207842	    9.8641	-0.000212391	   9.87621	-0.000206275	   9.86549	-0.000208836	   9.86549	   -5.2209	
   9.89948	-0.000201112	   9.90642	-0.000205783	    9.9191	-0.000199626	   9.90833	-0.000202173	   9.90833	  -5.05433	
   9.94238	-0.000194423	   9.94839	-0.00019909	   9.96155	-0.00019304	   9.95077	-0.000195517	   9.95077	  -4.88793	
   9.98476	-0.000187796	   9.98991	-0.000192324	   10.0036	-0.000186516	   9.99277	-0.000188878	   9.99277	  -4.72196	
   10.0265	-0.000181244	   10.0309	-0.000185518	   10.0457	-0.000180041	   10.0344	-0.000182268	   10.0344	  -4.55669	
   10.0682	-0.000174761	   10.0713	-0.000178703	   10.0872	-0.000173594	   10.0755	-0.000175686	   10.0755	  -4.39215	
   10.1093	-0.000168312	   10.1115	-0.000171907	   10.1278	-0.000167147	   10.1162	-0.000169122	   10.1162	  -4.22804	
   10.1501	-0.000161884	   10.1515	-0.000165158	   10.1681	-0.000160677	   10.1566	-0.000162573	   10.1566	  -4.06432	
   10.1905	-0.000155459	   10.1912	-0.000158479	   10.2082	-0.000154155	   10.1967	-0.000156031	   10.1967	  -3.90078	
   10.2307	-0.000148994	   10.2304	-0.000151878	   10.2479	-0.000147558	   10.2363	-0.000149477	   10.2363	  -3.73691	
   10.2703	-0.000142487	   10.2693	-0.000145331	   10.2869	-0.000140882	   10.2755	-0.0001429	   10.2755	   -3.5725	
   10.3092	-0.000135934	   10.3082	-0.000138826	   10.3255	-0.000134128	   10.3143	-0.000136296	   10.3143	   -3.4074	
   10.3477	-0.000129339	   10.3469	-0.000132354	   10.3639	-0.0001273	   10.3528	-0.000129664	   10.3528	  -3.24161	
   10.3859	-0.000122709	   10.3851	-0.000125865	   10.4017	-0.000120427	   10.3909	 -0.000123	   10.3909	  -3.07501	
   10.4238	-0.000116067	   10.4225	-0.000119326	   10.4392	-0.000113543	   10.4285	-0.000116312	   10.4285	   -2.9078	
   10.4613	-0.000109442	   10.4596	-0.000112728	   10.4762	-0.000106671	   10.4657	-0.000109614	   10.4657	  -2.74035	
   10.4982	-0.000102841	   10.4962	-0.000106053	   10.5127	-9.98402e-05	   10.5023	-0.000102911	   10.5023	  -2.57279	
   10.5345	-9.62805e-05	   10.5319	-9.92972e-05	   10.5486	-9.30785e-05	   10.5383	-9.62187e-05	   10.5383	  -2.40547	
   10.5705	-8.9771e-05	   10.5673	-9.2473e-05	    10.584	-8.6405e-05	   10.5739	-8.95497e-05	   10.5739	  -2.23874	
   10.6061	-8.33007e-05	   10.6028	-8.56145e-05	   10.6192	-7.98161e-05	   10.6094	-8.29104e-05	   10.6094	  -2.07276	
   10.6414	-7.6865e-05	   10.6379	-7.87391e-05	   10.6542	-7.33012e-05	   10.6445	-7.63017e-05	   10.6445	  -1.90754	
   10.6764	-7.04468e-05	   10.6721	-7.1871e-05	   10.6886	-6.68468e-05	    10.679	-6.97215e-05	    10.679	  -1.74304	
    10.711	-6.40228e-05	   10.7062	-6.50555e-05	   10.7227	-6.04127e-05	   10.7133	-6.31637e-05	   10.7133	  -1.57909	
   10.7451	-5.75781e-05	   10.7405	-5.83103e-05	   10.7562	-5.39654e-05	   10.7473	-5.66179e-05	   10.7473	  -1.41545	
   10.7789	-5.11057e-05	    10.774	-5.16334e-05	   10.7896	-4.74781e-05	   10.7808	-5.00724e-05	   10.7808	  -1.25181	
    10.812	-4.46032e-05	   10.8065	-4.50242e-05	   10.8222	-4.09209e-05	   10.8136	-4.35161e-05	   10.8136	   -1.0879	
   10.8445	-3.80619e-05	   10.8393	-3.84747e-05	   10.8542	-3.42767e-05	    10.846	-3.69378e-05	    10.846	 -0.923444	
   10.8768	-3.14799e-05	   10.8721	-3.19557e-05	   10.8859	-2.75451e-05	   10.8783	-3.03269e-05	   10.8783	 -0.758172	
   10.9089	-2.48707e-05	   10.9038	-2.54397e-05	   10.9174	-2.07366e-05	     10.91	-2.36823e-05	     10.91	 -0.592058	
   10.9406	-1.82338e-05	   10.9347	-1.89067e-05	   10.9485	-1.38682e-05	   10.9413	-1.70029e-05	   10.9413	 -0.425073	
    10.972	-1.15764e-05	   10.9658	-1.23335e-05	   10.9793	-6.9754e-06	   10.9724	-1.02951e-05	   10.9724	 -0.257378	
   11.0029	-4.91217e-06	   10.9968	-5.70178e-06	   11.0097	-9.4628e-08	   11.0031	-3.56953e-06	   11.0031	-0.0892381	
   11.0333	1.75458e-06	    11.027	9.84897e-07	   11.0396	6.74554e-06	   11.0333	3.16167e-06	   11.0333	 0.0790418	
   11.0631	8.41631e-06	   11.0566	7.71909e-06	   11.0689	1.35198e-05	   11.0629	9.88505e-06	   11.0629	  0.247126	
   11.0922	1.50719e-05	   11.0863	1.44936e-05	   11.0976	2.02096e-05	   11.0921	1.65917e-05	   11.0921	  0.414793	
   11.1208	2.17137e-05	   11.1156	2.12869e-05	    11.126	2.68155e-05	   11.1208	2.3272e-05	   11.1208	    0.5818	
   11.1486	2.8345e-05	   11.1441	2.80733e-05	   11.1539	3.33467e-05	   11.1489	2.99216e-05	   11.1489	  0.748041	
   11.1763	3.49641e-05	   11.1725	3.48338e-05	   11.1817	3.98187e-05	   11.1768	3.65389e-05	   11.1768	  0.913472	
   11.2037	4.15654e-05	   11.2007	4.15531e-05	    11.209	4.62604e-05	   11.2045	4.31263e-05	   11.2045	   1.07816	
   11.2309	4.8154e-05	   11.2282	4.82175e-05	    11.236	5.27073e-05	   11.2317	4.96929e-05	   11.2317	   1.24232	
   11.2577	5.47277e-05	    11.255	5.48257e-05	   11.2626	5.91879e-05	   11.2585	5.62471e-05	   11.2585	   1.40618	
   11.2842	6.12929e-05	   11.2812	6.13863e-05	   11.2889	6.57258e-05	   11.2847	6.28017e-05	   11.2847	   1.57004	
   11.3101	6.78616e-05	   11.3069	6.79079e-05	   11.3147	7.23389e-05	   11.3106	6.93695e-05	   11.3106	   1.73424	
   11.3356	7.44371e-05	   11.3322	7.44096e-05	   11.3401	 7.903e-05	    11.336	7.59589e-05	    11.336	   1.89897	
   11.3605	8.10296e-05	    11.357	8.09149e-05	   11.3649	8.57877e-05	   11.3608	8.25774e-05	   11.3608	   2.06444	
   11.3849	8.76396e-05	   11.3813	8.74425e-05	   11.3891	9.25947e-05	   11.3851	8.92256e-05	   11.3851	   2.23064	
   11.4087	9.42637e-05	   11.4053	9.40084e-05	   11.4128	9.94256e-05	   11.4089	9.58992e-05	   11.4089	   2.39748	
    11.432	0.000100903	    11.429	0.000100624	   11.4358	0.000106249	   11.4323	0.000102592	   11.4323	    2.5648	
    11.455	0.00010755	   11.4521	0.000107295	   11.4585	0.000113038	   11.4552	0.000109294	   11.4552	   2.73236	
   11.4774	0.000114198	   11.4748	0.000114013	   11.4806	0.000119768	   11.4776	0.000115993	   11.4776	   2.89983	
   11.4994	0.000120836	   11.4972	0.000120763	   11.5024	0.000126423	   11.4997	0.000122674	   11.4997	   3.06685	
    11.521	0.000127454	   11.5193	0.000127528	   11.5236	0.000132997	   11.5213	0.000129326	   11.5213	   3.23316	
   11.5424	0.000134046	   11.5406	0.000134286	   11.5443	0.000139498	   11.5424	0.000135943	   11.5424	   3.39858	
   11.5633	0.000140606	   11.5616	0.000141014	   11.5646	0.000145942	   11.5632	0.000142521	   11.5632	   3.56302	
   11.5837	0.000147135	    11.582	0.000147697	   11.5844	0.000152351	   11.5834	0.000149061	   11.5834	   3.72652	
   11.6037	0.000153635	   11.6022	0.000154323	   11.6039	0.000158754	   11.6033	0.000155571	   11.6033	   3.88927	
   11.6234	0.000160117	   11.6218	0.000160889	   11.6231	0.000165176	   11.6227	0.000162061	   11.6227	   4.05151	
   11.6427	0.000166589	   11.6411	 0.0001674	   11.6419	0.000171638	   11.6419	0.000168542	   11.6419	   4.21355	
   11.6615	0.00017306	     11.66	0.00017387	   11.6604	0.000178153	   11.6606	0.000175028	   11.6606	   4.37569	
     11.68	0.000179539	   11.6784	0.000180316	   11.6785	0.000184728	    11.679	0.000181527	    11.679	   4.53819	
   11.6979	0.000186033	   11.6964	0.000186756	   11.6962	0.000191354	   11.6968	0.000188048	   11.6968	    4.7012	
   11.7154	0.000192542	    11.714	0.000193214	   11.7134	0.000198017	   11.7143	0.000194591	   11.7143	   4.86477	
   11.7324	0.000199064	   11.7311	 0.0001997	   11.7301	0.000204696	   11.7312	0.000201154	   11.7312	   5.02884	
   11.7489	0.000205596	   11.7477	0.000206224	   11.7464	0.000211366	   11.7477	0.000207729	   11.7477	   5.19321	
   11.7649	0.000212129	   11.7638	0.000212785	   11.7622	0.000217998	   11.7636	0.000214304	   11.7636	    5.3576	
   11.7803	0.000218655	   11.7794	0.00021938	   11.7775	0.000224574	   11.7791	0.000220869	   11.7791	   5.52173	
   11.7952	0.000225165	   11.7944	0.000225992	   11.7923	0.000231076	    11.794	0.000227411	    11.794	   5.68528	
   11.8096	0.000231654	   11.8089	0.000232605	   11.8066	0.000237496	   11.8084	0.000233918	   11.8084	   5.84796	
   11.8234	0.000238119	   11.8229	0.000239198	   11.8204	0.000243844	   11.8222	0.000240387	   11.8222	   6.00967	
   11.8367	0.000244557	   11.8364	0.000245749	   11.8336	0.000250127	   11.8356	0.000246811	   11.8356	   6.17028	
   11.8495	0.00025097	   11.8493	0.000252243	   11.8463	0.000256367	   11.8484	0.000253193	   11.8484	   6.32983	
   11.8617	0.00025736	   11.8617	0.000258672	   11.8586	0.000262584	   11.8607	0.000259538	   11.8607	   6.48846	
   11.8734	0.000263731	   11.8736	0.000265034	   11.8703	 0.0002688	   11.8724	0.000265855	   11.8724	   6.64638	
   11.8845	0.000270092	    11.885	0.000271335	   11.8814	0.000275039	   11.8836	0.000272155	   11.8836	   6.80388	
   11.8952	0.000276447	   11.8958	0.000277589	   11.8921	0.000281312	   11.8944	0.000278449	   11.8944	   6.96123	
   11.9053	0.000282802	   11.9061	0.000283815	   11.9025	0.00028762	   11.9047	0.000284746	   11.9047	   7.11865	
   11.9149	0.000289161	    11.916	0.000290035	   11.9124	0.000293952	   11.9144	0.000291049	   11.9144	   7.27623	
   11.9241	0.000295525	   11.9253	0.000296268	   11.9218	0.000300304	   11.9237	0.000297366	   11.9237	   7.43414	
   11.9327	0.000301894	   11.9342	0.000302531	   11.9307	0.000306671	   11.9325	0.000303699	   11.9325	   7.59247	
   11.9409	0.000308264	   11.9426	0.00030883	   11.9391	0.00031303	   11.9409	0.000310042	   11.9409	   7.75104	
   11.9487	0.000314628	   11.9505	0.000315167	   11.9471	0.00031937	   11.9487	0.000316388	   11.9487	   7.90971	
   11.9559	0.000320979	    11.958	0.000321536	   11.9546	0.000325682	   11.9562	0.000322732	   11.9562	   8.06831	
   11.9628	0.000327312	    11.965	0.00032792	   11.9616	0.000331964	   11.9632	0.000329065	   11.9632	   8.22663	
   11.9692	0.000333618	   11.9717	0.000334299	   11.9683	0.000338214	   11.9697	0.000335377	   11.9697	   8.38442	
   11.9752	0.000339889	   11.9779	0.000340656	   11.9745	0.000344431	   11.9759	0.000341658	   11.9759	   8.54146	
   11.9809	0.000346122	   11.9837	0.000346968	   11.9803	0.000350618	   11.9816	0.000347903	   11.9816	   8.69757	
   11.9861	0.000352321	   11.9891	0.000353221	   11.9858	0.000356779	    11.987	0.000354107	    11.987	   8.85267	
    11.991	0.000358483	   11.9939	0.000359404	   11.9908	0.000362923	   11.9919	0.00036027	   11.9919	   9.00675	
   11.9955	0.000364615	   11.9984	0.000365518	   11.9956	0.000369062	   11.9965	0.000366399	   11.9965	   9.15996	
   11.9997	0.000370722	   12.0025	0.000371568	   11.9999	0.000375199	   12.0007	0.000372496	   12.0007	    9.3124	
   12.0036	0.000376811	    12.006	0.000377566	    12.004	0.00038133	   12.0045	0.000378569	   12.0045	   9.46422	
   12.0069	0.000382891	   12.0089	0.000383529	   12.0075	0.000387458	   12.0078	0.000384626	   12.0078	   9.61564	
   12.0097	0.000388966	   12.0112	0.000389476	   12.0104	0.000393579	   12.0105	0.000390674	   12.0105	   9.76685	
   12.0123	0.00039504	   12.0132	0.000395425	   12.0129	0.000399692	   12.0128	0.000396719	   12.0128	   9.91798	
   12.0143	0.000401114	   12.0144	0.000401395	   12.0149	0.000405788	   12.0145	0.000402766	   12.0145	   10.0691	
   12.0155	0.000407187	   12.0149	0.000407413	   12.0163	0.000411861	   12.0156	0.000408821	   12.0156	   10.2205	
   12.0161	0.000413257	   12.0147	0.000413475	   12.0173	0.000417907	    12.016	0.00041488	    12.016	    10.372	
   12.0159	0.000419315	    12.014	0.000419576	   12.0175	0.000423924	   12.0158	0.000420938	   12.0158	   10.5235	
   12.0152	0.000425354	   12.0128	0.000425694	   12.0172	0.000429912	    12.015	0.000426986	    12.015	   10.6747	
   12.0138	0.000431369	    12.011	0.000431804	   12.0162	0.000435865	   12.0137	0.000433013	   12.0137	   10.8253	
    12.012	0.000437357	   12.0088	0.000437883	   12.0147	0.000441788	   12.0118	0.000439009	   12.0118	   10.9752	
   12.0097	0.000443314	   12.0062	0.000443894	   12.0127	0.000447688	   12.0095	0.000444965	   12.0095	   11.1241	
    12.007	0.00044924	   12.0032	0.000449816	   12.0102	0.00045357	   12.0068	0.000450875	   12.0068	   11.2719	
   12.0038	0.000455138	   11.9999	0.000455633	   12.0074	0.000459442	   12.0037	0.000456738	   12.0037	   11.4184	
   12.0004	0.000461012	   11.9962	0.000461338	   12.0041	0.00046531	   12.0003	0.000462554	   12.0003	   11.5638	
   11.9966	0.000466866	   11.9923	0.000466943	   12.0006	0.000471187	   11.9965	0.000468332	   11.9965	   11.7083	
   11.9926	0.000472704	   11.9879	0.000472462	   11.9967	0.000477074	   11.9924	0.00047408	   11.9924	    11.852	
   11.9877	0.000478525	   11.9829	0.000477922	   11.9926	0.000482966	   11.9878	0.000479804	   11.9878	   11.9951	
   11.9825	0.000484335	   11.9772	0.000483355	   11.9881	0.000488873	   11.9826	0.000485521	   11.9826	    12.138	
   11.9766	0.000490135	    11.971	0.000488801	   11.9831	0.000494787	   11.9769	0.000491241	   11.9769	    12.281	
   11.9701	0.000495922	   11.9642	0.000494296	   11.9774	0.000500689	   11.9706	0.000496969	   11.9706	   12.4242	
   11.9631	0.000501694	   11.9568	0.000499861	   11.9711	0.000506571	   11.9637	0.000502709	   11.9637	   12.5677	
   11.9555	0.000507448	   11.9491	0.000505509	   11.9642	0.000512422	   11.9563	0.000508459	   11.9563	   12.7115	
   11.9475	0.00051318	    11.941	0.000511238	   11.9568	0.000518231	   11.9484	0.000514216	   11.9484	   12.8554	
   11.9392	0.000518885	   11.9325	0.000517032	    11.949	0.000523979	   11.9402	0.000519965	   11.9402	   12.9991	
   11.9303	0.00052456	   11.9236	0.000522863	   11.9408	0.000529665	   11.9316	0.000525696	   11.9316	   13.1424	
   11.9212	0.000530205	   11.9145	0.000528693	   11.9323	0.000535295	   11.9227	0.000531397	   11.9227	   13.2849	
   11.9115	0.000535818	   11.9051	0.000534487	   11.9233	0.000540865	   11.9133	0.000537056	   11.9133	   13.4264	
   11.9011	 0.0005414	    11.895	0.000540205	   11.9135	0.000546387	   11.9032	0.000542664	   11.9032	   13.5666	
   11.8901	0.000546956	   11.8844	0.000545822	   11.9032	0.000551876	   11.8926	0.000548218	   11.8926	   13.7054	
   11.8786	0.000552486	   11.8733	0.000551327	   11.8923	0.000557343	   11.8814	0.000553718	   11.8814	    13.843	
   11.8666	0.000557993	   11.8618	0.000556712	   11.8809	0.000562799	   11.8698	0.000559168	   11.8698	   13.9792	
   11.8542	0.000563482	   11.8499	0.00056199	    11.869	0.000568255	   11.8577	0.000564576	   11.8577	   14.1144	
   11.8415	0.000568958	   11.8377	0.000567186	   11.8567	0.000573719	   11.8453	0.000569954	   11.8453	   14.2489	
   11.8285	0.000574418	   11.8252	0.000572336	   11.8439	0.000579184	   11.8325	0.000575313	   11.8325	   14.3828	
   11.8151	0.000579862	   11.8119	0.000577474	   11.8305	0.000584648	   11.8192	0.000580661	   11.8192	   14.5165	
   11.8014	0.000585289	   11.7981	0.000582631	   11.8168	0.000590103	   11.8054	0.000586008	   11.8054	   14.6502	
    11.787	0.000590696	   11.7838	0.000587832	   11.8028	0.000595532	   11.7912	0.000591353	   11.7912	   14.7838	
   11.7721	0.000596082	   11.7689	0.000593093	   11.7881	0.000600922	   11.7764	0.000596699	   11.7764	   14.9175	
   11.7568	0.00060144	   11.7537	0.000598419	   11.7729	0.000606268	   11.7611	0.000602042	   11.7611	   15.0511	
   11.7409	0.000606762	   11.7381	0.000603802	   11.7573	0.000611568	   11.7454	0.000607377	   11.7454	   15.1844	
   11.7247	0.000612044	   11.7222	0.000609219	   11.7414	0.000616822	   11.7294	0.000612695	   11.7294	   15.3174	
   11.7083	0.000617285	   11.7061	0.000614641	    11.725	0.00062203	   11.7132	0.000617986	   11.7132	   15.4496	
   11.6913	0.000622484	   11.6897	0.000620039	   11.7079	0.000627195	   11.6963	0.000623239	   11.6963	    15.581	
   11.6739	0.000627641	   11.6725	0.000625378	   11.6901	0.000632322	   11.6788	0.000628447	   11.6788	   15.7112	
   11.6559	0.000632759	   11.6549	0.000630633	    11.672	0.00063742	   11.6609	0.000633604	   11.6609	   15.8401	
   11.6376	0.000637848	   11.6368	0.000635791	   11.6534	0.00064249	   11.6426	0.00063871	   11.6426	   15.9677	
   11.6189	0.000642914	   11.6184	0.000640847	   11.6345	0.00064753	   11.6239	0.000643763	   11.6239	   16.0941	
   11.5997	0.000647963	   11.5998	0.000645807	   11.6153	0.000652532	   11.6049	0.000648767	   11.6049	   16.2192	
   11.5801	  0.000653	   11.5808	0.000650691	   11.5956	0.000657475	   11.5855	0.000653722	   11.5855	   16.3431	
   11.5599	0.00065803	    11.561	0.000655524	   11.5754	0.000662366	   11.5654	0.00065864	   11.5654	    16.466	
   11.5391	0.000663054	   11.5408	0.000660334	   11.5545	0.000667208	   11.5448	0.000663532	   11.5448	   16.5883	
   11.5179	0.000668068	   11.5201	0.000665151	   11.5332	0.000672004	   11.5237	0.000668408	   11.5237	   16.7102	
   11.4964	0.000673071	    11.499	0.000670004	   11.5115	0.000676765	   11.5023	0.00067328	   11.5023	    16.832	
   11.4744	0.000678053	   11.4774	0.000674905	   11.4896	0.000681506	   11.4804	0.000678154	   11.4804	   16.9539	
   11.4519	0.000683005	   11.4553	0.000679853	   11.4669	0.000686255	    11.458	0.000683038	    11.458	   17.0759	
    11.429	0.000687924	   11.4326	0.000684836	    11.444	0.000691026	   11.4352	0.000687928	   11.4352	   17.1982	
   11.4057	0.000692802	   11.4095	0.000689831	   11.4205	0.000695824	   11.4119	0.000692819	   11.4119	   17.3205	
   11.3819	0.000697637	   11.3859	0.000694812	   11.3966	0.000700659	   11.3881	0.000697703	   11.3881	   17.4426	
   11.3578	0.000702426	    11.362	0.000699748	   11.3724	0.000705526	   11.3641	0.000702566	   11.3641	   17.5642	
   11.3336	0.000707169	   11.3377	0.000704607	   11.3478	0.000710417	   11.3397	0.000707397	   11.3397	   17.6849	
   11.3086	0.000711872	    11.313	0.000709363	   11.3225	0.000715319	   11.3147	0.000712185	   11.3147	   17.8046	
   11.2832	0.000716538	   11.2878	0.000714008	   11.2966	0.000720203	   11.2892	0.000716916	   11.2892	   17.9229	
   11.2573	0.000721178	   11.2621	0.000718543	   11.2703	0.000725036	   11.2632	0.000721586	   11.2632	   18.0396	
    11.231	0.000725796	   11.2361	0.000722979	   11.2437	0.000729787	    11.237	0.000726187	    11.237	   18.1547	
   11.2046	 0.0007304	   11.2096	0.000727338	   11.2166	0.000734437	   11.2103	0.000730725	   11.2103	   18.2681	
   11.1778	0.000735003	   11.1827	0.000731649	   11.1891	0.000738977	   11.1832	0.000735209	   11.1832	   18.3802	
   11.1504	0.000739604	   11.1553	0.000735945	   11.1611	0.000743394	   11.1556	0.000739647	   11.1556	   18.4912	
   11.1225	0.00074421	   11.1274	0.000740261	   11.1326	0.000747694	   11.1275	0.000744055	   11.1275	   18.6014	
   11.0941	0.000748822	   11.0991	0.000744615	   11.1038	0.000751896	    11.099	0.000748444	    11.099	   18.7111	
   11.0655	0.000753434	   11.0704	0.000749023	   11.0746	0.000756027	   11.0702	0.000752828	   11.0702	   18.8207	
   11.0365	0.00075804	   11.0412	0.000753492	   11.0449	0.000760121	   11.0409	0.000757218	   11.0409	   18.9304	
   11.0069	0.000762628	   11.0115	0.000758007	   11.0147	0.000764208	    11.011	0.000761614	    11.011	   19.0404	
   10.9768	0.000767183	   10.9814	0.000762562	   10.9841	0.000768313	   10.9808	0.000766019	   10.9808	   19.1505	
   10.9462	0.000771691	    10.951	0.00076713	   10.9532	0.000772458	   10.9501	0.000770426	   10.9501	   19.2607	
   10.9153	0.000776134	     10.92	0.000771681	   10.9222	0.000776656	   10.9192	0.000774824	   10.9192	   19.3706	
   10.8837	0.000780505	   10.8885	0.000776186	   10.8906	0.000780904	   10.8876	0.000779198	   10.8876	     19.48	
   10.8517	0.000784796	   10.8565	0.000780612	   10.8585	0.000785191	   10.8556	0.000783533	   10.8556	   19.5883	
   10.8194	0.000789005	   10.8241	0.000784947	   10.8261	0.000789497	   10.8232	0.000787816	   10.8232	   19.6954	
   10.7868	0.00079314	   10.7916	0.000789181	   10.7934	0.000793792	   10.7906	0.000792038	   10.7906	   19.8009	
   10.7538	0.000797209	   10.7584	0.000793312	   10.7603	0.000798054	   10.7575	0.000796192	   10.7575	   19.9048	
   10.7202	0.000801225	   10.7247	0.000797356	   10.7267	0.000802252	   10.7239	0.000800278	   10.7239	   20.0069	
   10.6863	0.000805204	   10.6906	0.000801329	   10.6926	0.000806368	   10.6898	 0.0008043	   10.6898	   20.1075	
   10.6521	0.000809166	   10.6563	0.000805249	   10.6583	0.000810387	   10.6556	0.000808267	   10.6556	   20.2067	
   10.6176	0.000813133	   10.6215	0.000809139	   10.6233	0.000814312	   10.6208	0.000812194	   10.6208	   20.3049	
   10.5825	0.000817119	   10.5862	0.000813023	   10.5878	0.00081815	   10.5855	0.000816097	   10.5855	   20.4024	
    10.547	0.000821137	   10.5505	0.000816912	   10.5519	0.000821915	   10.5498	0.000819988	   10.5498	   20.4997	
   10.5113	0.000825189	   10.5145	0.000820822	   10.5157	0.000825628	   10.5138	0.00082388	   10.5138	    20.597	
   10.4753	0.000829273	   10.4781	0.000824769	   10.4788	0.000829315	   10.4774	0.000827786	   10.4774	   20.6946	
   10.4388	0.00083338	   10.4414	0.000828758	   10.4414	0.000832999	   10.4405	0.000831712	   10.4405	   20.7928	
   10.4019	0.000837486	   10.4042	0.000832783	   10.4036	0.000836699	   10.4032	0.000835656	   10.4032	   20.8914	
   10.3646	0.000841564	   10.3668	0.000836827	   10.3654	0.000840425	   10.3656	0.000839605	   10.3656	   20.9901	
   10.3272	0.000845592	   10.3289	0.000840863	   10.3266	0.000844183	   10.3276	0.000843546	   10.3276	   21.0887	
   10.2892	0.000849546	   10.2905	0.00084486	   10.2872	0.000847968	    10.289	0.000847458	    10.289	   21.1865	
   10.2507	0.000853407	   10.2517	0.000848787	   10.2475	0.000851765	     10.25	0.00085132	     10.25	    21.283	
   10.2117	0.000857168	   10.2126	0.000852618	   10.2077	0.000855557	   10.2107	0.000855114	   10.2107	   21.3779	
   10.1723	0.000860827	   10.1732	0.000856331	   10.1672	0.000859321	   10.1709	0.000858826	   10.1709	   21.4707	
   10.1324	0.000864394	   10.1332	0.000859909	   10.1263	0.000863035	   10.1306	0.000862446	   10.1306	   21.5612	
   10.0921	0.000867888	   10.0928	0.000863364	   10.0851	0.000866683	     10.09	0.000865978	     10.09	   21.6495	
   10.0515	0.00087134	   10.0522	0.000866717	   10.0434	0.000870252	    10.049	0.000869436	    10.049	   21.7359	
   10.0102	0.000874778	    10.011	0.000869995	   10.0012	0.000873741	   10.0075	0.000872838	   10.0075	    21.821	
   9.96851	0.000878218	   9.96925	0.000873238	   9.95862	0.000877154	   9.96546	0.000876203	   9.96546	   21.9051	
   9.92645	0.000881674	   9.92722	0.000876482	   9.91581	 0.0008805	   9.92316	0.000879552	   9.92316	   21.9888	
   9.88392	0.000885159	   9.88503	0.000879758	   9.87264	0.000883792	   9.88053	0.000882903	   9.88053	   22.0726	
   9.84081	0.00088867	   9.84244	0.000883092	   9.82916	0.000887049	   9.83747	0.00088627	   9.83747	   22.1568	
   9.79729	0.000892189	   9.79942	0.000886499	   9.78535	0.000890285	   9.79402	0.000889657	   9.79402	   22.2414	
   9.75353	0.000895694	   9.75594	0.000889969	   9.74137	0.000893511	   9.75028	0.000893058	   9.75028	   22.3265	
   9.70968	0.000899166	   9.71178	0.000893484	   9.69678	0.000896732	   9.70608	0.000896461	   9.70608	   22.4115	
   9.66531	0.000902577	   9.66714	0.000897002	   9.65177	0.000899937	    9.6614	0.000899839	    9.6614	    22.496	
   9.62058	0.000905896	   9.62218	0.000900479	   9.60651	0.000903116	   9.61642	0.000903164	   9.61642	   22.5791	
   9.57567	0.000909121	   9.57687	0.000903882	   9.56116	0.000906256	   9.57124	0.00090642	   9.57124	   22.6605	
   9.53045	0.000912241	   9.53129	0.000907185	   9.51558	0.000909341	   9.52577	0.000909589	   9.52577	   22.7397	
   9.48477	0.000915259	   9.48532	0.000910357	   9.46963	0.000912355	   9.47991	0.000912657	   9.47991	   22.8164	
   9.43864	0.000918173	   9.43911	0.000913393	   9.42349	0.000915286	   9.43375	0.000915618	   9.43375	   22.8904	
   9.39212	0.00092101	   9.39226	0.000916316	   9.37731	0.00091814	   9.38723	0.000918488	   9.38723	   22.9622	
    9.3451	0.000923798	   9.34496	0.00091915	   9.33084	0.000920921	    9.3403	0.00092129	    9.3403	   23.0322	
   9.29777	0.000926576	   9.29738	0.000921925	   9.28408	0.000923636	   9.29308	0.000924045	   9.29308	   23.1011	
   9.24991	0.000929362	   9.24951	0.000924672	   9.23697	0.000926309	   9.24546	0.000926781	   9.24546	   23.1695	
   9.20151	0.000932183	   9.20112	0.000927442	   9.18932	0.000928978	   9.19732	0.000929534	   9.19732	   23.2384	
   9.15277	0.000935057	    9.1524	0.000930252	   9.14093	0.000931657	    9.1487	0.000932322	    9.1487	   23.3081	
   9.10386	0.000937983	   9.10354	0.000933113	   9.09181	0.000934367	   9.09973	0.000935154	   9.09973	   23.3789	
   9.05436	0.000940951	   9.05411	0.000936023	   9.04197	0.00093713	   9.05015	0.000938034	   9.05015	   23.4509	
   9.00448	0.000943941	   9.00431	0.00093896	   8.99124	0.000939942	   9.00001	0.000940948	   9.00001	   23.5237	
   8.95439	0.000946925	   8.95432	0.000941899	   8.93985	0.000942793	   8.94952	0.000943872	   8.94952	   23.5968	
   8.90389	0.000949881	   8.90392	 0.0009448	     8.888	0.000945662	    8.8986	0.000946781	    8.8986	   23.6695	
   8.85296	0.000952779	   8.85311	0.000947634	    8.8356	0.000948525	   8.84722	0.000949646	   8.84722	   23.7411	
    8.8018	0.000955589	   8.80208	0.000950369	   8.78276	0.000951342	   8.79554	0.000952434	   8.79554	   23.8108	
   8.75029	0.000958288	   8.75041	0.000952981	   8.72948	0.000954078	   8.74339	0.000955116	   8.74339	   23.8779	
   8.69833	0.00096086	   8.69833	0.000955479	   8.67596	0.000956711	   8.69087	0.000957683	   8.69087	   23.9421	
   8.64582	0.000963309	   8.64602	0.00095786	   8.62237	0.000959219	   8.63807	0.000960129	   8.63807	   24.0032	
   8.59287	0.000965647	   8.59328	0.000960138	    8.5689	0.00096159	   8.58502	0.000962459	   8.58502	   24.0615	
   8.53948	0.000967891	    8.5401	0.000962349	   8.51569	0.000963825	   8.53176	0.000964688	   8.53176	   24.1172	
   8.48567	0.000970065	   8.48669	0.00096452	    8.4625	0.000965948	   8.47828	0.000966844	   8.47828	   24.1711	
   8.43153	0.000972195	   8.43293	0.000966683	    8.4093	0.000967982	   8.42458	0.000968953	   8.42458	   24.2238	
   8.37696	0.000974309	   8.37873	0.000968864	   8.35596	0.000969957	   8.37055	0.000971043	   8.37055	   24.2761	
   8.32216	0.000976431	   8.32429	0.00097108	   8.30238	0.000971912	   8.31628	0.000973141	   8.31628	   24.3285	
   8.26704	0.000978578	   8.26951	0.000973338	   8.24872	0.000973881	   8.26176	0.000975266	   8.26176	   24.3817	
    8.2115	0.000980758	   8.21429	0.000975627	   8.19479	0.000975892	   8.20686	0.000977426	   8.20686	   24.4356	
   8.15574	0.000982968	   8.15885	0.000977929	   8.14028	0.000977966	   8.15162	0.000979621	   8.15162	   24.4905	
   8.09994	0.000985198	   8.10316	0.000980213	   8.08512	0.000980102	   8.09607	0.000981838	   8.09607	   24.5459	
   8.04372	0.000987429	   8.04704	0.000982449	   8.02953	0.000982289	    8.0401	0.000984056	    8.0401	   24.6014	
   7.98726	0.000989632	   7.99069	0.000984608	   7.97371	0.000984502	   7.98389	0.000986248	   7.98389	   24.6562	
   7.93019	0.000991782	   7.93402	0.000986662	   7.91756	0.000986704	   7.92726	0.000988383	   7.92726	   24.7096	
   7.87273	0.000993849	   7.87693	0.000988592	   7.86081	0.000988853	   7.87015	0.000990431	   7.87015	   24.7608	
   7.81508	0.000995812	   7.81963	0.000990389	   7.80385	0.000990917	   7.81285	0.000992373	   7.81285	   24.8093	
   7.75714	0.000997662	   7.76231	0.000992057	   7.74689	0.00099287	   7.75545	0.000994197	   7.75545	   24.8549	
   7.69883	0.000999396	   7.70458	0.000993618	    7.6897	0.000994692	    7.6977	0.000995902	    7.6977	   24.8976	
   7.64007	0.00100102	   7.64663	0.000995104	   7.63172	0.000996377	   7.63947	0.000997501	   7.63947	   24.9375	
   7.58097	0.00100257	   7.58829	0.000996553	   7.57338	0.000997937	   7.58088	0.000999019	   7.58088	   24.9755	
   7.52156	0.00100405	   7.52957	0.000998003	   7.51527	0.000999393	   7.52213	0.00100048	   7.52213	   25.0121	
   7.46203	0.00100551	   7.47067	0.000999487	   7.45697	0.00100077	   7.46322	0.00100192	   7.46322	   25.0481	
     7.402	0.00100698	   7.41151	0.00100104	   7.39781	0.00100211	   7.40377	0.00100337	   7.40377	   25.0843	
    7.3417	0.00100847	   7.35199	0.00100266	   7.33813	0.00100345	   7.34394	0.00100486	   7.34394	   25.1215	
   7.28132	   0.00101	   7.29234	0.00100435	   7.27893	0.00100483	    7.2842	0.00100639	    7.2842	   25.1599	
   7.22068	0.00101158	   7.23234	 0.0010061	   7.21978	0.00100627	   7.22427	0.00100798	   7.22427	   25.1995	
   7.15979	0.00101319	   7.17203	0.00100788	   7.15968	0.00100777	   7.16383	0.00100961	   7.16383	   25.2403	
   7.09886	0.00101481	   7.11132	0.00100963	   7.09892	0.00100935	   7.10303	0.00101126	   7.10303	   25.2815	
   7.03768	0.00101641	   7.05014	0.00101133	   7.03809	0.00101097	   7.04197	 0.0010129	   7.04197	   25.3226	
   6.97627	0.00101796	   6.98872	0.00101292	   6.97731	0.00101262	   6.98077	 0.0010145	   6.98077	   25.3625	
   6.91465	0.00101942	   6.92706	0.00101438	   6.91589	0.00101426	    6.9192	0.00101602	    6.9192	   25.4005	
   6.85264	0.00102077	     6.865	0.00101569	   6.85406	0.00101584	   6.85723	0.00101743	   6.85723	   25.4358	
   6.79046	0.00102201	   6.80275	0.00101684	   6.79224	0.00101734	   6.79515	0.00101873	   6.79515	   25.4682	
   6.72803	0.00102312	   6.73995	0.00101785	   6.73043	0.00101871	    6.7328	0.00101989	    6.7328	   25.4973	
   6.66525	0.00102412	   6.67683	0.00101874	   6.66785	0.00101995	   6.66998	0.00102094	   6.66998	   25.5234	
   6.60237	0.00102504	    6.6136	0.00101958	   6.60485	0.00102105	   6.60694	0.00102189	   6.60694	   25.5473	
   6.53899	0.00102591	   6.55008	0.00102039	   6.54175	0.00102203	   6.54361	0.00102278	   6.54361	   25.5694	
   6.47535	0.00102675	   6.48631	0.00102122	   6.47866	 0.0010229	   6.48011	0.00102362	   6.48011	   25.5906	
   6.41167	0.00102761	   6.42248	 0.0010221	   6.41519	 0.0010237	   6.41645	0.00102447	   6.41645	   25.6118	
   6.34757	0.00102852	   6.35842	0.00102306	   6.35127	0.00102448	   6.35242	0.00102535	   6.35242	   25.6338	
   6.28327	0.00102947	   6.29415	0.00102409	   6.28743	0.00102526	   6.28828	0.00102627	   6.28828	   25.6568	
    6.2188	0.00103046	   6.22968	0.00102518	   6.22376	0.00102607	   6.22408	0.00102724	   6.22408	    25.681	
   6.15397	 0.0010315	   6.16486	0.00102631	   6.15967	0.00102693	    6.1595	0.00102825	    6.1595	   25.7061	
   6.08903	0.00103255	    6.0999	0.00102743	    6.0952	0.00102784	   6.09471	0.00102927	   6.09471	   25.7318	
   6.02389	0.00103357	   6.03502	 0.0010285	   6.03077	 0.0010288	   6.02989	0.00103029	   6.02989	   25.7572	
   5.95847	0.00103453	   5.96983	0.00102948	   5.96638	0.00102977	   5.96489	0.00103126	   5.96489	   25.7815	
    5.8927	0.00103542	   5.90454	0.00103033	   5.90126	0.00103072	    5.8995	0.00103216	    5.8995	   25.8039	
   5.82673	0.00103619	     5.839	0.00103104	   5.83567	0.00103162	    5.8338	0.00103295	    5.8338	   25.8238	
   5.76057	0.00103683	   5.77322	0.00103161	   5.76984	0.00103244	   5.76788	0.00103363	   5.76788	   25.8407	
   5.69415	0.00103736	   5.70713	0.00103205	     5.704	0.00103312	   5.70176	0.00103418	   5.70176	   25.8544	
   5.62741	0.00103778	   5.64086	0.00103237	   5.63796	0.00103368	   5.63541	0.00103461	   5.63541	   25.8653	
   5.56058	0.00103812	   5.57444	0.00103263	   5.57175	0.00103409	   5.56892	0.00103495	   5.56892	   25.8737	
   5.49348	0.00103841	    5.5079	0.00103285	   5.50539	0.00103438	   5.50226	0.00103522	   5.50226	   25.8804	
   5.42615	0.00103869	   5.44105	0.00103308	     5.439	0.00103458	    5.4354	0.00103545	    5.4354	   25.8862	
   5.35882	0.00103897	   5.37414	0.00103334	   5.37231	0.00103473	   5.36842	0.00103568	   5.36842	    25.892	
   5.29111	0.00103928	   5.30708	0.00103367	   5.30515	0.00103486	   5.30111	0.00103594	   5.30111	   25.8984	
   5.22326	0.00103963	   5.23979	0.00103406	   5.23778	  0.001035	   5.23361	0.00103623	   5.23361	   25.9058	
   5.15519	0.00104003	   5.17251	0.00103452	   5.17041	0.00103519	   5.16604	0.00103658	   5.16604	   25.9145	
   5.08685	0.00104044	   5.10486	0.00103501	   5.10267	0.00103545	   5.09813	0.00103697	   5.09813	   25.9242	
   5.01847	0.00104087	   5.03708	0.00103552	   5.03422	0.00103577	   5.02992	0.00103739	   5.02992	   25.9346	
   4.94987	0.00104127	   4.96899	0.00103599	   4.96552	0.00103614	   4.96146	 0.0010378	   4.96146	    25.945	
   4.88109	0.00104161	   4.90064	 0.0010364	   4.89661	0.00103653	   4.89278	0.00103818	   4.89278	   25.9545	
   4.81206	0.00104187	   4.83227	0.00103671	   4.82742	0.00103691	   4.82392	 0.0010385	   4.82392	   25.9624	
   4.74273	0.00104203	   4.76368	0.00103691	   4.75809	0.00103722	   4.75484	0.00103872	   4.75484	    25.968	
   4.67333	0.00104207	   4.69493	0.00103697	   4.68866	0.00103744	   4.68564	0.00103883	   4.68564	   25.9707	
    4.6037	  0.001042	   4.62604	0.00103691	   4.61934	0.00103754	   4.61636	0.00103881	   4.61636	   25.9704	
   4.53388	0.00104183	   4.55685	0.00103674	   4.55005	0.00103748	   4.54693	0.00103868	   4.54693	   25.9671	
   4.46408	0.00104159	   4.48759	0.00103649	   4.48032	0.00103728	   4.47733	0.00103845	   4.47733	   25.9613	
   4.39396	0.00104129	    4.4179	0.00103619	   4.41022	0.00103694	   4.40736	0.00103814	   4.40736	   25.9535	
   4.32374	0.00104097	   4.34804	0.00103589	   4.33997	0.00103648	   4.33725	0.00103778	   4.33725	   25.9445	
   4.25336	0.00104066	   4.27764	 0.0010356	   4.26982	0.00103595	   4.26694	 0.0010374	   4.26694	    25.935	
   4.18276	0.00104039	   4.20697	0.00103535	   4.19919	0.00103538	   4.19631	0.00103704	   4.19631	    25.926	
   4.11189	0.00104018	   4.13627	0.00103515	   4.12854	0.00103483	   4.12557	0.00103672	   4.12557	    25.918	
   4.04098	0.00104003	   4.06518	0.00103501	   4.05779	0.00103432	   4.05465	0.00103645	   4.05465	   25.9114	
   3.96997	0.00103992	   3.99374	0.00103489	   3.98707	0.00103389	   3.98359	0.00103623	   3.98359	   25.9058	
   3.89879	0.00103983	   3.92241	0.00103478	   3.91583	0.00103354	   3.91234	0.00103605	   3.91234	   25.9012	
   3.82738	0.00103971	   3.85081	0.00103463	   3.84413	0.00103326	   3.84077	0.00103587	   3.84077	   25.8967	
   3.75598	0.00103954	   3.77919	0.00103442	   3.77242	0.00103305	    3.7692	0.00103567	    3.7692	   25.8918	
   3.68424	0.00103926	   3.70738	0.00103412	   3.70072	0.00103286	   3.69745	0.00103542	   3.69745	   25.8854	
   3.61239	0.00103886	   3.63541	0.00103371	   3.62859	0.00103266	   3.62547	0.00103508	   3.62547	   25.8769	
   3.54048	0.00103831	   3.56334	0.00103318	   3.55599	 0.0010324	   3.55327	0.00103463	   3.55327	   25.8658	
   3.46834	 0.0010376	   3.49101	0.00103254	   3.48318	0.00103205	   3.48084	0.00103406	   3.48084	   25.8516	
   3.39621	0.00103676	   3.41865	0.00103179	   3.41039	0.00103157	   3.40841	0.00103337	   3.40841	   25.8343	
   3.32402	0.00103581	   3.34591	0.00103096	   3.33727	0.00103094	   3.33574	0.00103257	   3.33574	   25.8143	
   3.25172	0.00103478	   3.27306	0.00103009	   3.26408	0.00103016	   3.26295	0.00103168	   3.26295	   25.7919	
   3.17953	0.00103372	   3.20031	0.00102919	   3.19103	0.00102924	   3.19029	0.00103072	   3.19029	    25.768	
   3.10708	0.00103268	    3.1276	0.00102831	   3.11777	 0.0010282	   3.11748	0.00102973	   3.11748	   25.7432	
   3.03462	0.00103169	   3.05485	0.00102745	   3.04435	0.00102707	   3.04461	0.00102874	   3.04461	   25.7184	
   2.96209	0.00103077	     2.982	0.00102663	   2.97061	 0.0010259	   2.97157	0.00102777	   2.97157	   25.6942	
   2.88941	0.00102994	     2.909	0.00102584	   2.89681	0.00102473	   2.89841	0.00102684	   2.89841	   25.6709	
   2.81654	0.00102919	   2.83579	0.00102507	   2.82318	0.00102359	   2.82517	0.00102595	   2.82517	   25.6488	
   2.74343	0.00102849	   2.76232	 0.0010243	   2.74935	0.00102251	    2.7517	 0.0010251	    2.7517	   25.6276	
   2.67031	0.00102781	   2.68884	0.00102351	   2.67556	0.00102151	   2.67824	0.00102427	   2.67824	   25.6068	
   2.59703	0.00102709	     2.615	0.00102266	   2.60185	0.00102057	   2.60462	0.00102344	   2.60462	   25.5859	
   2.52363	0.00102629	   2.54105	0.00102173	   2.52804	0.00101967	   2.53091	0.00102256	   2.53091	   25.5641	
   2.45035	0.00102536	   2.46722	0.00102071	   2.45409	0.00101878	   2.45722	0.00102162	   2.45722	   25.5405	
   2.37683	0.00102429	   2.39316	 0.0010196	   2.37994	0.00101787	   2.38331	0.00102059	   2.38331	   25.5146	
    2.3033	0.00102306	   2.31912	0.00101839	   2.30584	0.00101688	   2.30942	0.00101944	   2.30942	    25.486	
   2.22961	0.00102167	   2.24511	0.00101709	   2.23181	0.00101579	   2.23551	0.00101818	   2.23551	   25.4546	
   2.15581	0.00102014	   2.17099	0.00101573	    2.1577	0.00101456	    2.1615	0.00101681	    2.1615	   25.4203	
   2.08193	0.00101851	   2.09679	0.00101433	   2.08315	0.00101318	   2.08729	0.00101534	   2.08729	   25.3835	
   2.00811	0.00101682	   2.02236	0.00101291	   2.00843	0.00101167	   2.01297	 0.0010138	   2.01297	   25.3449	
   1.93429	0.00101511	   1.94795	0.00101148	   1.93379	0.00101003	   1.93868	0.00101221	   1.93868	   25.3052	
    1.8604	0.00101344	   1.87321	0.00101007	   1.85915	0.00100831	   1.86426	0.00101061	   1.86426	   25.2651	
   1.78639	0.00101182	    1.7984	0.00100867	   1.78446	0.00100654	   1.78975	0.00100901	   1.78975	   25.2253	
   1.71249	0.00101028	   1.72374	0.00100729	   1.70966	0.00100477	    1.7153	0.00100744	    1.7153	   25.1861	
   1.63835	 0.0010088	   1.64889	 0.0010059	   1.63499	0.00100303	   1.64074	0.00100591	   1.64074	   25.1478	
   1.56401	0.00100737	   1.57407	0.00100451	   1.56038	0.00100135	   1.56615	0.00100441	   1.56615	   25.1102	
   1.48934	0.00100596	   1.49895	0.00100308	   1.48576	0.000999752	   1.49135	0.00100293	   1.49135	   25.0732	
    1.4146	0.00100453	   1.42378	0.00100159	   1.41108	0.00099822	   1.41649	0.00100145	   1.41649	   25.0361	
      1.34	0.00100304	    1.3485	0.00100003	   1.33629	0.000996738	    1.3416	0.000999936	    1.3416	   24.9984	
    1.2652	0.00100146	   1.27306	0.000998375	    1.2617	0.000995277	   1.26665	0.000998371	   1.26665	   24.9593	
   1.19044	0.000999759	    1.1977	0.000996626	   1.18687	0.000993795	   1.19167	0.000996727	   1.19167	   24.9182	
   1.11556	0.00099792	   1.12246	0.000994785	   1.11175	0.000992255	   1.11659	0.000994987	   1.11659	   24.8747	
   1.04061	0.000995943	   1.04718	0.000992861	    1.0366	0.000990622	   1.04146	0.000993142	   1.04146	   24.8286	
  0.965625	0.000993842	  0.972077	0.000990871	  0.961445	0.000988869	  0.966382	0.000991194	  0.966382	   24.7798	
  0.890457	0.000991643	  0.896802	0.000988834	  0.886144	0.000986991	  0.891135	0.000989156	  0.891135	   24.7289	
   0.81535	0.000989382	  0.821598	0.00098677	  0.810936	0.000984989	  0.815961	0.000987047	  0.815961	   24.6762	
  0.740339	0.000987093	  0.746497	0.000984696	  0.735853	0.000982875	  0.740896	0.000984888	  0.740896	   24.6222	
  0.665258	0.000984812	  0.671334	0.00098262	  0.660727	0.00098067	  0.665773	0.000982701	  0.665773	   24.5675	
  0.590152	0.000982561	  0.596154	0.000980547	  0.585601	 0.0009784	  0.590636	0.000980503	  0.590636	   24.5126	
  0.514866	0.000980358	  0.520801	0.000978471	  0.510318	0.000976102	  0.515329	0.00097831	  0.515329	   24.4578	
  0.439645	0.000978203	   0.44552	0.000976379	  0.435122	0.000973799	  0.440096	0.000976127	  0.440096	   24.4032	
  0.364426	0.000976083	  0.369958	0.000974255	  0.359657	0.000971512	   0.36468	0.00097395	   0.36468	   24.3488	
  0.289149	0.000973975	  0.294367	0.000972081	  0.284176	0.000969257	  0.289231	0.000971771	  0.289231	   24.2943	
  0.214049	0.000971849	  0.218694	0.000969836	  0.208336	0.000967038	  0.213693	0.000969574	  0.213693	   24.2394	
  0.138766	0.000969671	  0.143082	0.000967511	  0.132396	0.000964845	  0.138082	0.000967342	  0.138082	   24.1836	
 0.0632586	0.000967406	 0.0675646	0.000965094	 0.0565976	0.000962658	 0.0624736	0.000965053	 0.0624736	   24.1263	
-0.0122261	0.000965032	-0.00792268	0.000962588	-0.0194169	0.000960457	-0.0131885	0.000962692	-0.0131885	   24.0673	
-0.0877483	0.000962533	-0.0834408	0.000960002	-0.0953979	0.000958217	-0.0888623	0.000960251	-0.0888623	   24.0063	
 -0.163074	0.000959908	 -0.158757	0.000957347	 -0.171116	0.000955911	 -0.164316	0.000957722	 -0.164316	   23.9431	
 -0.238566	0.000957168	 -0.233846	0.000954645	 -0.246744	0.00095352	 -0.239719	0.000955111	 -0.239719	   23.8778	
  -0.31398	0.000954335	 -0.308885	0.000951914	 -0.322538	0.000951027	 -0.315134	0.000952425	 -0.315134	   23.8106	
 -0.389283	0.000951438	  -0.38403	0.000949171	 -0.398543	0.000948426	 -0.390619	0.000949678	 -0.390619	    23.742	
 -0.464639	0.000948507	 -0.459237	0.000946424	 -0.474511	0.000945727	 -0.466129	0.000946886	 -0.466129	   23.6722	
 -0.540196	0.000945573	 -0.534271	0.000943682	 -0.550403	0.000942934	 -0.541623	0.000944063	 -0.541623	   23.6016	
 -0.615899	0.000942663	 -0.609491	0.000940943	 -0.626376	0.000940075	 -0.617255	0.000941227	 -0.617255	   23.5307	
 -0.691506	0.000939792	 -0.684653	0.000938201	 -0.702193	0.000937178	 -0.692784	0.00093839	 -0.692784	   23.4598	
 -0.767081	0.000936965	 -0.759819	0.000935441	 -0.777921	0.000934266	 -0.768274	0.000935558	 -0.768274	   23.3889	
 -0.842685	0.000934173	 -0.834855	0.00093265	 -0.853625	0.00093136	 -0.843722	0.000932728	 -0.843722	   23.3182	
 -0.918372	0.000931398	 -0.909736	0.000929809	 -0.929363	0.000928473	 -0.919157	0.000929893	 -0.919157	   23.2473	
 -0.993904	0.000928615	 -0.984531	0.000926902	   -1.0049	0.000925622	 -0.994445	0.000927046	 -0.994445	   23.1762	
  -1.06935	0.000925794	  -1.05931	0.000923921	  -1.08031	0.000922803	  -1.06966	0.000924172	  -1.06966	   23.1043	
  -1.14478	0.000922905	  -1.13442	0.000920861	  -1.15567	   0.00092	  -1.14495	0.000921255	  -1.14495	   23.0314	
  -1.22025	0.000919927	  -1.20961	0.000917721	  -1.23102	0.000917201	  -1.22029	0.000918283	  -1.22029	   22.9571	
  -1.29552	0.000916839	  -1.28463	0.000914508	  -1.30616	0.000914383	  -1.29544	0.000915244	  -1.29544	   22.8811	
  -1.37077	0.000913637	  -1.35967	0.000911231	  -1.38123	0.000911515	  -1.37055	0.000912128	  -1.37055	   22.8032	
  -1.44595	0.000910328	  -1.43467	0.000907897	  -1.45622	0.000908572	  -1.44561	0.000908932	  -1.44561	   22.7233	
  -1.52123	0.000906927	  -1.50941	0.000904525	  -1.53128	0.000905538	  -1.52064	0.000905664	  -1.52064	   22.6416	
  -1.59657	0.000903458	  -1.58427	0.000901136	  -1.60637	0.000902395	  -1.59574	0.00090233	  -1.59574	   22.5582	
  -1.67172	0.000899949	  -1.65919	0.000897744	  -1.68126	0.000899141	  -1.67072	0.000898945	  -1.67072	   22.4736	
  -1.74676	0.000896431	  -1.73432	0.000894365	  -1.75632	0.000895783	   -1.7458	0.000895526	   -1.7458	   22.3882	
  -1.82176	0.000892928	  -1.80943	0.000891007	  -1.83129	0.000892336	  -1.82083	0.00089209	  -1.82083	   22.3023	
  -1.89649	0.000889456	  -1.88428	0.000887669	  -1.90597	0.000888826	  -1.89558	0.00088865	  -1.89558	   22.2163	
  -1.97104	0.000886024	  -1.95923	0.00088434	  -1.98071	0.000885281	  -1.97033	0.000885215	  -1.97033	   22.1304	
  -2.04548	0.000882629	  -2.03407	0.000881004	  -2.05529	0.000881725	  -2.04494	0.000881786	  -2.04494	   22.0447	
  -2.11958	0.000879258	  -2.10855	0.000877642	  -2.13007	0.000878178	   -2.1194	0.000878359	   -2.1194	    21.959	
  -2.19373	0.000875886	  -2.18307	0.000874228	  -2.20479	0.000874656	  -2.19386	0.000874924	  -2.19386	   21.8731	
  -2.26769	0.000872487	  -2.25738	0.000870744	  -2.27925	0.000871163	  -2.26811	0.000871465	  -2.26811	   21.7866	
  -2.34184	0.000869034	  -2.33166	0.000867175	  -2.35361	0.000867689	  -2.34237	0.000867966	  -2.34237	   21.6992	
  -2.41592	 0.0008655	  -2.40589	0.000863508	  -2.42785	0.000864214	  -2.41655	0.000864407	  -2.41655	   21.6102	
  -2.48972	0.000861868	  -2.48021	0.000859745	  -2.50194	0.000860717	  -2.49062	0.000860777	  -2.49062	   21.5194	
  -2.56361	0.000858128	   -2.5546	0.000855894	  -2.57605	0.000857174	  -2.56475	0.000857066	  -2.56475	   21.4266	
  -2.63736	0.000854282	  -2.62881	0.00085197	  -2.64996	0.000853562	  -2.63871	0.000853271	  -2.63871	   21.3318	
  -2.71094	0.000850342	  -2.70282	0.000847998	  -2.72384	0.000849859	  -2.71253	 0.0008494	  -2.71253	    21.235	
  -2.78453	0.000846323	  -2.77681	0.000844013	  -2.79765	0.000846051	  -2.78633	0.000845462	  -2.78633	   21.1366	
   -2.8579	0.000842253	  -2.85056	0.000840032	  -2.87118	0.000842136	  -2.85988	0.000841473	  -2.85988	   21.0368	
  -2.93114	0.000838161	  -2.92415	0.000836068	  -2.94452	0.000838118	  -2.93327	0.000837449	  -2.93327	   20.9362	
  -3.00431	0.000834075	  -2.99765	0.000832139	  -3.01773	0.000834014	  -3.00656	0.000833409	  -3.00656	   20.8352	
   -3.0772	0.000830014	  -3.07113	0.000828239	  -3.09061	0.000829842	  -3.07965	0.000829365	  -3.07965	   20.7341	
  -3.15019	0.000825988	  -3.14465	0.000824358	  -3.16335	0.000825628	  -3.15273	0.000825325	  -3.15273	   20.6331	
  -3.22304	0.000822001	    -3.218	0.000820468	  -3.23592	0.000821401	  -3.22565	0.00082129	  -3.22565	   20.5323	
  -3.29593	0.00081804	  -3.29095	0.000816548	   -3.3085	0.000817181	  -3.29846	0.000817256	  -3.29846	   20.4314	
  -3.36881	0.000814082	   -3.3639	0.000812572	  -3.38107	0.00081298	  -3.37126	0.000813211	  -3.37126	   20.3303	
  -3.44149	0.000810105	  -3.43662	0.000808498	  -3.45339	0.000808801	  -3.44383	0.000809135	  -3.44383	   20.2284	
  -3.51392	0.000806084	   -3.5091	0.000804312	  -3.52566	0.000804648	  -3.51622	0.000805015	  -3.51622	   20.1254	
  -3.58602	0.000801992	  -3.58151	0.000800007	  -3.59784	0.000800501	  -3.58846	0.000800833	  -3.58846	   20.0208	
  -3.65787	0.000797807	  -3.65366	0.000795598	  -3.66973	0.00079634	  -3.66042	0.000796582	  -3.66042	   19.9145	
  -3.72985	0.000793517	   -3.7259	0.000791097	  -3.74171	0.000792149	  -3.73249	0.000792255	  -3.73249	   19.8064	
  -3.80173	0.000789123	  -3.79801	0.000786537	  -3.81353	0.000787913	  -3.80443	0.000787858	  -3.80443	   19.6964	
   -3.8733	0.000784636	  -3.86979	0.000781956	   -3.8853	0.000783619	  -3.87613	0.000783404	  -3.87613	   19.5851	
  -3.94475	0.000780073	  -3.94142	0.000777392	  -3.95688	0.000779253	  -3.94768	0.000778906	  -3.94768	   19.4726	
  -4.01605	0.000775458	  -4.01288	0.000772875	  -4.02827	0.00077481	  -4.01907	0.000774381	  -4.01907	   19.3595	
  -4.08721	0.00077082	  -4.08398	0.000768426	  -4.09945	0.000770287	  -4.09021	0.000769844	  -4.09021	   19.2461	
  -4.15839	0.000766186	   -4.1551	0.000764041	  -4.17061	0.000765688	  -4.16136	0.000765305	  -4.16136	   19.1326	
  -4.22937	0.000761569	  -4.22602	0.000759714	  -4.24154	0.000761016	  -4.23231	0.000760766	  -4.23231	   19.0192	
  -4.30034	0.000756983	  -4.29673	0.000755422	  -4.31202	0.000756277	  -4.30303	0.000756227	  -4.30303	   18.9057	
  -4.37128	0.000752432	  -4.36741	0.000751131	  -4.38247	0.000751484	  -4.37372	0.000751682	  -4.37372	   18.7921	
  -4.44197	0.000747904	  -4.43787	0.000746807	  -4.45286	0.000746653	  -4.44423	0.000747122	  -4.44423	    18.678	
  -4.51251	0.000743387	  -4.50817	0.000742402	  -4.52278	0.000741803	  -4.51449	0.000742531	  -4.51449	   18.5633	
  -4.58297	0.000738857	  -4.57841	0.000737888	  -4.59245	0.000736947	  -4.58461	0.000737897	  -4.58461	   18.4474	
  -4.65314	0.000734291	  -4.64838	0.000733237	  -4.66186	0.000732103	  -4.65446	0.00073321	  -4.65446	   18.3303	
  -4.72303	0.000729666	  -4.71808	0.000728436	  -4.73082	0.00072728	  -4.72398	0.000728461	  -4.72398	   18.2115	
  -4.79283	0.000724962	   -4.7877	0.00072349	  -4.79972	0.000722483	  -4.79342	0.000723645	  -4.79342	   18.0911	
  -4.86234	0.000720169	  -4.85703	0.000718414	  -4.86838	0.00071771	  -4.86258	0.000718764	  -4.86258	   17.9691	
  -4.93193	0.000715285	  -4.92617	0.000713241	  -4.93687	0.000712954	  -4.93166	0.000713827	  -4.93166	   17.8457	
   -5.0014	0.000710316	  -4.99522	0.000708011	   -5.0053	 0.0007082	  -5.00064	0.000708842	  -5.00064	   17.7211	
  -5.07053	0.000705276	  -5.06396	0.000702764	  -5.07347	0.000703432	  -5.06932	0.000703824	  -5.06932	   17.5956	
  -5.13944	0.000700184	  -5.13251	0.000697539	  -5.14146	0.000698634	   -5.1378	0.000698785	   -5.1378	   17.4696	
  -5.20821	0.000695061	  -5.20096	0.000692365	  -5.20937	0.000693783	  -5.20618	0.000693736	  -5.20618	   17.3434	
  -5.27666	0.000689932	   -5.2691	0.000687264	  -5.27702	0.00068887	  -5.27426	0.000688689	  -5.27426	   17.2172	
  -5.34478	0.000684814	  -5.33695	0.000682243	  -5.34439	0.00068389	  -5.34204	0.000683649	  -5.34204	   17.0912	
  -5.41277	0.000679718	   -5.4047	0.000677295	  -5.41168	0.000678843	  -5.40972	0.000678619	  -5.40972	   16.9655	
  -5.48045	0.000674647	  -5.47215	0.000672399	  -5.47871	0.000673723	   -5.4771	0.00067359	   -5.4771	   16.8397	
  -5.54762	0.000669601	  -5.53912	0.000667521	  -5.54528	0.000668538	  -5.54401	0.000668553	  -5.54401	   16.7138	
  -5.61469	0.000664568	  -5.60583	0.000662627	  -5.61181	 0.0006633	  -5.61078	0.000663498	  -5.61078	   16.5875	
  -5.68148	0.000659531	  -5.67228	0.000657677	  -5.67809	0.000658022	  -5.67728	0.00065841	  -5.67728	   16.4602	
   -5.7478	0.000654472	   -5.7383	0.000652632	  -5.74423	0.000652719	  -5.74344	0.000653274	  -5.74344	   16.3319	
  -5.81386	0.000649372	  -5.80409	0.000647472	  -5.81033	0.000647404	  -5.80943	0.000648083	  -5.80943	   16.2021	
  -5.87968	0.000644216	  -5.86968	0.000642191	  -5.87618	0.000642093	  -5.87518	0.000642833	  -5.87518	   16.0708	
  -5.94527	0.000638987	  -5.93487	0.000636784	   -5.9418	0.000636784	  -5.94065	0.000637519	  -5.94065	    15.938	
  -6.01083	0.000633678	  -6.00007	0.000631276	  -6.00739	0.000631478	  -6.00609	0.000632144	  -6.00609	   15.8036	
  -6.07616	0.00062829	  -6.06508	 0.0006257	  -6.07275	0.00062617	  -6.07133	0.00062672	  -6.07133	    15.668	
  -6.14107	0.000622826	  -6.12973	0.000620087	   -6.1377	0.000620853	  -6.13617	0.000621255	  -6.13617	   15.5314	
   -6.2058	 0.0006173	  -6.19421	0.000614475	  -6.20246	0.00061553	  -6.20082	0.000615768	  -6.20082	   15.3942	
  -6.27034	0.000611734	  -6.25855	0.000608898	  -6.26704	0.00061018	  -6.26531	0.000610271	  -6.26531	   15.2568	
  -6.33451	0.000606146	  -6.32255	0.000603386	  -6.33124	0.000604794	  -6.32943	0.000604775	  -6.32943	   15.1194	
  -6.39844	0.000600557	  -6.38633	0.000597946	   -6.3952	0.000599372	  -6.39332	0.000599292	  -6.39332	   14.9823	
  -6.46223	0.000594985	  -6.45001	0.000592571	  -6.45903	0.000593903	  -6.45709	0.000593819	  -6.45709	   14.8455	
   -6.5257	0.000589437	   -6.5134	0.000587254	  -6.52282	0.000588379	  -6.52064	0.000588356	  -6.52064	   14.7089	
  -6.58869	0.000583913	  -6.57632	0.000581958	   -6.5861	 0.0005828	  -6.58371	0.00058289	  -6.58371	   14.5723	
  -6.65142	0.000578404	  -6.63901	0.000576646	   -6.6491	0.00057717	  -6.64651	0.000577407	  -6.64651	   14.4352	
  -6.71391	0.000572898	  -6.70149	0.000571286	  -6.71185	0.000571501	  -6.70908	0.000571895	  -6.70908	   14.2974	
    -6.776	0.000567369	  -6.76376	0.000565841	  -6.77435	0.00056579	  -6.77137	0.000566333	  -6.77137	   14.1583	
   -6.8378	0.00056179	  -6.82576	0.000560286	  -6.83654	0.000560052	  -6.83337	0.000560709	  -6.83337	   14.0177	
  -6.89945	0.000556138	  -6.88761	0.000554606	  -6.89854	0.000554298	   -6.8952	0.000555014	   -6.8952	   13.8753	
  -6.96076	0.000550398	  -6.94912	0.000548807	  -6.96017	0.000548533	  -6.95669	0.000549246	  -6.95669	   13.7312	
  -7.02177	0.000544564	  -7.01033	0.000542907	  -7.02147	0.000542775	  -7.01786	0.000543416	  -7.01786	   13.5854	
   -7.0827	0.000538631	  -7.07146	0.00053693	  -7.08266	0.00053703	  -7.07894	0.00053753	  -7.07894	   13.4383	
  -7.14337	0.00053262	  -7.13232	0.000530915	  -7.14356	0.00053131	  -7.13975	0.000531615	  -7.13975	   13.2904	
  -7.20361	0.00052656	  -7.19276	0.000524895	    -7.204	0.000525612	  -7.20012	0.000525689	  -7.20012	   13.1422	
  -7.26385	0.000520475	   -7.2529	0.000518902	  -7.26442	0.000519929	  -7.26039	0.000519768	  -7.26039	   12.9942	
   -7.3239	 0.0005144	  -7.31288	0.000512957	  -7.32463	0.000514252	  -7.32047	0.00051387	  -7.32047	   12.8467	
   -7.3836	0.000508372	  -7.37252	0.000507071	  -7.38446	0.000508561	  -7.38019	0.000508001	  -7.38019	      12.7	
  -7.44279	0.000502409	  -7.43168	0.000501241	  -7.44396	0.000502847	  -7.43947	0.000502166	  -7.43947	   12.5541	
  -7.50162	0.000496515	  -7.49077	0.000495455	  -7.50334	0.000497096	  -7.49858	0.000496355	  -7.49858	   12.4089	
  -7.56022	0.000490688	  -7.54964	0.000489688	  -7.56245	0.000491291	  -7.55744	0.000490556	  -7.55744	   12.2639	
  -7.61844	0.000484916	  -7.60811	0.000483911	  -7.62112	0.000485426	  -7.61589	0.000484751	  -7.61589	   12.1188	
   -7.6765	0.00047916	  -7.66623	0.00047809	  -7.67939	0.000479502	  -7.67404	0.000478918	  -7.67404	   11.9729	
  -7.73445	0.000473384	  -7.72424	0.000472203	   -7.7375	0.000473526	  -7.73206	0.000473038	  -7.73206	   11.8259	
   -7.7921	0.000467558	  -7.78196	0.000466227	  -7.79549	0.000467499	  -7.78985	0.000467095	  -7.78985	   11.6774	
  -7.84931	0.000461645	  -7.83925	0.000460153	  -7.85356	0.000461436	  -7.84737	0.000461078	  -7.84737	    11.527	
  -7.90594	0.000455626	  -7.89595	0.000453983	  -7.91154	0.000455354	  -7.90448	0.000454988	  -7.90448	   11.3747	
  -7.96243	0.000449489	  -7.95253	0.000447735	  -7.96925	0.000449266	   -7.9614	0.00044883	   -7.9614	   11.2208	
  -8.01862	0.000443234	  -8.00881	0.000441431	  -8.02653	0.000443176	  -8.01799	0.000442614	  -8.01799	   11.0653	
  -8.07437	0.000436872	  -8.06464	0.000435099	  -8.08364	0.000437087	  -8.07422	0.000436353	  -8.07422	   10.9088	
  -8.12953	0.000430429	  -8.12019	0.000428769	  -8.14002	0.00043099	  -8.12991	0.000430063	  -8.12991	   10.7516	
  -8.18456	0.000423941	  -8.17558	0.000422467	  -8.19575	0.000424882	   -8.1853	0.000423764	   -8.1853	   10.5941	
  -8.23931	0.000417436	  -8.23067	0.000416212	   -8.2511	0.00041876	  -8.24036	0.000417469	  -8.24036	   10.4367	
  -8.29362	0.000410945	   -8.2853	0.000410014	  -8.30612	0.000412612	  -8.29501	0.00041119	  -8.29501	   10.2798	
  -8.34737	0.000404499	  -8.33964	0.00040387	  -8.36047	0.000406434	  -8.34916	0.000404934	  -8.34916	   10.1234	
  -8.40102	0.000398115	  -8.39383	0.000397768	  -8.41405	0.000400241	  -8.40296	0.000398708	  -8.40296	    9.9677	
   -8.4544	0.000391796	  -8.44772	0.000391685	  -8.46703	0.000394027	  -8.45638	0.000392503	  -8.45638	   9.81258	
  -8.50737	0.00038554	  -8.50116	0.000385598	  -8.51958	0.000387782	  -8.50937	0.000386307	  -8.50937	   9.65766	
  -8.55981	0.000379327	  -8.55403	0.000379481	  -8.57198	0.000381528	  -8.56194	0.000380112	  -8.56194	    9.5028	
  -8.61189	0.000373129	   -8.6065	0.00037331	  -8.62397	0.000375269	  -8.61412	0.000373903	  -8.61412	   9.34757	
  -8.66375	0.000366921	  -8.65872	0.000367074	  -8.67551	0.000368988	    -8.666	0.000367661	    -8.666	   9.19152	
  -8.71527	0.000360677	  -8.71057	0.000360764	  -8.72698	0.000362686	   -8.7176	0.000361376	   -8.7176	   9.03439	
   -8.7663	0.000354373	   -8.7619	0.000354381	   -8.7785	0.000356369	   -8.7689	0.000355041	   -8.7689	   8.87603	
  -8.81703	0.000347993	  -8.81289	0.000347939	  -8.82963	0.000350025	  -8.81985	0.000348652	  -8.81985	   8.71631	
   -8.8676	0.000341534	   -8.8637	0.000341457	  -8.88014	0.000343631	  -8.87048	0.000342207	  -8.87048	   8.55518	
  -8.91787	0.000334996	  -8.91418	0.000334955	   -8.9306	0.000337195	  -8.92089	0.000335715	  -8.92089	   8.39288	
  -8.96772	0.000328431	  -8.96422	0.000328459	  -8.98096	0.000330722	  -8.97096	0.000329204	  -8.97096	    8.2301	
  -9.01759	0.000321864	  -9.01426	0.000321988	  -9.03039	0.000324199	  -9.02075	0.000322683	  -9.02075	   8.06709	
  -9.06734	0.000315316	  -9.06415	0.000315555	  -9.07882	0.000317646	  -9.07011	0.000316172	  -9.07011	   7.90431	
  -9.11683	0.000308805	  -9.11356	0.000309167	  -9.12743	0.000311087	  -9.11927	0.000309686	  -9.11927	   7.74215	
  -9.16591	0.000302345	  -9.16257	0.000302821	  -9.17625	0.000304523	  -9.16825	0.00030323	  -9.16825	   7.58074	
  -9.21449	0.000295943	  -9.21107	0.000296507	  -9.22415	0.000297966	  -9.21657	0.000296805	  -9.21657	   7.42013	
  -9.26244	0.00028957	  -9.25922	0.000290205	  -9.27144	0.000291436	  -9.26436	0.000290404	  -9.26436	   7.26009	
  -9.30985	0.000283211	   -9.3072	0.000283896	  -9.31937	0.000284939	  -9.31214	0.000284015	  -9.31214	   7.10038	
  -9.35615	0.000276849	  -9.35488	0.000277557	  -9.36726	0.000278467	  -9.35943	0.000277624	  -9.35943	   6.94061	
  -9.40119	0.000270449	  -9.40213	0.000271166	  -9.41429	0.000272022	  -9.40587	0.000271213	  -9.40587	   6.78031	
   -9.4456	0.000263992	  -9.44884	0.000264711	  -9.46107	0.000265594	  -9.45184	0.000264766	  -9.45184	   6.61914	
  -9.49015	0.000257459	   -9.4953	0.000258187	  -9.50814	0.000259157	  -9.49786	0.000258267	  -9.49786	   6.45668	
  -9.53384	0.000250839	  -9.54158	0.000251597	  -9.55466	 0.0002527	  -9.54336	0.000251712	  -9.54336	    6.2928	
  -9.57631	0.000244141	  -9.58754	0.000244955	  -9.60025	0.000246217	  -9.58803	0.000245104	  -9.58803	   6.12761	
  -9.61887	0.000237395	  -9.63308	0.000238283	   -9.6454	0.000239689	  -9.63245	0.000238456	  -9.63245	   5.96139	
  -9.66263	0.00023064	  -9.67809	0.000231604	  -9.69061	0.000233114	  -9.67711	0.000231786	  -9.67711	   5.79465	
  -9.70651	0.000223902	  -9.72266	0.000224943	  -9.73534	0.000226498	   -9.7215	0.000225115	   -9.7215	   5.62787	
   -9.7492	0.000217225	  -9.76707	0.000218322	   -9.7793	0.000219846	  -9.76519	0.000218464	  -9.76519	    5.4616	
  -9.79182	0.000210656	  -9.81121	0.000211752	  -9.82279	0.000213164	  -9.80861	0.000211857	  -9.80861	   5.29644	
   -9.8354	0.000204207	  -9.85495	0.000205242	  -9.86621	0.000206469	  -9.85218	0.000205306	  -9.85218	   5.13265	
  -9.87915	0.00019788	   -9.8982	0.000198787	  -9.90913	0.000199778	  -9.89549	0.000198815	  -9.89549	   4.97037	
  -9.92235	0.000191665	  -9.94114	0.000192371	  -9.95147	0.000193097	  -9.93832	0.000192378	  -9.93832	   4.80944	
  -9.96568	0.000185531	  -9.98397	0.000185974	  -9.99353	0.000186439	  -9.98106	0.000185981	  -9.98106	   4.64953	
  -10.0094	0.000179434	  -10.0266	0.000179571	  -10.0354	0.000179811	  -10.0238	0.000179605	  -10.0238	   4.49013	
  -10.0527	0.000173324	  -10.0688	0.000173139	  -10.0769	0.000173209	  -10.0661	0.000173224	  -10.0661	    4.3306	
   -10.095	0.000167155	  -10.1106	0.000166654	  -10.1181	0.000166628	  -10.1079	0.000166812	  -10.1079	   4.17031	
  -10.1368	0.000160883	  -10.1518	0.000160108	  -10.1587	0.000160065	  -10.1491	0.000160352	  -10.1491	    4.0088	
  -10.1785	0.000154485	  -10.1924	0.000153504	  -10.1991	0.000153506	    -10.19	0.000153832	    -10.19	   3.84579	
  -10.2201	0.000147956	  -10.2326	0.000146841	  -10.2388	0.000146934	  -10.2305	0.000147244	  -10.2305	   3.68109	
  -10.2608	0.000141303	  -10.2725	0.000140129	   -10.278	0.000140342	  -10.2704	0.000140591	  -10.2704	   3.51478	
  -10.3012	0.000134554	  -10.3122	 0.0001334	  -10.3169	0.000133723	  -10.3101	0.000133892	  -10.3101	    3.3473	
  -10.3412	0.000127754	  -10.3514	0.000126675	  -10.3554	0.000127064	  -10.3493	0.000127164	  -10.3493	    3.1791	
  -10.3804	0.000120947	  -10.3901	0.000119964	  -10.3934	0.000120369	   -10.388	0.000120427	   -10.388	   3.01066	
  -10.4188	0.000114181	  -10.4283	0.00011329	   -10.431	0.000113639	   -10.426	0.000113704	   -10.426	   2.84259	
  -10.4569	0.000107498	  -10.4658	0.000106667	  -10.4685	0.000106881	  -10.4637	0.000107015	  -10.4637	   2.67538	
  -10.4948	0.000100921	  -10.5029	0.000100089	  -10.5057	0.000100107	  -10.5011	0.000100372	  -10.5011	   2.50931	
  -10.5322	9.44553e-05	  -10.5395	9.35468e-05	  -10.5423	9.33284e-05	   -10.538	9.37768e-05	   -10.538	   2.34442	
  -10.5687	8.80962e-05	  -10.5758	8.70332e-05	  -10.5787	8.65609e-05	  -10.5744	8.72301e-05	  -10.5744	   2.18075	
  -10.6047	8.18248e-05	  -10.6118	8.05313e-05	  -10.6147	7.98132e-05	  -10.6104	8.07231e-05	  -10.6104	   2.01808	
  -10.6405	7.55999e-05	  -10.6473	7.40161e-05	  -10.6502	7.30954e-05	   -10.646	7.42371e-05	   -10.646	   1.85593	
   -10.676	6.9378e-05	  -10.6822	6.74824e-05	  -10.6851	6.64128e-05	  -10.6811	6.77577e-05	  -10.6811	   1.69394	
  -10.7108	6.31208e-05	  -10.7165	6.09183e-05	  -10.7195	5.97612e-05	  -10.7156	6.12668e-05	  -10.7156	   1.53167	
  -10.7452	5.67916e-05	  -10.7504	 5.431e-05	  -10.7534	5.31387e-05	  -10.7496	5.47467e-05	  -10.7496	   1.36867	
  -10.7794	5.03656e-05	  -10.7835	4.76605e-05	  -10.7868	4.65361e-05	  -10.7832	4.81874e-05	  -10.7832	   1.20469	
  -10.8134	4.38393e-05	  -10.8164	4.09773e-05	  -10.8199	3.99414e-05	  -10.8166	4.1586e-05	  -10.8166	   1.03965	
  -10.8465	3.72207e-05	  -10.8491	3.42686e-05	  -10.8526	3.33427e-05	  -10.8494	3.4944e-05	  -10.8494	    0.8736	
  -10.8792	3.05275e-05	  -10.8813	2.75472e-05	   -10.885	2.67295e-05	  -10.8818	2.82681e-05	  -10.8818	  0.706702	
  -10.9114	2.37933e-05	  -10.9132	2.08306e-05	  -10.9169	2.00917e-05	  -10.9138	2.15719e-05	  -10.9138	  0.539297	
  -10.9432	1.7054e-05	  -10.9445	1.41332e-05	  -10.9483	1.34215e-05	  -10.9454	1.48696e-05	  -10.9454	  0.371739	
  -10.9744	1.03393e-05	  -10.9753	7.46069e-06	  -10.9792	6.72331e-06	  -10.9763	8.17444e-06	  -10.9763	  0.204361	
   -11.005	3.67704e-06	  -11.0055	8.21851e-07	  -11.0095	1.22302e-09	  -11.0067	1.50004e-06	  -11.0067	 0.0375009	
  -11.0351	-2.91083e-06	  -11.0353	-5.78339e-06	  -11.0393	-6.74071e-06	  -11.0366	-5.14497e-06	  -11.0366	 -0.128624	
  -11.0648	-9.42029e-06	  -11.0646	-1.23636e-05	   -11.069	-1.34909e-05	  -11.0661	-1.17583e-05	  -11.0661	 -0.293956	
  -11.0941	-1.58636e-05	  -11.0934	-1.89251e-05	  -11.0982	-2.02421e-05	  -11.0952	-1.83436e-05	  -11.0952	  -0.45859	
  -11.1229	-2.22619e-05	  -11.1219	-2.54782e-05	  -11.1272	-2.69871e-05	   -11.124	-2.49091e-05	   -11.124	 -0.622727	
  -11.1513	-2.86467e-05	  -11.1501	-3.20363e-05	  -11.1557	-3.37186e-05	  -11.1524	-3.14672e-05	  -11.1524	  -0.78668	
  -11.1795	-3.50557e-05	   -11.178	-3.86091e-05	  -11.1838	-4.04336e-05	  -11.1804	-3.80328e-05	  -11.1804	 -0.950819	
  -11.2071	-4.15174e-05	  -11.2055	-4.52014e-05	  -11.2114	-4.71384e-05	   -11.208	-4.46191e-05	   -11.208	  -1.11548	
  -11.2344	-4.80528e-05	  -11.2325	-5.18159e-05	  -11.2386	-5.38636e-05	  -11.2351	-5.12441e-05	  -11.2351	   -1.2811	
  -11.2611	-5.46711e-05	  -11.2589	-5.84553e-05	  -11.2652	-6.0591e-05	  -11.2617	-5.79058e-05	  -11.2617	  -1.44765	
  -11.2872	-6.13696e-05	  -11.2849	-6.51142e-05	  -11.2913	-6.73055e-05	  -11.2878	-6.45964e-05	  -11.2878	  -1.61491	
  -11.3127	-6.8128e-05	  -11.3102	-7.17836e-05	  -11.3167	-7.40181e-05	  -11.3132	-7.13099e-05	  -11.3132	  -1.78275	
  -11.3378	-7.49215e-05	  -11.3349	-7.84534e-05	  -11.3417	-8.0711e-05	  -11.3382	-7.80287e-05	  -11.3382	  -1.95072	
  -11.3626	-8.17161e-05	  -11.3595	-8.51137e-05	   -11.366	-8.73726e-05	  -11.3627	-8.47341e-05	  -11.3627	  -2.11835	
   -11.387	-8.8477e-05	  -11.3838	-9.17557e-05	  -11.3898	-9.39604e-05	  -11.3869	-9.13977e-05	  -11.3869	  -2.28494	
  -11.4109	-9.51763e-05	  -11.4074	-9.83727e-05	  -11.4132	-0.000100468	  -11.4105	-9.80057e-05	  -11.4105	  -2.45014	
  -11.4346	-0.000101794	  -11.4307	-0.00010496	  -11.4364	-0.000106898	  -11.4339	-0.000104551	  -11.4339	  -2.61377	
   -11.458	-0.000108319	  -11.4538	-0.000111518	  -11.4593	-0.000113258	   -11.457	-0.000111032	   -11.457	   -2.7758	
  -11.4811	-0.000114758	  -11.4765	-0.00011805	  -11.4819	-0.000119571	  -11.4798	-0.00011746	  -11.4798	  -2.93649	
  -11.5038	-0.000121132	   -11.499	-0.000124563	  -11.5042	-0.000125854	  -11.5023	-0.000123849	  -11.5023	  -3.09624	
  -11.5261	-0.000127466	   -11.521	-0.000131065	   -11.526	-0.000132132	  -11.5244	-0.000130221	  -11.5244	  -3.25553	
   -11.548	-0.000133795	  -11.5426	-0.000137566	  -11.5475	-0.000138454	   -11.546	-0.000136605	   -11.546	  -3.41512	
  -11.5693	-0.000140152	  -11.5637	-0.00014407	  -11.5685	-0.000144853	  -11.5672	-0.000143025	  -11.5672	  -3.57563	
  -11.5902	-0.000146563	  -11.5843	-0.000150584	   -11.589	-0.000151354	  -11.5879	-0.000149501	  -11.5879	  -3.73752	
  -11.6105	-0.000153053	  -11.6045	-0.000157114	   -11.609	-0.000157974	   -11.608	-0.000156047	   -11.608	  -3.90117	
  -11.6303	-0.000159623	   -11.624	-0.000163655	  -11.6285	-0.0001647	  -11.6276	-0.000162659	  -11.6276	  -4.06648	
  -11.6495	-0.000166269	  -11.6431	-0.000170203	  -11.6474	-0.000171522	  -11.6467	-0.000169331	  -11.6467	  -4.23328	
  -11.6682	-0.000172969	  -11.6615	-0.000176753	  -11.6658	-0.000178413	  -11.6652	-0.000176045	  -11.6652	  -4.40113	
  -11.6862	-0.00017969	  -11.6794	-0.000183297	  -11.6836	-0.000185335	  -11.6831	-0.000182774	  -11.6831	  -4.56935	
  -11.7036	-0.000186406	  -11.6967	-0.000189826	  -11.7008	-0.00019223	  -11.7004	-0.000189487	  -11.7004	  -4.73718	
  -11.7204	-0.000193078	  -11.7134	-0.000196331	  -11.7174	-0.000199054	  -11.7171	-0.000196154	  -11.7171	  -4.90386	
  -11.7366	-0.000199681	  -11.7295	-0.00020281	  -11.7337	-0.000205781	  -11.7333	-0.000202757	  -11.7333	  -5.06893	
  -11.7522	-0.000206197	  -11.7449	-0.000209258	  -11.7494	-0.00021238	  -11.7489	-0.000209278	  -11.7489	  -5.23196	
  -11.7672	-0.000212619	  -11.7598	-0.000215679	  -11.7645	-0.000218833	  -11.7638	-0.000215711	  -11.7638	  -5.39276	
  -11.7816	-0.000218955	  -11.7741	-0.000222078	  -11.7791	-0.000225148	  -11.7782	-0.00022206	  -11.7782	  -5.55151	
  -11.7956	-0.00022522	  -11.7878	-0.000228459	  -11.7931	-0.000231346	  -11.7922	-0.000228342	  -11.7922	  -5.70855	
   -11.809	-0.000231441	  -11.8008	-0.000234826	  -11.8069	-0.000237461	  -11.8056	-0.000234576	  -11.8056	   -5.8644	
  -11.8218	-0.000237648	  -11.8133	-0.000241189	  -11.8203	-0.000243536	  -11.8185	-0.000240791	  -11.8185	  -6.01977	
   -11.834	-0.000243873	  -11.8253	-0.000247548	  -11.8332	-0.000249621	  -11.8308	-0.000247014	  -11.8308	  -6.17535	
  -11.8456	-0.000250146	  -11.8366	-0.00025389	  -11.8458	-0.000255752	  -11.8426	-0.000253263	  -11.8426	  -6.33157	
  -11.8566	-0.000256484	  -11.8474	-0.000260225	  -11.8578	-0.000261959	  -11.8539	-0.000259556	  -11.8539	   -6.4889	
   -11.867	-0.000262894	  -11.8579	-0.000266553	  -11.8695	-0.000268262	  -11.8648	-0.000265903	  -11.8648	  -6.64758	
  -11.8769	-0.000269373	  -11.8679	-0.000272877	  -11.8805	-0.000274665	  -11.8751	-0.000272305	  -11.8751	  -6.80762	
  -11.8864	-0.000275907	  -11.8775	-0.000279197	  -11.8911	-0.000281146	   -11.885	-0.00027875	   -11.885	  -6.96875	
  -11.8953	-0.000282476	  -11.8865	-0.000285515	  -11.9013	-0.000287684	  -11.8944	-0.000285225	  -11.8944	  -7.13062	
  -11.9037	-0.000289051	  -11.8952	-0.000291844	  -11.9108	-0.000294246	  -11.9033	-0.000291713	  -11.9033	  -7.29283	
  -11.9116	-0.000295597	  -11.9037	-0.000298183	    -11.92	-0.000300793	  -11.9118	-0.000298191	  -11.9118	  -7.45478	
  -11.9192	-0.000302079	  -11.9116	-0.000304539	  -11.9287	-0.00030729	  -11.9199	-0.000304636	  -11.9199	   -7.6159	
  -11.9266	-0.000308472	   -11.919	-0.000310914	  -11.9368	-0.000313704	  -11.9275	-0.00031103	  -11.9275	  -7.77575	
  -11.9335	-0.000314761	  -11.9259	-0.000317297	  -11.9443	-0.000320015	  -11.9346	-0.000317358	  -11.9346	  -7.93394	
  -11.9399	-0.000320941	  -11.9323	-0.000323682	  -11.9513	-0.000326215	  -11.9411	-0.000323613	  -11.9411	  -8.09032	
  -11.9458	-0.000327022	  -11.9382	-0.000330057	  -11.9578	-0.000332318	  -11.9473	-0.000329799	  -11.9473	  -8.24497	
  -11.9512	-0.00033303	  -11.9437	-0.000336401	  -11.9639	-0.000338341	  -11.9529	-0.000335924	  -11.9529	   -8.3981	
  -11.9563	-0.000338998	  -11.9488	-0.000342696	  -11.9694	-0.000344311	  -11.9581	-0.000342002	  -11.9581	  -8.55005	
  -11.9609	-0.000344963	  -11.9536	-0.000348924	  -11.9744	-0.000350267	   -11.963	-0.000348051	   -11.963	  -8.70128	
  -11.9651	-0.000350956	  -11.9581	-0.00035507	  -11.9789	-0.000356241	  -11.9673	-0.000354089	  -11.9673	  -8.85222	
   -11.969	-0.000357008	  -11.9621	-0.000361129	   -11.983	-0.000362263	  -11.9713	-0.000360133	  -11.9713	  -9.00332	
  -11.9724	-0.000363138	  -11.9657	-0.000367104	  -11.9866	-0.000368351	  -11.9749	-0.000366197	  -11.9749	  -9.15494	
  -11.9756	-0.000369352	  -11.9691	-0.00037301	  -11.9898	-0.000374517	  -11.9782	-0.000372293	  -11.9782	  -9.30732	
  -11.9784	-0.000375642	   -11.972	-0.000378866	  -11.9927	-0.000380759	   -11.981	-0.000378422	   -11.981	  -9.46056	
  -11.9809	-0.000381987	  -11.9747	-0.000384706	  -11.9952	-0.000387056	  -11.9836	-0.000384583	  -11.9836	  -9.61457	
  -11.9831	-0.000388346	   -11.977	-0.000390561	  -11.9973	-0.000393381	  -11.9858	-0.000390762	  -11.9858	  -9.76906	
  -11.9851	-0.000394682	  -11.9791	-0.00039646	  -11.9992	-0.000399703	  -11.9878	-0.000396948	  -11.9878	  -9.92371	
  -11.9867	-0.000400963	  -11.9809	-0.000402426	  -12.0004	-0.000405983	  -11.9893	-0.000403124	  -11.9893	  -10.0781	
  -11.9882	-0.00040716	  -11.9824	-0.000408468	  -12.0014	-0.000412196	  -11.9907	-0.000409275	  -11.9907	  -10.2319	
  -11.9891	-0.000413245	  -11.9837	-0.000414587	  -12.0021	-0.000418317	  -11.9916	-0.000415383	  -11.9916	  -10.3846	
  -11.9898	-0.000419212	  -11.9847	-0.000420774	  -12.0023	-0.000424336	  -11.9923	-0.000421441	  -11.9923	   -10.536	
    -11.99	-0.000425078	  -11.9854	-0.000427002	  -12.0022	-0.000430253	  -11.9925	-0.000427444	  -11.9925	  -10.6861	
  -11.9897	-0.000430869	  -11.9856	-0.000433237	  -12.0016	-0.000436081	  -11.9923	-0.000433396	  -11.9923	  -10.8349	
  -11.9889	-0.000436615	  -11.9853	-0.000439441	  -12.0005	-0.000441846	  -11.9916	-0.0004393	  -11.9916	  -10.9825	
  -11.9875	-0.000442353	  -11.9848	-0.00044558	  -11.9987	-0.000447574	  -11.9904	-0.000445169	  -11.9904	  -11.1292	
  -11.9856	-0.000448128	  -11.9837	-0.000451628	  -11.9963	-0.000453297	  -11.9885	-0.000451018	  -11.9885	  -11.2754	
  -11.9831	-0.000453958	   -11.982	-0.000457562	  -11.9934	-0.000459046	  -11.9862	-0.000456856	  -11.9862	  -11.4214	
  -11.9801	-0.000459855	  -11.9797	-0.000463382	    -11.99	-0.00046484	  -11.9833	-0.000462693	  -11.9833	  -11.5673	
  -11.9766	-0.000465816	  -11.9769	-0.000469096	  -11.9862	-0.000470693	  -11.9799	-0.000468535	  -11.9799	  -11.7134	
  -11.9728	-0.000471813	  -11.9736	-0.000474726	   -11.982	-0.000476606	  -11.9761	-0.000474382	  -11.9761	  -11.8595	
  -11.9686	-0.000477814	  -11.9697	-0.000480304	  -11.9774	-0.000482565	  -11.9719	-0.000480228	  -11.9719	  -12.0057	
  -11.9642	-0.000483783	  -11.9654	-0.000485862	  -11.9725	-0.000488563	  -11.9673	-0.000486069	  -11.9673	  -12.1517	
  -11.9594	-0.000489686	  -11.9607	-0.000491435	  -11.9673	-0.000494583	  -11.9625	-0.000491901	  -11.9625	  -12.2975	
  -11.9538	-0.000495501	  -11.9556	-0.000497051	  -11.9619	-0.000500591	  -11.9571	-0.000497714	  -11.9571	  -12.4429	
  -11.9479	-0.000501206	  -11.9496	-0.000502728	  -11.9561	-0.000506545	  -11.9512	-0.000503493	  -11.9512	  -12.5873	
  -11.9416	-0.000506807	  -11.9429	-0.000508474	  -11.9496	-0.000512421	  -11.9447	-0.000509234	  -11.9447	  -12.7309	
  -11.9349	-0.00051232	  -11.9358	-0.000514279	  -11.9428	-0.000518199	  -11.9378	-0.000514932	  -11.9378	  -12.8733	
  -11.9275	-0.00051777	  -11.9281	-0.000520122	  -11.9354	-0.000523859	  -11.9303	-0.000520584	  -11.9303	  -13.0146	
  -11.9197	-0.0005232	  -11.9199	-0.000525976	  -11.9274	-0.0005294	  -11.9223	-0.000526192	  -11.9223	  -13.1548	
  -11.9114	-0.00052865	  -11.9113	-0.000531805	   -11.919	-0.000534837	  -11.9139	-0.000531764	  -11.9139	  -13.2941	
  -11.9027	-0.000534152	  -11.9023	-0.000537578	  -11.9102	-0.000540187	   -11.905	-0.000537306	   -11.905	  -13.4326	
  -11.8936	-0.000539728	  -11.8929	-0.000543262	   -11.901	-0.000545477	  -11.8958	-0.000542822	  -11.8958	  -13.5706	
  -11.8843	-0.000545385	  -11.8833	-0.000548837	  -11.8915	-0.00055074	  -11.8864	-0.00054832	  -11.8864	   -13.708	
  -11.8746	-0.000551121	  -11.8733	-0.000554295	  -11.8818	-0.000556003	  -11.8766	-0.000553806	  -11.8766	  -13.8452	
  -11.8642	-0.000556912	  -11.8628	-0.000559637	  -11.8716	-0.000561291	  -11.8662	-0.00055928	  -11.8662	   -13.982	
  -11.8531	-0.00056273	  -11.8516	-0.000564879	  -11.8607	-0.000566627	  -11.8551	-0.000564745	  -11.8551	  -14.1186	
  -11.8414	-0.000568532	  -11.8399	-0.000570047	  -11.8492	-0.00057203	  -11.8435	-0.000570203	  -11.8435	  -14.2551	
  -11.8292	-0.000574278	  -11.8277	-0.000575166	  -11.8371	-0.000577497	  -11.8314	-0.000575647	  -11.8314	  -14.3912	
  -11.8166	-0.000579933	  -11.8151	-0.000580252	  -11.8246	-0.000583015	  -11.8188	-0.000581067	  -11.8188	  -14.5267	
  -11.8037	-0.00058547	  -11.8021	-0.000585339	  -11.8118	-0.000588569	  -11.8059	-0.000586459	  -11.8059	  -14.6615	
  -11.7903	-0.000590874	  -11.7885	-0.000590462	  -11.7986	-0.000594129	  -11.7925	-0.000591822	  -11.7925	  -14.7955	
  -11.7764	-0.000596149	  -11.7746	-0.000595636	  -11.7846	-0.000599664	  -11.7785	-0.00059715	  -11.7785	  -14.9287	
  -11.7618	-0.000601311	  -11.7599	-0.000600868	  -11.7701	-0.000605145	   -11.764	-0.000602441	   -11.764	   -15.061	
  -11.7467	-0.000606387	  -11.7447	-0.000606152	  -11.7551	-0.000610547	  -11.7488	-0.000607695	  -11.7488	  -15.1924	
   -11.731	-0.000611418	  -11.7289	-0.000611483	  -11.7394	-0.00061585	  -11.7331	-0.000612917	  -11.7331	  -15.3229	
   -11.715	-0.000616442	  -11.7128	-0.000616835	  -11.7234	-0.00062105	   -11.717	-0.000618109	   -11.717	  -15.4527	
  -11.6986	-0.000621495	  -11.6962	-0.000622184	   -11.707	-0.00062615	  -11.7006	-0.000623277	  -11.7006	  -15.5819	
  -11.6819	-0.000626605	  -11.6792	-0.000627502	  -11.6899	-0.000631164	  -11.6837	-0.000628424	  -11.6837	  -15.7106	
  -11.6647	-0.000631786	  -11.6616	-0.00063276	  -11.6724	-0.000636109	  -11.6662	-0.000633552	  -11.6662	  -15.8388	
  -11.6468	-0.000637041	  -11.6433	-0.000637938	  -11.6541	-0.000641015	  -11.6481	-0.000638665	  -11.6481	  -15.9666	
  -11.6284	-0.000642354	  -11.6245	-0.000643024	  -11.6353	-0.000645903	  -11.6294	-0.00064376	  -11.6294	   -16.094	
  -11.6095	-0.0006477	  -11.6053	-0.000648004	   -11.616	-0.000650796	  -11.6102	-0.000648833	  -11.6102	  -16.2208	
  -11.5902	-0.000653048	  -11.5857	-0.000652878	  -11.5964	-0.000655714	  -11.5907	-0.00065388	  -11.5907	   -16.347	
  -11.5706	-0.000658358	  -11.5658	-0.000657658	  -11.5765	-0.000660658	   -11.571	-0.000658891	   -11.571	  -16.4723	
  -11.5509	-0.000663594	  -11.5455	-0.000662362	  -11.5561	-0.000665625	  -11.5508	-0.00066386	  -11.5508	  -16.5965	
  -11.5306	-0.000668724	  -11.5247	-0.000667015	  -11.5352	-0.000670607	  -11.5302	-0.000668782	  -11.5302	  -16.7196	
  -11.5098	-0.000673731	  -11.5034	-0.000671638	  -11.5137	-0.000675586	   -11.509	-0.000673652	   -11.509	  -16.8413	
  -11.4884	-0.000678606	  -11.4816	-0.000676253	  -11.4918	-0.000680541	  -11.4873	-0.000678467	  -11.4873	  -16.9617	
  -11.4667	-0.000683357	  -11.4595	-0.000680878	  -11.4696	-0.000685449	  -11.4652	-0.000683228	  -11.4652	  -17.0807	
  -11.4445	-0.000688007	  -11.4369	-0.000685527	  -11.4471	-0.000690295	  -11.4428	-0.000687943	  -11.4428	  -17.1986	
  -11.4218	-0.000692586	  -11.4139	-0.00069021	  -11.4241	-0.000695066	  -11.4199	-0.00069262	  -11.4199	  -17.3155	
  -11.3985	-0.00069713	  -11.3904	-0.000694915	  -11.4005	-0.000699757	  -11.3965	-0.000697267	  -11.3965	  -17.4317	
  -11.3747	-0.00070168	  -11.3665	-0.000699632	  -11.3763	-0.000704374	  -11.3725	-0.000701895	  -11.3725	  -17.5474	
  -11.3504	-0.000706263	  -11.3421	-0.000704346	  -11.3518	-0.000708925	  -11.3481	-0.000706511	  -11.3481	  -17.6628	
  -11.3255	-0.000710906	  -11.3175	-0.000709035	  -11.3269	-0.000713428	  -11.3233	-0.000711123	  -11.3233	  -17.7781	
  -11.3002	-0.000715619	  -11.2923	-0.000713683	  -11.3016	-0.000717903	  -11.2981	-0.000715735	  -11.2981	  -17.8934	
  -11.2742	-0.000720396	  -11.2669	-0.000718271	  -11.2758	-0.000722367	  -11.2723	-0.000720345	  -11.2723	  -18.0086	
  -11.2477	-0.000725234	   -11.241	-0.000722789	  -11.2495	-0.000726838	  -11.2461	-0.000724954	  -11.2461	  -18.1238	
  -11.2208	-0.000730111	  -11.2146	-0.000727231	  -11.2227	-0.000731326	  -11.2194	-0.000729556	  -11.2194	  -18.2389	
  -11.1937	-0.00073499	  -11.1878	-0.000731601	  -11.1956	-0.000735837	  -11.1924	-0.000734143	  -11.1924	  -18.3536	
  -11.1659	-0.000739822	  -11.1607	-0.000735913	  -11.1682	-0.000740369	  -11.1649	-0.000738701	  -11.1649	  -18.4675	
  -11.1376	-0.00074458	  -11.1329	-0.000740175	  -11.1406	-0.000744914	   -11.137	-0.000743223	   -11.137	  -18.5806	
  -11.1087	-0.000749233	  -11.1046	-0.000744408	  -11.1125	-0.000749458	  -11.1086	-0.0007477	  -11.1086	  -18.6925	
  -11.0795	-0.000753749	  -11.0758	-0.000748631	   -11.084	-0.000753984	  -11.0798	-0.000752121	  -11.0798	   -18.803	
  -11.0498	-0.000758122	  -11.0467	-0.000752854	  -11.0551	-0.000758473	  -11.0506	-0.000756483	  -11.0506	  -18.9121	
  -11.0201	-0.000762359	  -11.0172	-0.000757086	  -11.0257	-0.000762911	   -11.021	-0.000760785	   -11.021	  -19.0196	
  -10.9897	-0.000766486	  -10.9871	-0.000761322	  -10.9957	-0.000767283	  -10.9908	-0.00076503	  -10.9908	  -19.1258	
  -10.9589	-0.000770534	  -10.9565	-0.00076556	  -10.9652	-0.000771581	  -10.9602	-0.000769225	  -10.9602	  -19.2306	
  -10.9277	-0.000774543	  -10.9255	-0.000769797	  -10.9342	-0.000775803	  -10.9291	-0.000773381	  -10.9291	  -19.3345	
  -10.8963	-0.000778545	  -10.8941	-0.000774026	  -10.9031	-0.000779955	  -10.8978	-0.000777509	  -10.8978	  -19.4377	
  -10.8646	-0.000782574	  -10.8622	-0.000778236	  -10.8712	-0.000784046	   -10.866	-0.000781619	   -10.866	  -19.5405	
  -10.8323	-0.000786658	  -10.8299	-0.000782417	  -10.8388	-0.000788088	  -10.8336	-0.000785721	  -10.8336	   -19.643	
  -10.7996	-0.000790818	  -10.7971	-0.000786561	  -10.8059	-0.000792097	  -10.8009	-0.000789825	  -10.8009	  -19.7456	
  -10.7666	-0.00079505	  -10.7641	-0.000790666	  -10.7726	-0.000796088	  -10.7678	-0.000793935	  -10.7678	  -19.8484	
  -10.7332	-0.00079934	  -10.7306	-0.000794725	  -10.7388	-0.000800073	  -10.7342	-0.000798046	  -10.7342	  -19.9512	
  -10.6992	-0.000803664	  -10.6965	-0.000798737	  -10.7044	-0.000804066	  -10.7001	-0.000802156	  -10.7001	  -20.0539	
  -10.6648	-0.000807986	   -10.662	-0.000802704	  -10.6696	-0.000808067	  -10.6655	-0.000806253	  -10.6655	  -20.1563	
  -10.6301	-0.000812273	  -10.6272	-0.000806629	  -10.6346	-0.000812077	  -10.6306	-0.000810326	  -10.6306	  -20.2582	
  -10.5952	-0.00081649	  -10.5922	-0.000810517	  -10.5987	-0.000816089	  -10.5954	-0.000814365	  -10.5954	  -20.3591	
  -10.5597	-0.000820606	  -10.5565	-0.000814374	  -10.5623	-0.000820099	  -10.5595	-0.00081836	  -10.5595	   -20.459	
  -10.5237	-0.000824603	  -10.5204	-0.000818205	  -10.5255	-0.000824096	  -10.5232	-0.000822301	  -10.5232	  -20.5575	
  -10.4873	-0.000828474	   -10.484	-0.000822012	  -10.4884	-0.000828062	  -10.4866	-0.000826183	  -10.4866	  -20.6546	
  -10.4505	-0.000832228	  -10.4472	-0.000825801	   -10.451	-0.000831987	  -10.4496	-0.000830006	  -10.4496	  -20.7501	
   -10.413	-0.000835884	  -10.4098	-0.000829578	   -10.413	-0.000835861	  -10.4119	-0.000833774	  -10.4119	  -20.8444	
   -10.375	-0.000839468	  -10.3721	-0.000833342	  -10.3746	-0.000839676	  -10.3739	-0.000837495	  -10.3739	  -20.9374	
  -10.3368	-0.000843017	  -10.3341	-0.000837103	   -10.336	-0.000843429	  -10.3356	-0.000841183	  -10.3356	  -21.0296	
   -10.298	-0.000846563	  -10.2957	-0.000840855	  -10.2968	-0.000847117	  -10.2968	-0.000844845	  -10.2968	  -21.1211	
  -10.2587	-0.000850136	  -10.2567	-0.000844588	  -10.2571	-0.000850743	  -10.2575	-0.000848489	  -10.2575	  -21.2122	
  -10.2189	-0.000853755	  -10.2172	-0.000848297	   -10.217	-0.000854314	  -10.2177	-0.000852122	  -10.2177	  -21.3031	
  -10.1789	-0.000857425	  -10.1775	-0.000851972	  -10.1766	-0.000857841	  -10.1777	-0.000855746	  -10.1777	  -21.3936	
  -10.1385	-0.000861138	  -10.1373	-0.000855602	  -10.1357	-0.000861328	  -10.1372	-0.000859356	  -10.1372	  -21.4839	
  -10.0976	-0.00086488	  -10.0968	-0.000859172	  -10.0942	-0.000864793	  -10.0962	-0.000862948	  -10.0962	  -21.5737	
  -10.0563	-0.000868627	  -10.0558	-0.000862679	  -10.0524	-0.000868253	  -10.0549	-0.00086652	  -10.0549	   -21.663	
  -10.0148	-0.00087235	  -10.0144	-0.000866124	  -10.0103	-0.000871709	  -10.0132	-0.000870061	  -10.0132	  -21.7515	
  -9.97269	-0.000876017	  -9.97262	-0.000869504	  -9.96784	-0.000875165	  -9.97105	-0.000873562	  -9.97105	   -21.839	
  -9.93009	-0.000879608	  -9.93033	-0.000872821	  -9.92497	-0.000878627	  -9.92846	-0.000877019	  -9.92846	  -21.9255	
  -9.88719	-0.000883103	  -9.88769	-0.000876089	  -9.88182	-0.000882083	  -9.88557	-0.000880425	  -9.88557	  -22.0106	
  -9.84395	-0.000886494	  -9.84468	-0.000879321	  -9.83837	-0.000885518	  -9.84233	-0.000883777	  -9.84233	  -22.0944	
  -9.80015	-0.000889783	  -9.80106	-0.000882527	  -9.79438	-0.00088892	  -9.79853	-0.000887077	  -9.79853	  -22.1769	
  -9.75597	-0.000892981	  -9.75703	-0.000885724	  -9.75004	-0.000892278	  -9.75434	-0.000890327	  -9.75434	  -22.2582	
  -9.71156	-0.000896104	  -9.71273	-0.000888919	  -9.70549	-0.000895577	  -9.70993	-0.000893533	  -9.70993	  -22.3383	
  -9.66652	-0.000899174	  -9.66806	-0.000892118	  -9.66062	-0.000898801	  -9.66507	-0.000896698	  -9.66507	  -22.4174	
  -9.62102	-0.000902217	  -9.62307	-0.000895322	  -9.61529	-0.000901948	  -9.61979	-0.000899829	  -9.61979	  -22.4957	
  -9.57525	-0.000905251	  -9.57773	-0.000898523	  -9.56967	-0.000905021	  -9.57422	-0.000902932	  -9.57422	  -22.5733	
  -9.52936	-0.000908294	  -9.53202	-0.00090171	  -9.52375	-0.000908017	  -9.52838	-0.000906007	  -9.52838	  -22.6502	
  -9.48292	-0.000911359	  -9.48573	-0.000904866	  -9.47729	-0.000910953	  -9.48198	-0.00090906	  -9.48198	  -22.7265	
  -9.43612	-0.000914449	  -9.43904	-0.000907979	  -9.43048	-0.000913849	  -9.43521	-0.000912093	  -9.43521	  -22.8023	
  -9.38913	-0.000917563	  -9.39212	-0.000911042	  -9.38321	-0.000916715	  -9.38815	-0.000915107	  -9.38815	  -22.8777	
  -9.34173	-0.000920692	  -9.34456	-0.000914042	  -9.33555	-0.000919565	  -9.34061	-0.0009181	  -9.34061	  -22.9525	
   -9.2939	-0.000923817	  -9.29655	-0.000916975	  -9.28749	-0.000922414	  -9.29264	-0.000921068	  -9.29264	  -23.0267	
  -9.24581	-0.000926915	  -9.24828	-0.000919841	  -9.23921	-0.00092527	  -9.24443	-0.000924009	  -9.24443	  -23.1002	
  -9.19736	-0.00092997	  -9.19991	-0.000922646	   -9.1903	-0.000928129	  -9.19585	-0.000926915	  -9.19585	  -23.1729	
  -9.14842	-0.000932957	  -9.15102	-0.000925402	  -9.14095	-0.000930991	   -9.1468	-0.000929783	   -9.1468	  -23.2446	
  -9.09918	-0.000935851	  -9.10181	-0.00092812	  -9.09136	-0.000933838	  -9.09745	-0.000932603	  -9.09745	  -23.3151	
  -9.04982	-0.000938645	  -9.05245	-0.000930816	  -9.04168	-0.000936646	  -9.04798	-0.000935369	  -9.04798	  -23.3842	
  -8.99993	-0.000941339	  -9.00252	-0.0009335	  -8.99152	-0.000939385	  -8.99799	-0.000938074	  -8.99799	  -23.4519	
  -8.94969	-0.000943922	  -8.95222	-0.000936177	  -8.94104	-0.000942023	  -8.94765	-0.000940707	  -8.94765	  -23.5177	
  -8.89929	-0.000946409	  -8.90174	-0.000938852	  -8.89045	-0.000944549	  -8.89716	-0.00094327	  -8.89716	  -23.5817	
  -8.84832	-0.000948827	  -8.85095	-0.000941518	  -8.83932	-0.000946971	   -8.8462	-0.000945772	   -8.8462	  -23.6443	
  -8.79698	-0.000951191	  -8.79975	-0.000944166	  -8.78784	-0.000949294	  -8.79486	-0.000948217	  -8.79486	  -23.7054	
  -8.74545	-0.000953527	  -8.74832	-0.000946784	  -8.73622	-0.00095154	  -8.74333	-0.000950617	  -8.74333	  -23.7654	
  -8.69352	-0.00095586	  -8.69665	-0.000949367	  -8.68402	-0.000953753	   -8.6914	-0.000952993	   -8.6914	  -23.8248	
  -8.64119	-0.000958216	  -8.64453	-0.000951902	  -8.63148	-0.000955977	  -8.63907	-0.000955365	  -8.63907	  -23.8841	
  -8.58836	-0.000960602	  -8.59216	-0.000954383	  -8.57818	-0.000958251	  -8.58623	-0.000957745	  -8.58623	  -23.9436	
  -8.53514	-0.000963026	  -8.53971	-0.000956808	  -8.52378	-0.000960595	  -8.53288	-0.000960143	  -8.53288	  -24.0036	
  -8.48152	-0.000965492	  -8.48706	-0.000959182	  -8.46854	-0.000963024	  -8.47904	-0.000962566	  -8.47904	  -24.0642	
  -8.42771	-0.000967981	   -8.4341	-0.000961512	  -8.41306	-0.000965539	  -8.42495	-0.000965011	  -8.42495	  -24.1253	
  -8.37359	-0.000970469	  -8.38101	-0.000963809	  -8.35716	-0.000968115	  -8.37059	-0.000967464	  -8.37059	  -24.1866	
  -8.31906	-0.000972935	  -8.32759	-0.000966087	  -8.30026	-0.000970722	  -8.31564	-0.000969914	  -8.31564	  -24.2479	
  -8.26434	-0.000975349	  -8.27384	-0.000968349	  -8.24311	-0.000973306	  -8.26043	-0.000972335	  -8.26043	  -24.3084	
   -8.2092	-0.000977685	  -8.21955	-0.000970601	  -8.18676	-0.000975807	  -8.20517	-0.000974698	  -8.20517	  -24.3674	
  -8.15367	-0.000979928	  -8.16474	-0.000972845	  -8.13074	-0.000978178	  -8.14971	-0.000976983	  -8.14971	  -24.4246	
  -8.09793	-0.000982071	  -8.10963	-0.000975072	  -8.07404	-0.000980379	  -8.09387	-0.000979174	  -8.09387	  -24.4793	
   -8.0419	-0.000984109	  -8.05411	-0.000977272	  -8.01719	-0.000982398	  -8.03773	-0.00098126	  -8.03773	  -24.5315	
  -7.98576	-0.000986053	  -7.99838	-0.000979438	  -7.96094	-0.000984236	  -7.98169	-0.000983242	  -7.98169	  -24.5811	
  -7.92941	-0.000987925	  -7.94236	-0.000981558	  -7.90551	-0.000985905	  -7.92576	-0.00098513	  -7.92576	  -24.6282	
  -7.87274	-0.000989744	  -7.88622	-0.000983623	  -7.85033	-0.000987447	  -7.86976	-0.000986938	  -7.86976	  -24.6734	
  -7.81566	-0.00099153	  -7.82957	-0.000985628	  -7.79508	-0.000988923	  -7.81344	-0.000988694	  -7.81344	  -24.7173	
  -7.75839	-0.000993315	  -7.77264	-0.000987574	  -7.74012	-0.000990385	  -7.75705	-0.000990424	  -7.75705	  -24.7606	
  -7.70073	-0.000995114	  -7.71522	-0.00098946	  -7.68521	-0.000991882	  -7.70039	-0.000992152	  -7.70039	  -24.8038	
  -7.64269	-0.000996932	  -7.65734	-0.000991296	  -7.62975	-0.000993465	  -7.64326	-0.000993897	  -7.64326	  -24.8474	
  -7.58449	-0.000998775	  -7.59922	-0.00099309	  -7.57357	-0.000995165	  -7.58576	-0.000995677	  -7.58576	  -24.8919	
  -7.52601	-0.00100063	  -7.54047	-0.000994846	   -7.5167	-0.000996987	  -7.52773	-0.000997489	  -7.52773	  -24.9372	
  -7.46718	-0.00100249	  -7.48132	-0.000996572	  -7.45956	-0.000998916	  -7.46935	-0.000999327	  -7.46935	  -24.9832	
  -7.40821	-0.00100432	  -7.42199	-0.000998269	  -7.40187	-0.00100093	  -7.41069	-0.00100117	  -7.41069	  -25.0293	
   -7.3487	-0.00100612	  -7.36238	-0.000999932	  -7.34355	-0.00100298	  -7.35154	-0.00100301	  -7.35154	  -25.0752	
  -7.28888	-0.00100785	  -7.30241	-0.00100156	  -7.28484	-0.00100501	  -7.29204	-0.0010048	  -7.29204	  -25.1201	
  -7.22896	-0.00100949	  -7.24228	-0.00100314	  -7.22537	-0.00100698	   -7.2322	-0.00100654	   -7.2322	  -25.1634	
  -7.16855	-0.00101105	  -7.18181	-0.00100467	  -7.16538	-0.00100884	  -7.17192	-0.00100819	  -7.17192	  -25.2047	
  -7.10787	-0.0010125	  -7.12103	-0.00100615	   -7.1051	-0.00101056	  -7.11133	-0.00100974	  -7.11133	  -25.2435	
  -7.04695	-0.00101387	  -7.06013	-0.00100758	  -7.04472	-0.00101212	   -7.0506	-0.00101119	   -7.0506	  -25.2798	
  -6.98559	-0.00101518	  -6.99874	-0.00100896	  -6.98417	-0.00101352	   -6.9895	-0.00101255	   -6.9895	  -25.3139	
  -6.92384	-0.00101647	  -6.93709	-0.00101029	  -6.92295	-0.00101478	  -6.92796	-0.00101385	  -6.92796	  -25.3462	
  -6.86152	-0.00101775	   -6.8748	-0.00101158	  -6.86112	-0.00101593	  -6.86582	-0.00101509	  -6.86582	  -25.3772	
  -6.79888	-0.00101902	  -6.81232	-0.00101285	  -6.79892	 -0.001017	  -6.80337	-0.00101629	  -6.80337	  -25.4073	
  -6.73583	-0.00102031	  -6.74965	-0.00101409	  -6.73656	-0.00101804	  -6.74068	-0.00101748	  -6.74068	   -25.437	
   -6.6727	-0.00102161	  -6.68661	-0.00101533	  -6.67387	-0.00101907	  -6.67773	-0.00101867	  -6.67773	  -25.4668	
   -6.6093	-0.0010229	  -6.62324	-0.00101657	  -6.61086	-0.00102013	  -6.61447	-0.00101987	  -6.61447	  -25.4968	
  -6.54586	-0.00102417	  -6.55946	-0.00101781	  -6.54776	-0.00102125	  -6.55103	-0.00102108	  -6.55103	   -25.527	
  -6.48198	-0.0010254	  -6.49561	-0.00101905	  -6.48458	-0.00102243	  -6.48739	-0.00102229	  -6.48739	  -25.5573	
   -6.4179	-0.00102657	  -6.43148	-0.00102027	  -6.42112	-0.00102365	   -6.4235	-0.0010235	   -6.4235	  -25.5874	
  -6.35384	-0.00102765	  -6.36712	-0.00102147	  -6.35722	-0.0010249	  -6.35939	-0.00102467	  -6.35939	  -25.6168	
   -6.2894	-0.00102864	  -6.30235	-0.00102262	  -6.29293	-0.00102615	  -6.29489	-0.0010258	  -6.29489	  -25.6451	
  -6.22462	-0.00102953	  -6.23741	-0.00102373	  -6.22846	-0.00102737	  -6.23016	-0.00102687	  -6.23016	  -25.6719	
  -6.15935	-0.00103032	   -6.1722	-0.00102476	  -6.16373	-0.00102853	   -6.1651	-0.00102787	   -6.1651	  -25.6967	
  -6.09383	-0.00103103	  -6.10668	-0.00102571	  -6.09869	-0.0010296	  -6.09973	-0.00102878	  -6.09973	  -25.7195	
  -6.02826	-0.00103172	  -6.04106	-0.00102659	  -6.03355	-0.00103055	  -6.03429	-0.00102962	  -6.03429	  -25.7405	
  -5.96247	-0.00103239	  -5.97517	-0.00102738	  -5.96813	-0.00103139	  -5.96859	-0.00103039	  -5.96859	  -25.7597	
   -5.8965	-0.0010331	  -5.90903	-0.00102811	  -5.90246	-0.0010321	  -5.90266	-0.0010311	  -5.90266	  -25.7775	
  -5.83054	-0.00103385	  -5.84258	-0.00102877	  -5.83648	-0.00103271	  -5.83653	-0.00103178	  -5.83653	  -25.7944	
  -5.76442	-0.00103465	  -5.77614	-0.00102938	  -5.77012	-0.00103324	  -5.77023	-0.00103243	  -5.77023	  -25.8107	
  -5.69817	-0.0010355	  -5.70954	-0.00102997	  -5.70361	-0.00103373	  -5.70377	-0.00103307	  -5.70377	  -25.8267	
   -5.6316	-0.00103637	  -5.64278	-0.00103054	   -5.6368	-0.0010342	  -5.63706	-0.00103371	  -5.63706	  -25.8426	
  -5.56476	-0.00103723	  -5.57572	-0.00103111	   -5.5697	-0.00103469	  -5.57006	-0.00103434	  -5.57006	  -25.8586	
  -5.49788	-0.00103803	  -5.50858	-0.00103168	  -5.50256	-0.00103522	    -5.503	-0.00103497	    -5.503	  -25.8743	
  -5.43115	-0.00103873	  -5.44156	-0.00103224	  -5.43528	-0.00103578	    -5.436	-0.00103558	    -5.436	  -25.8896	
  -5.36478	-0.00103931	  -5.37429	-0.00103281	  -5.36781	-0.00103639	  -5.36896	-0.00103617	  -5.36896	  -25.9042	
  -5.29865	-0.00103976	  -5.30699	-0.00103335	  -5.30006	-0.00103702	   -5.3019	-0.00103671	   -5.3019	  -25.9178	
  -5.23226	-0.00104006	   -5.2393	-0.00103387	  -5.23199	-0.00103767	  -5.23452	-0.0010372	  -5.23452	  -25.9299	
  -5.16566	-0.00104023	  -5.17145	-0.00103434	  -5.16382	-0.00103829	  -5.16697	-0.00103762	  -5.16697	  -25.9405	
  -5.09906	-0.00104031	  -5.10336	-0.00103474	  -5.09548	-0.00103885	   -5.0993	-0.00103797	   -5.0993	  -25.9492	
  -5.03246	-0.00104031	  -5.03499	-0.00103508	  -5.02691	-0.00103933	  -5.03146	-0.00103824	  -5.03146	   -25.956	
  -4.96513	-0.00104029	  -4.96656	-0.00103533	  -4.95834	-0.00103971	  -4.96334	-0.00103844	  -4.96334	  -25.9611	
  -4.89673	-0.00104029	  -4.89791	-0.0010355	  -4.88939	-0.00103997	  -4.89468	-0.00103859	  -4.89468	  -25.9646	
  -4.82786	-0.00104034	  -4.82906	-0.00103559	  -4.82031	-0.00104012	  -4.82574	-0.00103868	  -4.82574	   -25.967	
  -4.75905	-0.00104042	  -4.76005	-0.0010356	  -4.75113	-0.00104016	  -4.75674	-0.00103873	  -4.75674	  -25.9682	
  -4.69021	-0.00104055	  -4.69072	-0.00103556	  -4.68168	-0.00104012	  -4.68754	-0.00103875	  -4.68754	  -25.9687	
  -4.62069	-0.00104072	  -4.62131	-0.00103549	   -4.6122	-0.00104003	  -4.61807	-0.00103875	  -4.61807	  -25.9687	
  -4.55076	-0.00104091	  -4.55174	-0.00103539	  -4.54261	-0.00103991	  -4.54837	-0.00103874	  -4.54837	  -25.9684	
  -4.48086	-0.00104107	  -4.48196	-0.00103529	  -4.47265	-0.00103978	  -4.47849	-0.00103871	  -4.47849	  -25.9678	
  -4.41072	-0.00104117	  -4.41219	-0.00103519	  -4.40247	-0.00103968	  -4.40846	-0.00103868	  -4.40846	   -25.967	
  -4.34027	-0.00104119	  -4.34207	-0.0010351	  -4.33201	-0.00103959	  -4.33812	-0.00103863	  -4.33812	  -25.9657	
  -4.26977	-0.00104112	  -4.27184	-0.00103501	  -4.26151	-0.00103952	  -4.26771	-0.00103855	  -4.26771	  -25.9638	
  -4.19914	-0.00104092	  -4.20115	-0.00103492	  -4.19091	-0.00103947	  -4.19707	-0.00103843	  -4.19707	  -25.9609	
  -4.12756	-0.00104061	  -4.13025	-0.0010348	  -4.12013	-0.0010394	  -4.12598	-0.00103827	  -4.12598	  -25.9567	
  -4.05579	-0.0010402	  -4.05909	-0.00103464	  -4.04912	-0.0010393	  -4.05467	-0.00103804	  -4.05467	  -25.9511	
  -3.98436	-0.00103969	   -3.9878	-0.00103442	  -3.97782	-0.00103913	  -3.98333	-0.00103775	  -3.98333	  -25.9437	
  -3.91259	-0.00103913	  -3.91643	-0.00103414	  -3.90649	-0.00103888	  -3.91183	-0.00103738	  -3.91183	  -25.9346	
  -3.83968	-0.00103853	   -3.8448	-0.00103377	  -3.83494	-0.00103853	  -3.83981	-0.00103694	  -3.83981	  -25.9236	
  -3.76699	-0.00103792	  -3.77298	-0.00103333	  -3.76323	-0.00103807	  -3.76773	-0.00103644	  -3.76773	   -25.911	
   -3.6954	-0.00103733	    -3.701	-0.00103279	  -3.69139	-0.00103749	  -3.69593	-0.00103587	  -3.69593	  -25.8968	
  -3.62351	-0.00103676	   -3.6287	-0.00103218	  -3.61956	-0.00103679	  -3.62392	-0.00103525	  -3.62392	  -25.8811	
  -3.55012	-0.00103622	  -3.55635	-0.00103152	  -3.54767	-0.00103601	  -3.55138	-0.00103458	  -3.55138	  -25.8645	
  -3.47681	-0.00103571	  -3.48377	-0.00103081	  -3.47556	-0.00103515	  -3.47871	-0.00103389	  -3.47871	  -25.8472	
  -3.40487	-0.0010352	  -3.41101	-0.00103007	  -3.40327	-0.00103427	  -3.40638	-0.00103318	  -3.40638	  -25.8295	
  -3.33296	-0.00103469	  -3.33832	-0.00102932	  -3.33086	-0.0010334	  -3.33404	-0.00103247	  -3.33404	  -25.8117	
  -3.25957	-0.00103416	  -3.26533	-0.00102857	  -3.25816	-0.00103256	  -3.26102	-0.00103176	  -3.26102	   -25.794	
  -3.18639	-0.00103356	  -3.19229	-0.00102783	  -3.18541	-0.00103178	  -3.18803	-0.00103106	  -3.18803	  -25.7764	
   -3.1143	-0.00103289	  -3.11914	-0.00102709	  -3.11257	-0.00103106	  -3.11534	-0.00103035	  -3.11534	  -25.7587	
  -3.04123	-0.00103213	    -3.046	-0.00102636	  -3.03956	-0.00103041	  -3.04226	-0.00102963	  -3.04226	  -25.7408	
  -2.96679	-0.00103127	  -2.97263	-0.0010256	  -2.96634	-0.00102979	  -2.96859	-0.00102889	  -2.96859	  -25.7222	
  -2.89277	-0.00103031	  -2.89898	-0.00102482	  -2.89286	-0.00102917	  -2.89487	-0.0010281	  -2.89487	  -25.7025	
  -2.81965	-0.00102927	   -2.8253	-0.00102398	  -2.81936	-0.00102851	  -2.82144	-0.00102725	  -2.82144	  -25.6813	
  -2.74643	-0.00102816	  -2.75181	-0.00102307	  -2.74579	-0.00102777	  -2.74801	-0.00102633	  -2.74801	  -25.6584	
  -2.67228	 -0.001027	  -2.67815	-0.00102208	  -2.67207	-0.00102691	  -2.67417	-0.00102533	  -2.67417	  -25.6333	
  -2.59857	-0.00102582	  -2.60455	-0.00102101	  -2.59818	-0.00102592	  -2.60043	-0.00102425	  -2.60043	  -25.6062	
  -2.52538	-0.00102462	  -2.53067	-0.00101984	  -2.52443	-0.00102477	  -2.52682	-0.00102308	  -2.52682	   -25.577	
  -2.45183	-0.00102334	  -2.45674	-0.00101852	  -2.45066	-0.00102364	  -2.45308	-0.00102183	  -2.45308	  -25.5459	
  -2.37791	-0.0010221	  -2.38281	-0.00101713	   -2.3769	-0.00102247	  -2.37921	-0.00102057	  -2.37921	  -25.5142	
  -2.30414	-0.0010209	  -2.30872	-0.00101571	  -2.30299	-0.00102127	  -2.30528	-0.00101929	  -2.30528	  -25.4823	
  -2.23084	-0.00101976	   -2.2347	-0.00101427	  -2.22918	-0.00102001	  -2.23157	-0.00101802	  -2.23157	  -25.4504	
  -2.15695	-0.00101865	  -2.16069	-0.00101284	   -2.1551	-0.00101872	  -2.15758	-0.00101674	  -2.15758	  -25.4184	
  -2.08245	-0.00101755	  -2.08662	-0.00101142	    -2.081	-0.00101737	  -2.08336	-0.00101545	  -2.08336	  -25.3862	
  -2.00791	-0.00101643	  -2.01244	-0.00101002	  -2.00682	-0.00101598	  -2.00906	-0.00101414	  -2.00906	  -25.3536	
  -1.93383	-0.00101525	   -1.9381	-0.00100863	  -1.93251	-0.00101455	  -1.93481	-0.00101281	  -1.93481	  -25.3203	
