# User: ACHyster
# File name: C:/ACHYSTER/ACHyster SENS/SHAMS/CoFe2O4-1gl-water-15 Glycerol- Sens-07-03-2023/CoFe2O4-1gl-water-15 Glycerol- 10_100F- 24 kAm -Sens-07-03-20230007#1.txt
# Saved at: ma. mar. 7 15:37:04 2023
# Hyster Loop (3 iterations). Intensity: 24.0 kA/m; Tuned frequency: 101.8 kHz
# Units x axis: (kA/m)
# Units y axis: "Repeats y" & "Average y" (10^(-3)Am^2); "Mass avg y" (Am^2/kg)
# Magnetic mass: 4e-05 g
# Parameter      	Repeat   1	Repeat   2	Repeat   3	Average   	Sigma     
# H_C (kA/m)     	      21.5	      21.9	      22.0	      21.8	       0.2
# M_R (Am^2/kg)  	      45.5	      45.3	      47.4	      46.1	       0.9
# M_max (Am^2/kg)	      22.3	      20.0	      21.6	      21.3	       1.0
# Area (mJ/kg)   	    4216.1	    4215.1	    4454.0	    4295.1	     112.4
# SAR (W/g)      	     429.2	     429.1	     453.4	     437.2	      11.4
#Repeat 1 x	Repeat 1 y	Repeat 2 x	Repeat 2 y	Repeat 3 x	Repeat 3 y	Average x 	Average y 	Mass avg x 	Mass avg y 
  -3.66453	-0.00189835	  -3.72798	-0.00188441	  -3.73117	-0.00197178	  -3.70789	-0.00191818	  -3.70789	  -47.9545	
  -3.51763	-0.00189609	  -3.58076	-0.0018824	  -3.58106	-0.00196981	  -3.55982	-0.0019161	  -3.55982	  -47.9025	
  -3.36983	-0.00189367	   -3.4336	-0.00188026	  -3.43134	-0.00196768	  -3.41159	-0.00191387	  -3.41159	  -47.8467	
  -3.22189	-0.00189111	  -3.28623	 -0.001878	  -3.28172	-0.00196536	  -3.26328	-0.00191149	  -3.26328	  -47.7873	
   -3.0726	-0.00188846	  -3.13839	-0.00187565	  -3.13192	-0.00196286	   -3.1143	-0.00190899	   -3.1143	  -47.7247	
  -2.92322	-0.00188574	  -2.99033	-0.0018732	  -2.98218	-0.00196021	  -2.96524	-0.00190638	  -2.96524	  -47.6595	
  -2.77351	-0.00188298	  -2.84276	-0.00187069	  -2.83247	-0.00195744	  -2.81625	-0.0019037	  -2.81625	  -47.5926	
  -2.62467	-0.00188024	  -2.69537	-0.00186812	  -2.68252	-0.00195461	  -2.66752	-0.00190099	  -2.66752	  -47.5247	
  -2.47612	-0.00187751	  -2.54764	-0.00186552	  -2.53257	-0.00195175	  -2.51878	-0.00189826	  -2.51878	  -47.4566	
  -2.32782	-0.00187481	  -2.39956	-0.00186291	   -2.3826	-0.00194893	  -2.36999	-0.00189555	  -2.36999	  -47.3887	
  -2.17923	-0.00187209	  -2.25114	-0.00186027	  -2.23258	-0.00194615	  -2.22098	-0.00189284	  -2.22098	   -47.321	
  -2.03036	-0.00186936	  -2.10261	-0.00185762	  -2.08202	-0.00194343	  -2.07166	-0.00189014	  -2.07166	  -47.2534	
  -1.88168	-0.00186661	  -1.95371	-0.00185493	  -1.93094	-0.00194075	  -1.92211	-0.00188743	  -1.92211	  -47.1857	
   -1.7329	-0.0018638	  -1.80421	-0.00185218	  -1.78033	-0.00193808	  -1.77248	-0.00188469	  -1.77248	  -47.1171	
  -1.58426	-0.0018609	  -1.65486	-0.00184936	  -1.62963	-0.00193537	  -1.62292	-0.00188188	  -1.62292	  -47.0469	
  -1.43571	-0.00185789	  -1.50657	-0.00184646	  -1.47885	-0.00193257	  -1.47371	-0.00187897	  -1.47371	  -46.9743	
  -1.28674	-0.00185476	   -1.3578	-0.00184344	  -1.32796	-0.00192962	  -1.32417	-0.00187594	  -1.32417	  -46.8986	
  -1.13807	-0.00185151	  -1.20879	-0.00184031	  -1.17648	-0.00192647	  -1.17445	-0.00187276	  -1.17445	  -46.8191	
 -0.989428	-0.00184813	  -1.06003	-0.00183705	  -1.02491	-0.0019231	  -1.02479	-0.00186943	  -1.02479	  -46.7357	
 -0.840772	-0.00184462	 -0.910742	-0.00183367	  -0.87325	-0.0019195	 -0.874921	-0.00186593	 -0.874921	  -46.6482	
 -0.691597	-0.00184096	 -0.760462	-0.00183017	 -0.721723	-0.00191569	 -0.724594	-0.00186227	 -0.724594	  -46.5569	
 -0.542882	-0.00183719	 -0.610692	-0.00182658	 -0.571502	-0.0019117	 -0.575025	-0.00185849	 -0.575025	  -46.4623	
 -0.393121	-0.00183335	 -0.461608	-0.00182291	 -0.421501	-0.00190759	  -0.42541	-0.00185462	  -0.42541	  -46.3654	
 -0.243819	-0.00182942	 -0.312412	-0.00181918	 -0.272163	-0.00190342	 -0.276131	-0.00185067	 -0.276131	  -46.2668	
-0.0951538	-0.00182541	 -0.163326	-0.00181541	  -0.12245	-0.00189924	 -0.126977	-0.00184668	 -0.126977	  -46.1671	
   0.05367	-0.00182133	-0.0145575	-0.0018116	 0.0276292	-0.0018951	 0.0222472	-0.00184268	 0.0222472	  -46.0669	
  0.203868	-0.0018172	  0.133948	-0.00180775	  0.177827	-0.00189105	  0.171881	-0.00183867	  0.171881	  -45.9666	
  0.353192	-0.00181299	  0.282715	-0.00180388	  0.328401	-0.00188708	  0.321436	-0.00183465	  0.321436	  -45.8662	
  0.502937	-0.00180872	  0.431029	-0.00179995	  0.479578	-0.00188317	  0.471181	-0.00183062	  0.471181	  -45.7654	
  0.652611	-0.00180438	  0.579195	-0.00179598	   0.63085	-0.00187929	  0.620885	-0.00182655	  0.620885	  -45.6638	
  0.802005	-0.00179995	  0.727249	-0.00179194	  0.781505	-0.00187536	  0.770253	-0.00182242	  0.770253	  -45.5604	
  0.951167	-0.00179543	  0.875712	-0.00178782	  0.932098	-0.00187133	  0.919659	-0.00181819	  0.919659	  -45.4548	
   1.09966	-0.00179083	    1.0241	-0.0017836	   1.08361	-0.00186712	   1.06912	-0.00181385	   1.06912	  -45.3462	
    1.2478	-0.00178614	    1.1734	-0.00177928	   1.23552	-0.00186268	   1.21891	-0.00180937	   1.21891	  -45.2342	
   1.39588	-0.00178137	   1.32213	-0.00177485	   1.38732	-0.00185799	   1.36844	-0.00180474	   1.36844	  -45.1184	
   1.54418	-0.00177653	   1.47156	-0.00177031	   1.53855	-0.00185305	    1.5181	-0.00179996	    1.5181	  -44.9991	
   1.69198	-0.00177161	   1.62142	-0.00176568	   1.69025	-0.00184789	   1.66788	-0.00179506	   1.66788	  -44.8765	
   1.83912	-0.00176663	   1.77026	-0.00176097	   1.84119	-0.00184254	   1.81685	-0.00179005	   1.81685	  -44.7511	
   1.98639	-0.00176157	   1.91865	-0.00175618	   1.99216	-0.00183707	   1.96574	-0.00178494	   1.96574	  -44.6236	
    2.1343	-0.00175645	    2.0674	-0.00175133	   2.14295	-0.00183155	   2.11488	-0.00177978	   2.11488	  -44.4944	
   2.28091	-0.00175124	   2.21673	-0.00174643	   2.29383	-0.00182601	   2.26382	-0.00177456	   2.26382	   -44.364	
   2.42683	-0.00174595	   2.36614	-0.00174148	   2.44482	-0.00182053	    2.4126	-0.00176932	    2.4126	  -44.2329	
   2.57287	-0.00174058	   2.51589	-0.00173648	    2.5964	-0.00181511	   2.56172	-0.00176406	   2.56172	  -44.1015	
   2.71929	-0.00173511	   2.66574	-0.00173144	   2.74806	-0.00180978	   2.71103	-0.00175878	   2.71103	  -43.9694	
   2.86562	-0.00172955	   2.81571	-0.00172634	   2.89934	-0.00180448	   2.86022	-0.00175346	   2.86022	  -43.8364	
   3.01238	-0.0017239	   2.96532	-0.00172117	   3.05125	-0.0017992	   3.00965	-0.00174809	   3.00965	  -43.7022	
   3.15885	-0.00171816	   3.11486	-0.00171593	   3.20255	-0.00179389	   3.15875	-0.00174266	   3.15875	  -43.5664	
    3.3058	-0.00171233	   3.26413	-0.00171064	   3.35355	-0.00178848	   3.30783	-0.00173715	   3.30783	  -43.4287	
    3.4537	-0.00170642	   3.41461	-0.00170526	   3.50453	-0.00178293	   3.45761	-0.00173154	   3.45761	  -43.2884	
   3.60156	-0.00170043	   3.56432	-0.00169977	   3.65526	-0.0017772	   3.60705	-0.0017258	   3.60705	   -43.145	
    3.7494	-0.00169438	   3.71356	-0.00169418	    3.8058	-0.00177126	   3.75625	-0.00171994	   3.75625	  -42.9984	
   3.89678	-0.00168826	   3.86264	-0.00168846	   3.95497	-0.00176511	    3.9048	-0.00171394	    3.9048	  -42.8486	
   4.04376	-0.00168208	   4.01113	-0.00168261	   4.10459	-0.00175879	   4.05316	-0.00170783	   4.05316	  -42.6957	
   4.19159	-0.00167584	   4.15933	-0.00167662	   4.25345	-0.00175233	   4.20146	-0.0017016	   4.20146	  -42.5399	
   4.33906	-0.00166954	   4.30656	-0.0016705	    4.4009	-0.00174576	   4.34884	-0.00169526	   4.34884	  -42.3816	
   4.48644	-0.00166316	   4.45415	-0.00166425	   4.54829	-0.00173911	   4.49629	-0.00168884	   4.49629	   -42.221	
   4.63403	-0.00165671	   4.60184	-0.0016579	   4.69398	-0.00173242	   4.64328	-0.00168235	   4.64328	  -42.0586	
   4.78207	-0.00165017	   4.74895	-0.00165148	    4.8374	-0.00172572	   4.78948	-0.00167579	   4.78948	  -41.8948	
   4.93032	-0.00164355	   4.89579	 -0.001645	   4.98047	 -0.001719	   4.93553	-0.00166918	   4.93553	  -41.7295	
   5.07735	-0.00163683	   5.04193	-0.00163846	   5.12278	-0.00171226	   5.08069	-0.00166252	   5.08069	   -41.563	
   5.22424	-0.00163002	   5.18794	-0.0016319	   5.26394	-0.00170549	   5.22538	-0.00165581	   5.22538	  -41.3952	
   5.37128	-0.00162312	   5.33314	-0.00162534	   5.40579	-0.00169868	   5.37007	-0.00164905	   5.37007	  -41.2261	
   5.51729	-0.00161613	   5.47788	-0.00161877	   5.54782	-0.0016918	   5.51433	-0.00164223	   5.51433	  -41.0558	
   5.66238	-0.00160906	   5.62271	-0.00161218	   5.69032	-0.00168482	   5.65847	-0.00163536	   5.65847	  -40.8839	
   5.80714	-0.00160192	   5.76694	-0.00160555	   5.83426	-0.00167774	   5.80278	-0.0016284	   5.80278	  -40.7101	
   5.95211	-0.00159472	    5.9109	-0.00159887	   5.98003	-0.00167053	   5.94768	-0.00162137	   5.94768	  -40.5343	
   6.09588	-0.00158745	   6.05416	-0.00159211	   6.12539	-0.00166316	   6.09181	-0.00161424	   6.09181	   -40.356	
   6.23906	-0.00158015	   6.19683	-0.00158525	   6.27014	-0.00165565	   6.23534	-0.00160702	   6.23534	  -40.1755	
   6.38246	-0.00157288	    6.3402	-0.00157827	   6.41582	-0.00164803	   6.37949	-0.00159973	   6.37949	  -39.9931	
   6.52587	-0.00156557	   6.48305	-0.00157114	   6.56192	-0.00164028	   6.52361	-0.00159233	   6.52361	  -39.8083	
   6.66932	-0.00155821	     6.625	-0.00156388	   6.70866	-0.00163244	   6.66766	-0.00158484	   6.66766	  -39.6211	
   6.81334	-0.00155076	   6.76711	-0.00155648	   6.85629	-0.00162454	   6.81225	-0.00157726	   6.81225	  -39.4315	
   6.95721	-0.00154319	   6.90894	-0.00154896	   7.00427	-0.0016166	   6.95681	-0.00156958	   6.95681	  -39.2396	
   7.10072	-0.00153547	   7.05057	-0.00154134	   7.15069	-0.00160866	   7.10066	-0.00156182	   7.10066	  -39.0455	
   7.24397	-0.00152752	   7.19252	-0.00153364	   7.29737	-0.00160069	   7.24462	-0.00155395	   7.24462	  -38.8488	
   7.38652	-0.00151934	   7.33507	-0.00152589	   7.44458	-0.00159273	   7.38873	-0.00154599	   7.38873	  -38.6496	
   7.52896	-0.00151094	   7.47654	-0.0015181	   7.59183	-0.00158475	   7.53244	-0.00153793	   7.53244	  -38.4483	
   7.67062	-0.00150234	   7.61705	-0.0015103	   7.73721	-0.00157673	   7.67496	-0.00152979	   7.67496	  -38.2447	
   7.81233	-0.00149361	   7.75817	-0.00150247	    7.8814	-0.00156863	    7.8173	-0.00152157	    7.8173	  -38.0392	
   7.95462	-0.00148477	   7.89895	-0.00149463	   8.02596	-0.00156042	   7.95984	-0.00151327	   7.95984	  -37.8319	
   8.09652	-0.00147587	   8.03897	-0.00148675	   8.17043	-0.00155209	   8.10197	-0.0015049	   8.10197	  -37.6225	
   8.23811	-0.00146696	   8.17933	-0.00147881	   8.31293	-0.00154358	   8.24346	-0.00149645	   8.24346	  -37.4113	
   8.37947	-0.00145813	   8.31955	-0.0014708	   8.45366	-0.00153491	   8.38422	-0.00148794	   8.38422	  -37.1986	
   8.52041	-0.0014494	   8.45994	-0.00146268	   8.59544	-0.00152606	   8.52527	-0.00147938	   8.52527	  -36.9845	
   8.66079	-0.00144076	   8.59982	-0.00145446	   8.73753	-0.00151703	   8.66605	-0.00147075	   8.66605	  -36.7687	
    8.8007	-0.00143219	   8.73976	-0.00144611	   8.87826	-0.00150789	   8.80624	-0.00146206	   8.80624	  -36.5516	
   8.94047	-0.00142368	   8.88006	-0.00143764	   9.01731	-0.00149865	   8.94594	-0.00145332	   8.94594	   -36.333	
   9.07896	-0.00141515	   9.01953	-0.00142905	   9.15799	-0.00148934	   9.08549	-0.00144451	   9.08549	  -36.1128	
   9.21656	-0.00140654	   9.15925	-0.00142035	   9.29975	-0.00148001	   9.22519	-0.00143563	   9.22519	  -35.8908	
   9.35366	-0.00139779	    9.2983	-0.00141155	   9.44014	-0.00147067	   9.36404	-0.00142667	   9.36404	  -35.6668	
   9.49059	-0.00138883	   9.43751	-0.00140268	   9.57861	-0.00146136	   9.50224	-0.00141762	   9.50224	  -35.4406	
    9.6267	-0.00137964	   9.57667	-0.00139376	   9.71848	-0.00145205	   9.64062	-0.00140848	   9.64062	  -35.2121	
   9.76261	-0.00137021	   9.71513	-0.00138479	   9.85994	-0.00144273	   9.77923	-0.00139924	   9.77923	   -34.981	
   9.89792	-0.00136055	   9.85324	-0.00137578	   9.99931	-0.00143336	   9.91682	-0.0013899	   9.91682	  -34.7475	
    10.033	-0.00135068	   9.99133	-0.00136675	    10.138	-0.00142394	   10.0541	-0.00138046	   10.0541	  -34.5114	
   10.1681	-0.00134065	   10.1292	-0.00135769	   10.2764	-0.00141439	   10.1912	-0.00137091	   10.1912	  -34.2728	
   10.3022	-0.00133054	   10.2662	-0.00134859	   10.4147	-0.00140469	   10.3277	-0.00136127	   10.3277	  -34.0318	
   10.4356	-0.0013204	   10.4035	-0.00133943	    10.552	-0.00139483	   10.4637	-0.00135155	   10.4637	  -33.7888	
   10.5684	-0.00131029	   10.5403	-0.00133021	   10.6882	-0.00138482	    10.599	-0.00134177	    10.599	  -33.5443	
   10.7006	-0.00130024	   10.6766	-0.0013209	   10.8233	-0.00137465	   10.7335	-0.00133193	   10.7335	  -33.2983	
   10.8325	-0.00129028	   10.8121	-0.0013115	   10.9592	-0.00136437	    10.868	-0.00132205	    10.868	  -33.0513	
   10.9637	-0.0012804	   10.9471	 -0.001302	    11.094	 -0.001354	   11.0016	-0.00131213	   11.0016	  -32.8033	
   11.0944	-0.00127057	   11.0815	-0.00129237	   11.2286	-0.00134359	   11.1349	-0.00130218	   11.1349	  -32.5545	
   11.2244	-0.00126075	   11.2154	-0.00128263	   11.3636	-0.00133317	   11.2678	-0.00129219	   11.2678	  -32.3047	
   11.3537	-0.00125089	   11.3485	-0.00127279	   11.4981	-0.00132277	   11.4001	-0.00128215	   11.4001	  -32.0538	
    11.483	-0.00124094	   11.4811	-0.00126285	   11.6314	-0.00131239	   11.5318	-0.00127206	   11.5318	  -31.8015	
   11.6123	-0.00123088	   11.6131	-0.00125283	    11.764	-0.00130202	   11.6631	-0.00126191	   11.6631	  -31.5477	
   11.7416	-0.00122066	   11.7446	-0.00124276	   11.8969	-0.00129162	   11.7943	-0.00125168	   11.7943	   -31.292	
   11.8713	-0.00121024	   11.8758	-0.00123264	   12.0295	-0.00128119	   11.9255	-0.00124136	   11.9255	  -31.0339	
   12.0002	-0.0011996	   12.0054	-0.00122251	   12.1609	-0.00127066	   12.0555	-0.00123093	   12.0555	  -30.7731	
   12.1286	-0.00118877	   12.1349	-0.00121238	   12.2921	-0.00126001	   12.1852	-0.00122038	   12.1852	  -30.5096	
   12.2566	-0.00117776	   12.2635	-0.00120224	   12.4228	-0.00124922	   12.3143	-0.00120974	   12.3143	  -30.2435	
   12.3841	-0.00116661	   12.3906	-0.00119209	   12.5525	-0.00123826	   12.4424	-0.00119899	   12.4424	  -29.9747	
   12.5119	-0.00115534	   12.5172	-0.00118192	    12.682	-0.00122716	   12.5704	-0.00118814	   12.5704	  -29.7035	
   12.6385	 -0.001144	   12.6431	-0.0011717	   12.8099	-0.00121592	   12.6972	-0.00117721	   12.6972	  -29.4302	
   12.7651	-0.00113264	   12.7688	-0.00116141	   12.9378	-0.00120455	   12.8239	-0.0011662	   12.8239	   -29.155	
   12.8913	-0.00112132	   12.8931	-0.00115101	   13.0642	-0.00119309	   12.9495	-0.00115514	   12.9495	  -28.8785	
   13.0167	-0.00111005	   13.0165	-0.00114049	   13.1904	-0.00118159	   13.0746	-0.00114404	   13.0746	  -28.6011	
   13.1425	-0.00109884	   13.1394	-0.00112983	   13.3166	-0.00117008	   13.1995	-0.00113292	   13.1995	  -28.3229	
   13.2676	-0.00108768	    13.262	-0.00111902	    13.441	-0.0011586	   13.3235	-0.00112177	   13.3235	  -28.0442	
   13.3922	-0.00107657	   13.3843	-0.00110808	   13.5657	-0.00114717	   13.4474	-0.00111061	   13.4474	  -27.7652	
   13.5169	-0.00106549	   13.5057	-0.00109703	     13.69	-0.00113579	   13.5709	-0.00109944	   13.5709	  -27.4859	
   13.6409	-0.00105437	   13.6261	-0.00108589	   13.8135	-0.00112447	   13.6935	-0.00108824	   13.6935	  -27.2061	
   13.7643	-0.00104318	   13.7464	-0.00107469	   13.9366	-0.00111317	   13.8158	-0.00107701	   13.8158	  -26.9253	
   13.8863	-0.00103187	   13.8665	-0.00106347	   14.0597	-0.00110186	   13.9375	-0.00106573	   13.9375	  -26.6433	
    14.007	-0.00102041	   13.9865	-0.00105227	   14.1824	-0.00109049	   14.0587	-0.00105439	   14.0587	  -26.3597	
   14.1279	-0.0010088	   14.1052	-0.00104106	   14.3043	-0.00107902	   14.1791	-0.00104296	   14.1791	   -26.074	
   14.2482	-0.000997007	   14.2232	-0.00102987	   14.4267	-0.00106744	   14.2994	-0.00103144	   14.2994	   -25.786	
   14.3684	-0.000985055	   14.3416	-0.00101871	   14.5485	-0.00105573	   14.4195	-0.00101983	   14.4195	  -25.4957	
   14.4882	-0.000972969	   14.4601	-0.00100753	   14.6694	-0.00104386	   14.5392	-0.00100812	   14.5392	   -25.203	
   14.6071	-0.000960791	   14.5775	-0.000996317	   14.7897	-0.00103183	   14.6581	-0.000996312	   14.6581	  -24.9078	
   14.7259	-0.000948566	   14.6953	-0.000985059	   14.9094	-0.00101966	   14.7769	-0.000984428	   14.7769	  -24.6107	
   14.8433	-0.000936332	   14.8122	-0.000973736	   15.0273	-0.00100738	   14.8942	-0.000972483	   14.8942	  -24.3121	
   14.9604	-0.000924124	   14.9283	-0.000962322	   15.1449	-0.000995026	   15.0112	-0.000960491	   15.0112	  -24.0123	
   15.0776	-0.00091197	   15.0442	-0.000950809	   15.2623	-0.000982623	    15.128	-0.000948467	    15.128	  -23.7117	
   15.1938	-0.000899878	   15.1593	-0.000939204	   15.3784	-0.000970209	   15.2438	-0.00093643	   15.2438	  -23.4108	
   15.3095	-0.000887842	   15.2743	-0.000927496	   15.4935	-0.000957819	   15.3591	-0.000924386	   15.3591	  -23.1096	
   15.4247	-0.000875834	   15.3887	-0.000915695	   15.6078	-0.000945461	   15.4737	-0.00091233	   15.4737	  -22.8082	
   15.5394	-0.000863821	   15.5024	-0.000903827	   15.7214	-0.000933147	   15.5877	-0.000900265	   15.5877	  -22.5066	
   15.6534	-0.000851768	   15.6154	-0.000891903	   15.8335	-0.000920866	   15.7007	-0.000888179	   15.7007	  -22.2045	
   15.7663	-0.000839634	   15.7279	-0.000879935	   15.9465	-0.000908595	   15.8136	-0.000876055	   15.8136	  -21.9014	
   15.8787	-0.000827382	   15.8403	-0.000867951	   16.0586	-0.000896303	   15.9258	-0.000863879	   15.9258	   -21.597	
   15.9904	-0.000814986	   15.9519	-0.000855966	   16.1702	-0.000883956	   16.0375	-0.000851636	   16.0375	  -21.2909	
   16.1024	-0.000802444	   16.0636	-0.000843986	   16.2817	-0.00087153	   16.1493	-0.00083932	   16.1493	   -20.983	
   16.2136	-0.000789764	   16.1749	-0.000832015	   16.3927	-0.000858996	   16.2604	-0.000826925	   16.2604	  -20.6731	
   16.3238	-0.000776976	   16.2863	-0.000820058	   16.5036	-0.000846339	   16.3712	-0.000814458	   16.3712	  -20.3614	
   16.4335	-0.000764119	   16.3977	-0.000808097	   16.6148	-0.000833568	    16.482	-0.000801928	    16.482	  -20.0482	
   16.5423	-0.000751235	   16.5084	-0.000796118	   16.7253	-0.000820691	    16.592	-0.000789348	    16.592	  -19.7337	
   16.6502	-0.000738378	   16.6189	-0.000784107	   16.8353	-0.000807736	   16.7015	-0.00077674	   16.7015	  -19.4185	
   16.7574	-0.000725595	   16.7296	-0.000772038	   16.9441	-0.00079473	   16.8104	-0.000764121	   16.8104	   -19.103	
   16.8636	-0.000712913	   16.8389	-0.000759897	   17.0528	-0.000781704	   16.9185	-0.000751504	   16.9185	  -18.7876	
   16.9693	-0.000700338	   16.9472	-0.000747676	   17.1598	-0.000768689	   17.0254	-0.000738901	   17.0254	  -18.4725	
   17.0739	-0.000687863	   17.0546	-0.00073537	   17.2662	-0.000755699	   17.1316	-0.000726311	   17.1316	  -18.1578	
   17.1775	-0.000675457	   17.1611	-0.000722978	    17.371	-0.000742747	   17.2365	-0.000713727	   17.2365	  -17.8432	
   17.2806	-0.000663068	   17.2665	-0.000710513	   17.4748	-0.000729826	   17.3406	-0.000701136	   17.3406	  -17.5284	
   17.3823	-0.00065065	   17.3707	-0.000697994	   17.5778	-0.000716907	   17.4436	-0.000688517	   17.4436	  -17.2129	
    17.483	-0.000638139	   17.4741	-0.000685429	   17.6807	-0.000703969	    17.546	-0.000675846	    17.546	  -16.8961	
   17.5835	-0.000625465	   17.5773	-0.000672837	   17.7828	-0.000690996	   17.6479	-0.000663099	   17.6479	  -16.5775	
   17.6831	-0.000612621	   17.6791	-0.000660241	   17.8842	-0.000677957	   17.7488	-0.000650273	   17.7488	  -16.2568	
   17.7823	-0.000599605	   17.7806	-0.000647646	   17.9857	-0.000664827	   17.8496	-0.000637359	   17.8496	   -15.934	
    17.881	-0.000586412	   17.8817	-0.000635058	   18.0868	-0.0006516	   17.9498	-0.000624357	   17.9498	  -15.6089	
   17.9787	-0.000573072	   17.9816	-0.000622481	   18.1863	-0.000638276	   18.0489	-0.000611276	   18.0489	  -15.2819	
   18.0769	-0.000559643	   18.0805	-0.000609912	   18.2863	-0.000624851	   18.1479	-0.000598135	   18.1479	  -14.9534	
    18.174	-0.0005462	   18.1787	-0.000597336	   18.3853	-0.000611345	    18.246	-0.00058496	    18.246	   -14.624	
   18.2703	-0.00053279	   18.2761	-0.000584744	   18.4835	-0.000597781	   18.3433	-0.000571771	   18.3433	  -14.2943	
   18.3654	-0.000519452	   18.3734	-0.000572123	   18.5799	-0.000584179	   18.4396	-0.000558585	   18.4396	  -13.9646	
   18.4598	-0.000506241	   18.4701	-0.000559459	   18.6761	-0.000570559	   18.5353	-0.00054542	   18.5353	  -13.6355	
   18.5548	-0.000493155	   18.5653	-0.000546745	   18.7709	-0.000556953	   18.6304	-0.000532284	   18.6304	  -13.3071	
   18.6487	-0.000480186	   18.6591	-0.000533976	    18.865	-0.000543381	   18.7243	-0.000519181	   18.7243	  -12.9795	
   18.7418	-0.000467319	   18.7518	-0.000521153	   18.9579	-0.000529842	   18.8172	-0.000506105	   18.8172	  -12.6526	
   18.8353	-0.000454502	   18.8441	-0.000508278	   19.0497	-0.000516345	   18.9097	-0.000493042	   18.9097	   -12.326	
   18.9282	-0.00044168	   18.9356	-0.000495364	   19.1407	-0.000502884	   19.0015	-0.000479976	   19.0015	  -11.9994	
   19.0199	-0.000428805	   19.0258	-0.000482422	   19.2312	-0.000489442	   19.0923	-0.00046689	   19.0923	  -11.6722	
   19.1107	-0.000415829	   19.1155	-0.00046946	    19.321	-0.000475998	   19.1824	-0.000453763	   19.1824	  -11.3441	
   19.2004	-0.000402726	   19.2044	-0.000456494	   19.4099	-0.000462533	   19.2716	-0.000440584	   19.2716	  -11.0146	
   19.2902	-0.000389465	   19.2931	-0.000443532	   19.4986	-0.000449019	   19.3606	-0.000427339	   19.3606	  -10.6835	
   19.3791	-0.000376047	   19.3812	-0.000430577	   19.5867	-0.000435434	    19.449	-0.000414019	    19.449	  -10.3505	
   19.4672	-0.000362492	   19.4689	-0.000417634	   19.6741	-0.000421775	   19.5367	-0.000400633	   19.5367	  -10.0158	
   19.5532	-0.000348835	   19.5564	-0.000404701	   19.7606	-0.000408037	   19.6234	-0.000387191	   19.6234	  -9.67977	
   19.6386	-0.00033513	   19.6429	-0.000391772	   19.8469	-0.000394224	   19.7095	-0.000373708	   19.7095	  -9.34271	
   19.7224	-0.000321428	   19.7288	-0.000378837	   19.9325	-0.000380353	   19.7946	-0.000360206	   19.7946	  -9.00515	
   19.8052	-0.000307793	   19.8137	-0.000365892	    20.017	-0.000366447	   19.8786	-0.000346711	   19.8786	  -8.66777	
   19.8854	-0.000294276	   19.8983	-0.000352929	   20.1012	-0.000352523	   19.9616	-0.000333243	   19.9616	  -8.33107	
   19.9648	-0.000280907	   19.9826	-0.000339939	   20.1849	-0.000338608	   20.0441	-0.000319818	   20.0441	  -7.99545	
   20.0442	-0.000267685	   20.0653	-0.000326921	    20.267	-0.000324724	   20.1255	-0.000306443	   20.1255	  -7.66109	
    20.123	-0.000254583	   20.1478	-0.000313873	   20.3492	-0.000310881	   20.2067	-0.000293112	   20.2067	   -7.3278	
   20.2006	-0.000241557	   20.2291	-0.000300796	   20.4303	-0.000297082	   20.2867	-0.000279811	   20.2867	  -6.99529	
   20.2763	-0.000228545	   20.3091	-0.000287697	   20.5101	-0.000283325	   20.3652	-0.000266522	   20.3652	  -6.66306	
   20.3513	-0.000215476	   20.3884	-0.000274586	   20.5898	-0.000269595	   20.4432	-0.000253219	   20.4432	  -6.33047	
   20.4241	-0.000202292	   20.4666	-0.000261469	   20.6686	-0.000255871	   20.5198	-0.000239877	   20.5198	  -5.99692	
    20.496	-0.000188951	   20.5438	-0.000248352	   20.7474	-0.00024213	   20.5957	-0.000226478	   20.5957	  -5.66195	
   20.5669	-0.000175443	   20.6212	-0.000235246	   20.8248	-0.000228356	    20.671	-0.000213015	    20.671	  -5.32537	
   20.6372	-0.000161783	   20.6971	-0.000222154	   20.9015	-0.000214531	   20.7452	-0.00019949	   20.7452	  -4.98724	
   20.7083	-0.000148003	   20.7721	-0.000209078	   20.9772	-0.00020065	   20.8192	-0.00018591	   20.8192	  -4.64776	
   20.7802	-0.000134154	   20.8462	-0.000196014	   21.0517	-0.000186716	   20.8927	-0.000172295	   20.8927	  -4.30737	
   20.8524	-0.000120287	   20.9199	-0.000182957	   21.1265	-0.000172738	   20.9663	-0.000158661	   20.9663	  -3.96652	
   20.9239	-0.000106455	   20.9929	-0.000169903	   21.2002	-0.000158732	    21.039	-0.00014503	    21.039	  -3.62574	
   20.9954	-9.27331e-05	    21.065	-0.000156847	    21.273	-0.000144725	   21.1111	-0.000131435	   21.1111	  -3.28587	
   21.0672	-7.91746e-05	   21.1368	-0.000143781	   21.3454	-0.000130736	   21.1831	-0.000117897	   21.1831	  -2.94743	
   21.1377	-6.57792e-05	   21.2075	-0.0001307	   21.4173	-0.000116784	   21.2541	-0.000104421	   21.2541	  -2.61053	
   21.2075	-5.25479e-05	    21.276	-0.0001176	   21.4884	-0.000102881	    21.324	-9.10098e-05	    21.324	  -2.27525	
   21.2777	-3.94735e-05	   21.3437	-0.000104481	   21.5582	-8.90344e-05	   21.3932	-7.7663e-05	   21.3932	  -1.94157	
   21.3475	-2.65148e-05	   21.4106	-9.13409e-05	   21.6277	-7.52403e-05	   21.4619	-6.43653e-05	   21.4619	  -1.60913	
   21.4157	-1.36081e-05	   21.4768	-7.81374e-05	   21.6965	-6.14881e-05	   21.5297	-5.10779e-05	   21.5297	  -1.27695	
   21.4826	-6.81852e-07	   21.5419	-6.48944e-05	    21.764	-4.77656e-05	   21.5962	-3.77806e-05	   21.5962	 -0.944516	
   21.5502	1.22999e-05	   21.6065	-5.16301e-05	   21.8305	-3.4051e-05	   21.6624	-2.44604e-05	   21.6624	 -0.611511	
   21.6183	2.53982e-05	   21.6705	-3.8365e-05	   21.8961	-2.03323e-05	   21.7283	-1.10997e-05	   21.7283	 -0.277492	
   21.6836	3.8646e-05	   21.7333	-2.51187e-05	   21.9605	-6.59647e-06	   21.7925	2.31028e-06	   21.7925	 0.0577569	
   21.7478	5.2051e-05	   21.7944	-1.19038e-05	   22.0246	7.16984e-06	   21.8556	1.57723e-05	   21.8556	  0.394309	
   21.8113	6.56026e-05	   21.8546	1.24391e-06	   22.0881	2.09714e-05	    21.918	2.92726e-05	    21.918	  0.731816	
   21.8733	7.92648e-05	   21.9138	1.43244e-05	   22.1505	3.48061e-05	   21.9792	4.27984e-05	   21.9792	   1.06996	
   21.9323	9.29949e-05	   21.9725	2.73383e-05	   22.2135	4.86651e-05	   22.0394	5.63327e-05	   22.0394	   1.40832	
   21.9893	0.000106722	   22.0309	4.02902e-05	   22.2755	6.2535e-05	   22.0986	6.98491e-05	   22.0986	   1.74623	
    22.047	0.000120389	   22.0886	5.32095e-05	   22.3364	7.6399e-05	   22.1573	8.33323e-05	   22.1573	   2.08331	
   22.1039	0.000133961	   22.1451	6.61125e-05	   22.3965	9.02414e-05	   22.2152	9.67716e-05	   22.2152	   2.41929	
    22.159	0.000147381	   22.2001	7.9014e-05	    22.456	0.000104046	   22.2717	0.000110147	   22.2717	   2.75368	
   22.2126	0.000160634	   22.2543	9.19522e-05	   22.5144	0.000117801	   22.3271	0.000123462	   22.3271	   3.08656	
   22.2686	0.000173729	   22.3081	0.000104957	    22.572	0.000131496	   22.3829	0.000136727	   22.3829	   3.41818	
   22.3242	0.000186684	   22.3615	0.000118044	   22.6279	0.000145137	   22.4379	0.000149955	   22.4379	   3.74888	
   22.3775	0.000199543	   22.4142	0.000131204	   22.6828	0.000158734	   22.4915	0.00016316	   22.4915	   4.07901	
    22.429	0.000212353	   22.4655	0.000144424	   22.7358	0.000172299	   22.5434	0.000176359	   22.5434	   4.40896	
     22.48	0.000225175	    22.516	0.000157691	   22.7885	0.000185853	   22.5948	0.000189573	   22.5948	   4.73933	
   22.5306	0.000238059	   22.5656	0.000170976	   22.8399	0.000199406	   22.6454	0.000202814	   22.6454	   5.07034	
   22.5795	0.000251036	   22.6138	0.000184249	   22.8897	0.000212964	   22.6943	0.000216083	   22.6943	   5.40208	
   22.6265	0.00026413	   22.6617	0.000197474	    22.939	0.000226532	   22.7424	0.000229379	   22.7424	   5.73447	
   22.6731	0.000277332	    22.709	0.000210616	   22.9875	0.000240102	   22.7899	0.000242684	   22.7899	   6.06709	
   22.7184	0.000290625	   22.7551	0.000223658	   23.0344	0.000253655	    22.836	0.000255979	    22.836	   6.39948	
   22.7614	0.000303968	   22.8004	0.000236592	   23.0806	0.000267171	   22.8808	0.000269244	   22.8808	   6.73109	
    22.803	0.000317309	   22.8444	0.000249425	    23.125	0.000280637	   22.9241	0.000282457	   22.9241	   7.06142	
   22.8447	0.000330596	    22.887	0.000262169	   23.1686	0.000294035	   22.9668	 0.0002956	   22.9668	   7.38999	
   22.8856	0.00034377	    22.929	0.000274847	   23.2112	0.00030735	   23.0086	0.000308655	   23.0086	   7.71638	
    22.925	0.000356792	   22.9699	0.000287492	   23.2528	0.000320583	   23.0492	0.000321622	   23.0492	   8.04055	
   22.9628	0.00036964	   23.0094	0.000300136	   23.2932	0.000333733	   23.0885	0.000334503	   23.0885	   8.36258	
   23.0005	0.000382312	   23.0466	0.000312805	   23.3326	0.000346816	   23.1265	0.000347311	   23.1265	   8.68277	
   23.0384	0.000394827	   23.0828	0.000325515	   23.3717	0.000359877	   23.1643	0.000360073	   23.1643	   9.00183	
   23.0753	0.000407219	   23.1183	0.000338269	   23.4103	0.000372941	   23.2013	0.000372809	   23.2013	   9.32023	
   23.1113	0.000419539	   23.1523	0.000351064	   23.4471	0.000386005	   23.2369	0.000385536	   23.2369	    9.6384	
   23.1462	0.000431844	   23.1854	0.000363887	   23.4834	 0.0003991	   23.2717	0.000398277	   23.2717	   9.95693	
   23.1811	0.000444181	   23.2179	0.000376709	   23.5182	0.00041224	   23.3058	0.000411043	   23.3058	   10.2761	
   23.2141	0.000456589	   23.2496	0.000389503	   23.5524	0.000425408	   23.3387	0.000423833	   23.3387	   10.5958	
   23.2465	0.000469092	   23.2806	0.000402244	   23.5852	0.000438587	   23.3707	0.000436641	   23.3707	    10.916	
   23.2791	0.000481698	   23.3099	0.000414914	   23.6165	0.000451767	   23.4018	0.00044946	   23.4018	   11.2365	
   23.3105	0.000494386	    23.339	0.000427497	   23.6474	0.000464931	   23.4323	0.000462271	   23.4323	   11.5568	
   23.3413	0.00050712	   23.3678	0.000439985	   23.6769	0.000478036	    23.462	0.000475047	    23.462	   11.8762	
   23.3706	0.000519853	   23.3949	0.00045238	   23.7057	0.000491062	   23.4904	0.000487765	   23.4904	   12.1941	
   23.4002	0.000532532	   23.4216	0.000464695	   23.7329	0.000504014	   23.5183	0.000500414	   23.5183	   12.5103	
    23.429	0.00054511	   23.4473	0.000476949	   23.7595	0.000516853	   23.5453	0.00051297	   23.5453	   12.8243	
   23.4565	0.000557551	   23.4727	0.000489165	   23.7856	0.000529574	   23.5716	0.00052543	   23.5716	   13.1358	
   23.4824	0.000569837	    23.497	0.000501366	   23.8109	0.000542199	   23.5968	0.000537801	   23.5968	    13.445	
   23.5076	0.000581961	   23.5209	0.000513618	   23.8342	0.00055473	   23.6209	0.000550103	   23.6209	   13.7526	
    23.532	0.000593944	   23.5436	0.000525913	   23.8567	0.000567179	   23.6441	0.000562345	   23.6441	   14.0586	
   23.5556	0.000605811	   23.5664	0.000538243	   23.8788	0.000579573	    23.667	0.000574543	    23.667	   14.3636	
   23.5784	0.000617605	   23.5881	0.000550592	   23.9002	0.000591947	   23.6889	0.000586715	   23.6889	   14.6679	
   23.5999	0.000629376	   23.6097	0.000562933	   23.9205	0.000604319	     23.71	0.000598876	     23.71	   14.9719	
   23.6206	0.000641162	   23.6302	0.00057524	   23.9401	0.000616713	   23.7303	0.000611038	   23.7303	    15.276	
   23.6412	0.000652999	   23.6494	0.000587456	   23.9589	0.000629148	   23.7498	0.000623201	   23.7498	     15.58	
   23.6601	0.000664906	   23.6672	0.000599565	   23.9763	0.000641615	   23.7678	0.000635362	   23.7678	    15.884	
   23.6781	0.000676887	   23.6846	0.000611548	   23.9922	0.000654104	    23.785	0.000647513	    23.785	   16.1878	
   23.6955	0.00068893	   23.7016	0.000623392	   24.0073	0.000666603	   23.8015	0.000659641	   23.8015	    16.491	
    23.712	0.000701004	   23.7175	0.000635113	   24.0211	0.000679081	   23.8169	0.000671733	   23.8169	   16.7933	
   23.7274	0.000713074	    23.732	0.000646725	   24.0341	0.000691508	   23.8312	0.000683769	   23.8312	   17.0942	
   23.7421	0.000725098	   23.7454	0.000658248	   24.0452	0.000703862	   23.8442	0.000695736	   23.8442	   17.3934	
   23.7556	0.000737031	   23.7576	0.000669725	   24.0551	0.000716119	   23.8561	0.000707625	   23.8561	   17.6906	
   23.7692	0.000748842	   23.7696	 0.0006812	   24.0639	0.000728263	   23.8675	0.000719435	   23.8675	   17.9859	
   23.7811	0.000760504	   23.7803	0.000692713	   24.0723	0.000740293	   23.8779	0.00073117	   23.8779	   18.2792	
   23.7917	0.000772011	   23.7901	0.000704271	   24.0796	0.000752221	   23.8872	0.000742834	   23.8872	   18.5709	
   23.8019	0.000783365	   23.7991	0.000715881	    24.086	0.000764056	   23.8957	0.000754434	   23.8957	   18.8609	
   23.8115	0.000794587	   23.8075	0.000727545	   24.0915	0.000775823	   23.9035	0.000765985	   23.9035	   19.1496	
   23.8206	0.000805702	   23.8151	0.000739238	   24.0962	0.000787554	   23.9106	0.000777498	   23.9106	   19.4374	
   23.8282	0.000816743	   23.8217	0.000750935	   24.1001	0.000799267	   23.9167	0.000788981	   23.9167	   19.7245	
   23.8355	0.000827755	   23.8276	0.000762589	   24.1047	0.000811015	   23.9226	0.000800453	   23.9226	   20.0113	
   23.8409	0.000838777	   23.8335	0.000774158	   24.1081	0.00082281	   23.9275	0.000811915	   23.9275	   20.2979	
   23.8453	0.000849838	    23.838	0.000785609	   24.1107	0.000834652	   23.9313	0.000823366	   23.9313	   20.5842	
   23.8491	0.000860961	   23.8412	0.000796921	   24.1132	0.000846506	   23.9345	0.000834796	   23.9345	   20.8699	
    23.852	0.000872154	   23.8439	0.000808086	   24.1149	0.00085836	   23.9369	 0.0008462	   23.9369	    21.155	
   23.8538	0.000883407	   23.8454	0.000819104	   24.1161	0.000870181	   23.9384	0.000857564	   23.9384	   21.4391	
   23.8549	0.000894691	   23.8465	0.000829996	   24.1153	0.000881913	   23.9389	0.000868867	   23.9389	   21.7217	
   23.8553	0.000905967	   23.8458	0.000840795	   24.1133	0.000893524	   23.9381	0.000880095	   23.9381	   22.0024	
   23.8543	0.000917185	   23.8437	0.000851538	   24.1101	0.000904995	    23.936	0.000891239	    23.936	    22.281	
   23.8528	0.000928301	   23.8408	0.000862265	   24.1067	0.000916316	   23.9334	0.000902294	   23.9334	   22.5573	
   23.8501	0.000939279	   23.8381	0.000873007	   24.1021	0.000927503	   23.9301	0.000913263	   23.9301	   22.8316	
    23.847	0.000950097	   23.8354	0.000883785	    24.096	0.000938575	   23.9261	0.000924152	   23.9261	   23.1038	
   23.8424	0.000960756	   23.8309	0.000894609	   24.0885	0.000949557	   23.9206	0.000934974	   23.9206	   23.3743	
   23.8369	0.000971253	   23.8259	0.000905476	   24.0805	0.000960492	   23.9144	0.00094574	   23.9144	   23.6435	
   23.8305	0.000981607	   23.8194	0.000916367	   24.0718	0.000971431	   23.9072	0.000956468	   23.9072	   23.9117	
   23.8227	0.00099185	    23.811	0.00092725	    24.062	0.000982425	   23.8986	0.000967175	   23.8986	   24.1794	
   23.8142	0.00100203	   23.8019	0.000938092	   24.0512	0.000993483	   23.8891	0.000977867	   23.8891	   24.4467	
   23.8052	0.00101218	    23.792	0.000948863	   24.0395	0.00100461	   23.8789	0.000988551	   23.8789	   24.7138	
   23.7943	0.00102233	   23.7806	0.000959532	   24.0271	0.00101581	   23.8673	0.000999223	   23.8673	   24.9806	
   23.7822	0.00103253	   23.7678	0.000970078	    24.013	0.00102704	   23.8543	0.00100988	   23.8543	   25.2471	
   23.7691	0.00104277	   23.7539	0.000980489	   23.9985	0.00103828	   23.8405	0.00102051	   23.8405	   25.5129	
   23.7546	0.00105304	   23.7388	0.000990763	   23.9835	0.00104948	   23.8256	0.00103109	   23.8256	   25.7773	
   23.7395	0.00106333	   23.7229	0.00100091	   23.9674	0.00106058	   23.8099	 0.0010416	   23.8099	   26.0401	
   23.7227	 0.0010736	   23.7062	0.00101096	   23.9511	0.00107154	   23.7933	0.00105203	   23.7933	   26.3008	
   23.7055	0.00108383	    23.688	0.00102094	    23.934	0.00108233	   23.7758	0.00106237	   23.7758	   26.5592	
   23.6869	0.00109398	   23.6683	0.00103089	   23.9159	0.00109296	    23.757	0.00107261	    23.757	   26.8152	
   23.6675	0.00110403	   23.6476	0.00104082	   23.8965	0.00110342	   23.7372	0.00108276	   23.7372	   27.0689	
   23.6469	0.00111396	   23.6267	0.00105078	   23.8759	0.00111372	   23.7165	0.00109282	   23.7165	   27.3205	
   23.6244	0.00112375	   23.6049	0.00106076	   23.8542	 0.0011239	   23.6945	 0.0011028	   23.6945	   27.5701	
   23.6006	0.00113341	   23.5826	0.00107077	   23.8317	0.00113402	   23.6717	0.00111273	   23.6717	   27.8183	
   23.5759	0.00114295	   23.5598	 0.0010808	   23.8078	 0.0011441	   23.6478	0.00112262	   23.6478	   28.0655	
   23.5506	0.00115239	   23.5357	0.00109083	   23.7833	 0.0011542	   23.6232	0.00113248	   23.6232	   28.3119	
   23.5244	0.00116176	   23.5115	0.00110083	   23.7584	0.00116434	   23.5981	0.00114231	   23.5981	   28.5578	
   23.4971	 0.0011711	   23.4871	0.00111076	   23.7324	0.00117453	   23.5722	0.00115213	   23.5722	   28.8033	
   23.4688	0.00118043	   23.4614	0.00112059	   23.7053	0.00118476	   23.5452	0.00116193	   23.5452	   29.0482	
   23.4396	0.00118975	   23.4342	0.00113029	   23.6768	0.00119502	   23.5169	0.00117169	   23.5169	   29.2922	
   23.4099	0.00119907	   23.4066	0.00113983	   23.6476	0.00120526	    23.488	0.00118139	    23.488	   29.5347	
   23.3796	0.00120841	   23.3778	 0.0011492	   23.6165	0.00121546	    23.458	0.00119102	    23.458	   29.7755	
   23.3489	0.00121773	   23.3475	0.00115843	    23.585	0.00122557	   23.4271	0.00120058	   23.4271	   30.0144	
   23.3172	0.00122703	   23.3164	0.00116753	   23.5536	0.00123556	   23.3957	0.00121004	   23.3957	   30.2511	
   23.2849	0.00123629	   23.2845	0.00117654	   23.5215	 0.0012454	   23.3637	0.00121941	   23.3637	   30.4852	
   23.2527	0.00124546	   23.2508	 0.0011855	   23.4883	0.00125509	   23.3306	0.00122868	   23.3306	   30.7171	
   23.2193	0.00125454	   23.2163	0.00119446	   23.4547	0.00126462	   23.2967	0.00123787	   23.2967	   30.9469	
   23.1847	 0.0012635	   23.1815	0.00120344	   23.4205	0.00127401	   23.2622	0.00124698	   23.2622	   31.1746	
   23.1492	0.00127234	   23.1454	0.00121248	   23.3849	0.00128329	   23.2265	0.00125603	   23.2265	   31.4009	
   23.1135	0.00128105	    23.109	0.00122159	   23.3485	0.00129248	   23.1903	0.00126504	   23.1903	    31.626	
   23.0764	0.00128965	   23.0724	0.00123075	   23.3111	0.00130163	   23.1533	0.00127401	   23.1533	   31.8502	
   23.0381	0.00129816	   23.0347	0.00123994	   23.2733	0.00131076	   23.1153	0.00128295	   23.1153	   32.0738	
   22.9995	0.00130659	   22.9957	0.00124914	   23.2347	0.00131989	   23.0767	0.00129187	   23.0767	   32.2968	
   22.9605	0.00131498	   22.9561	0.00125827	   23.1957	0.00132905	   23.0374	0.00130077	   23.0374	   32.5191	
   22.9209	0.00132335	   22.9155	0.00126728	   23.1562	0.00133822	   22.9975	0.00130962	   22.9975	   32.7404	
   22.8806	 0.0013317	   22.8741	0.00127614	   23.1151	 0.0013474	   22.9566	0.00131842	   22.9566	   32.9604	
     22.84	0.00134006	   22.8315	0.00128482	   23.0733	0.00135657	    22.915	0.00132715	    22.915	   33.1788	
   22.7979	0.00134841	   22.7886	 0.0012933	   23.0303	 0.0013657	   22.8723	 0.0013358	   22.8723	   33.3951	
   22.7548	0.00135675	   22.7441	0.00130158	   22.9857	0.00137475	   22.8282	0.00134436	   22.8282	    33.609	
   22.7113	0.00136507	   22.6989	0.00130969	   22.9405	0.00138369	   22.7835	0.00135282	   22.7835	   33.8205	
   22.6666	0.00137335	    22.653	0.00131767	   22.8942	 0.0013925	   22.7379	0.00136117	   22.7379	   34.0294	
   22.6213	0.00138156	   22.6055	0.00132557	   22.8468	0.00140117	   22.6912	0.00136943	   22.6912	   34.2358	
   22.5752	0.00138968	   22.5572	0.00133346	   22.7983	0.00140969	   22.6436	0.00137761	   22.6436	   34.4403	
    22.528	 0.0013977	   22.5078	0.00134139	   22.7493	0.00141808	    22.595	0.00138572	    22.595	   34.6431	
   22.4792	0.00140561	   22.4571	0.00134939	   22.6992	0.00142636	   22.5451	0.00139379	   22.5451	   34.8446	
   22.4283	0.00141341	   22.4057	0.00135749	   22.6474	0.00143455	   22.4938	0.00140182	   22.4938	   35.0454	
   22.3763	0.00142111	   22.3536	0.00136567	   22.5951	 0.0014427	   22.4417	0.00140983	   22.4417	   35.2457	
   22.3229	0.00142875	   22.3004	0.00137391	   22.5423	0.00145082	   22.3886	0.00141783	   22.3886	   35.4457	
   22.2684	0.00143635	   22.2465	0.00138217	   22.4879	0.00145895	   22.3343	0.00142582	   22.3343	   35.6455	
   22.2125	0.00144393	   22.1916	0.00139038	   22.4327	0.00146709	    22.279	 0.0014338	    22.279	    35.845	
   22.1554	 0.0014515	   22.1364	0.00139848	   22.3763	0.00147524	   22.2227	0.00144174	   22.2227	   36.0434	
   22.0979	0.00145904	   22.0796	0.00140643	   22.3182	 0.0014834	   22.1652	0.00144962	   22.1652	   36.2406	
   22.0402	0.00146656	   22.0224	0.00141423	   22.2595	0.00149154	   22.1074	0.00145744	   22.1074	    36.436	
   21.9822	0.00147403	   21.9635	0.00142182	   22.2005	0.00149963	   22.0487	0.00146516	   22.0487	    36.629	
    21.923	0.00148142	   21.9047	0.00142921	   22.1406	0.00150761	   21.9895	0.00147275	   21.9895	   36.8188	
   21.8634	0.00148872	   21.8453	0.00143647	   22.0795	0.00151548	   21.9294	0.00148022	   21.9294	   37.0056	
   21.8024	0.00149589	   21.7849	 0.0014436	   22.0181	0.00152324	   21.8685	0.00148758	   21.8685	   37.1894	
   21.7401	0.00150295	   21.7235	0.00145062	   21.9563	0.00153086	   21.8066	0.00149481	   21.8066	   37.3703	
   21.6762	0.00150988	   21.6615	0.00145762	   21.8933	0.00153837	   21.7437	0.00150196	   21.7437	   37.5489	
   21.6126	0.00151671	   21.5992	0.00146464	   21.8299	0.00154577	   21.6806	0.00150904	   21.6806	    37.726	
   21.5484	0.00152344	   21.5362	0.00147169	    21.766	0.00155312	   21.6169	0.00151608	   21.6169	   37.9021	
   21.4827	0.00153009	   21.4726	0.00147878	   21.7016	0.00156045	   21.5523	0.00152311	   21.5523	   38.0776	
   21.4165	0.00153668	   21.4087	0.00148595	    21.637	0.00156778	   21.4874	0.00153014	   21.4874	   38.2534	
   21.3493	0.00154327	    21.344	0.00149315	   21.5716	0.00157512	   21.4216	0.00153718	   21.4216	   38.4295	
   21.2813	0.00154985	    21.279	0.00150034	   21.5047	0.00158247	    21.355	0.00154422	    21.355	   38.6055	
   21.2128	0.00155643	   21.2136	0.00150751	   21.4376	0.00158981	    21.288	0.00155125	    21.288	   38.7812	
    21.143	0.00156301	   21.1475	 0.0015146	   21.3694	0.00159712	     21.22	0.00155824	     21.22	    38.956	
   21.0718	0.00156961	   21.0801	0.00152156	   21.3008	0.00160435	   21.1509	0.00156517	   21.1509	   39.1293	
   21.0005	0.00157621	   21.0124	0.00152838	   21.2308	0.00161147	   21.0812	0.00157202	   21.0812	   39.3005	
   20.9277	0.00158278	   20.9433	0.00153505	   21.1595	0.00161846	   21.0101	0.00157876	   21.0101	   39.4691	
   20.8545	0.00158932	    20.873	0.00154156	   21.0871	 0.0016253	   20.9382	0.00158539	   20.9382	   39.6348	
   20.7799	 0.0015958	   20.8019	0.00154793	   21.0133	0.00163199	    20.865	0.00159191	    20.865	   39.7976	
   20.7049	 0.0016022	   20.7295	0.00155419	   20.9384	0.00163855	   20.7909	0.00159831	   20.7909	   39.9578	
   20.6296	0.00160847	   20.6564	0.00156038	   20.8628	0.00164501	   20.7163	0.00160462	   20.7163	   40.1155	
   20.5528	0.00161463	   20.5827	0.00156654	   20.7859	0.00165138	   20.6405	0.00161085	   20.6405	   40.2713	
   20.4754	0.00162066	   20.5073	0.00157271	   20.7079	0.00165772	   20.5636	0.00161703	   20.5636	   40.4257	
   20.3973	0.00162655	   20.4319	0.00157893	   20.6294	0.00166403	   20.4862	0.00162317	   20.4862	   40.5793	
   20.3181	0.00163234	    20.355	0.00158519	   20.5494	0.00167034	   20.4075	0.00162929	   20.4075	   40.7322	
   20.2387	0.00163803	   20.2772	 0.0015915	   20.4688	0.00167666	   20.3282	 0.0016354	   20.3282	   40.8849	
   20.1584	0.00164366	   20.1981	0.00159783	   20.3878	0.00168299	   20.2481	0.00164149	   20.2481	   41.0373	
   20.0778	0.00164926	   20.1181	0.00160414	   20.3061	 0.0016893	   20.1673	0.00164757	   20.1673	   41.1892	
   19.9964	0.00165485	   20.0373	0.00161042	   20.2231	0.00169557	   20.0856	0.00165361	   20.0856	   41.3403	
    19.914	0.00166044	   19.9558	0.00161661	   20.1398	0.00170178	   20.0032	0.00165961	   20.0032	   41.4903	
   19.8315	0.00166606	   19.8735	0.00162268	   20.0559	0.00170788	   19.9203	0.00166554	   19.9203	   41.6386	
   19.7472	0.00167171	     19.79	 0.0016286	   19.9713	0.00171386	   19.8362	0.00167139	   19.8362	   41.7848	
   19.6612	0.00167738	   19.7065	0.00163437	    19.886	 0.0017197	   19.7512	0.00167715	   19.7512	   41.9287	
   19.5747	0.00168305	   19.6219	0.00163997	   19.8002	0.00172538	   19.6656	 0.0016828	   19.6656	     42.07	
   19.4872	0.00168867	   19.5363	0.00164543	   19.7135	0.00173092	    19.579	0.00168834	    19.579	   42.2085	
   19.3989	0.00169423	   19.4495	0.00165076	   19.6274	0.00173634	   19.4919	0.00169378	   19.4919	   42.3444	
   19.3096	0.00169967	   19.3624	0.00165603	   19.5403	0.00174168	   19.4041	0.00169912	   19.4041	   42.4781	
   19.2196	0.00170496	   19.2751	0.00166124	   19.4524	0.00174697	   19.3157	0.00170439	   19.3157	   42.6098	
   19.1286	0.00171009	   19.1867	0.00166645	   19.3635	0.00175224	   19.2263	0.00170959	   19.2263	   42.7398	
   19.0367	0.00171505	   19.0982	0.00167168	    19.274	0.00175752	   19.1363	0.00171475	   19.1363	   42.8687	
   18.9437	0.00171985	   19.0079	0.00167694	   19.1834	0.00176284	    19.045	0.00171987	    19.045	   42.9969	
     18.85	0.00172453	   18.9175	0.00168222	   19.0922	 0.0017682	   18.9532	0.00172498	   18.9532	   43.1245	
    18.756	0.00172911	   18.8261	0.00168752	   18.9999	0.00177359	   18.8607	0.00173008	   18.8607	   43.2519	
   18.6613	0.00173366	   18.7338	0.00169281	   18.9069	  0.001779	   18.7673	0.00173516	   18.7673	   43.3789	
   18.5659	 0.0017382	   18.6399	0.00169806	   18.8125	0.00178439	   18.6727	0.00174022	   18.6727	   43.5054	
   18.4697	0.00174276	   18.5444	0.00170323	   18.7182	0.00178972	   18.5774	0.00174524	   18.5774	   43.6309	
   18.3721	0.00174736	   18.4485	0.00170829	   18.6223	0.00179496	    18.481	 0.0017502	    18.481	   43.7551	
   18.2738	0.00175201	   18.3518	0.00171318	   18.5249	0.00180007	   18.3835	0.00175509	   18.3835	   43.8772	
   18.1749	0.00175671	   18.2539	 0.0017179	   18.4273	0.00180501	   18.2854	0.00175987	   18.2854	   43.9968	
   18.0752	0.00176141	    18.156	0.00172249	   18.3282	0.00180979	   18.1865	0.00176456	   18.1865	    44.114	
   17.9746	0.00176608	   18.0571	0.00172693	   18.2281	0.00181441	   18.0866	0.00176914	   18.0866	   44.2285	
   17.8733	0.00177069	   17.9575	0.00173126	   18.1282	0.00181887	   17.9863	0.00177361	   17.9863	   44.3402	
   17.7709	 0.0017752	   17.8574	0.00173554	   18.0279	0.00182322	   17.8854	0.00177799	   17.8854	   44.4497	
   17.6679	0.00177957	   17.7564	0.00173981	   17.9271	0.00182748	   17.7838	0.00178229	   17.7838	   44.5572	
   17.5645	0.00178379	    17.655	 0.0017441	   17.8253	 0.0018317	   17.6816	0.00178653	   17.6816	   44.6633	
   17.4606	0.00178787	   17.5526	0.00174845	   17.7227	0.00183591	   17.5786	0.00179074	   17.5786	   44.7685	
   17.3564	 0.0017918	   17.4497	0.00175287	   17.6191	0.00184012	   17.4751	0.00179493	   17.4751	   44.8733	
   17.2515	0.00179562	    17.346	0.00175735	   17.5146	0.00184436	   17.3707	0.00179911	   17.3707	   44.9777	
   17.1455	0.00179934	   17.2419	0.00176189	   17.4106	0.00184861	    17.266	0.00180328	    17.266	    45.082	
   17.0395	0.00180301	   17.1363	0.00176644	   17.3059	0.00185287	   17.1606	0.00180744	   17.1606	   45.1859	
   16.9333	0.00180665	   17.0303	0.00177093	   17.2001	0.00185711	   17.0546	0.00181156	   17.0546	   45.2891	
   16.8267	0.00181028	   16.9236	0.00177532	   17.0939	0.00186132	   16.9481	0.00181564	   16.9481	    45.391	
   16.7199	0.00181394	   16.8166	0.00177957	    16.986	0.00186545	   16.8408	0.00181965	   16.8408	   45.4913	
   16.6115	0.00181761	   16.7088	0.00178363	   16.8776	0.00186949	   16.7326	0.00182358	   16.7326	   45.5894	
   16.5027	 0.0018213	   16.6005	 0.0017875	    16.769	0.00187341	   16.6241	 0.0018274	   16.6241	    45.685	
   16.3932	0.00182499	   16.4915	0.00179116	   16.6598	 0.0018772	   16.5148	0.00183112	   16.5148	   45.7779	
   16.2829	0.00182867	   16.3822	0.00179465	   16.5493	0.00188085	   16.4048	0.00183472	   16.4048	   45.8681	
   16.1728	 0.0018323	   16.2723	0.00179801	   16.4376	0.00188436	   16.2943	0.00183822	   16.2943	   45.9556	
   16.0623	0.00183587	   16.1624	0.00180129	   16.3255	0.00188775	   16.1834	0.00184164	   16.1834	   46.0409	
   15.9518	0.00183935	   16.0511	0.00180455	   16.2129	0.00189108	   16.0719	0.00184499	   16.0719	   46.1248	
   15.8401	0.00184272	   15.9396	0.00180783	   16.0997	0.00189434	   15.9598	 0.0018483	   15.9598	   46.2074	
   15.7279	0.00184597	   15.8275	0.00181117	   15.9855	0.00189756	   15.8469	0.00185157	   15.8469	   46.2893	
   15.6152	0.00184911	   15.7146	0.00181461	   15.8704	 0.0019008	   15.7334	0.00185484	   15.7334	   46.3709	
    15.502	0.00185214	   15.6011	0.00181812	   15.7551	0.00190406	   15.6194	 0.0018581	   15.6194	   46.4526	
   15.3895	0.00185506	   15.4876	0.00182168	   15.6393	0.00190738	   15.5055	0.00186137	   15.5055	   46.5343	
   15.2771	0.00185791	   15.3733	0.00182526	   15.5224	0.00191074	   15.3909	0.00186464	   15.3909	    46.616	
   15.1644	 0.0018607	   15.2583	0.00182882	   15.4051	0.00191414	    15.276	0.00186789	    15.276	   46.6972	
   15.0508	0.00186346	   15.1429	0.00183229	   15.2871	0.00191755	   15.1602	 0.0018711	   15.1602	   46.7775	
   14.9362	 0.0018662	   15.0268	0.00183562	    15.168	0.00192094	   15.0437	0.00187425	   15.0437	   46.8563	
   14.8214	0.00186894	   14.9097	0.00183879	   15.0485	0.00192426	   14.9265	0.00187733	   14.9265	   46.9332	
   14.7059	0.00187168	    14.792	0.00184176	   14.9281	0.00192747	   14.8087	 0.0018803	   14.8087	   47.0075	
   14.5894	0.00187441	   14.6741	0.00184453	   14.8073	0.00193052	   14.6903	0.00188315	   14.6903	   47.0788	
    14.473	0.00187713	   14.5557	0.00184713	   14.6856	0.00193341	   14.5714	0.00188589	   14.5714	   47.1472	
    14.356	0.00187981	   14.4369	0.00184958	   14.5633	0.00193611	   14.4521	 0.0018885	   14.4521	   47.2126	
   14.2384	0.00188244	    14.317	0.00185194	   14.4411	0.00193864	   14.3322	0.00189101	   14.3322	   47.2751	
   14.1205	0.00188498	    14.197	0.00185425	   14.3193	0.00194102	   14.2123	0.00189342	   14.2123	   47.3354	
   14.0023	0.00188742	    14.076	0.00185656	   14.1961	0.00194328	   14.0915	0.00189575	   14.0915	   47.3939	
   13.8839	0.00188975	   13.9544	0.00185892	   14.0727	0.00194547	   13.9703	0.00189805	   13.9703	   47.4511	
   13.7654	0.00189196	   13.8316	0.00186134	   13.9493	0.00194764	   13.8488	0.00190031	   13.8488	   47.5078	
   13.6461	0.00189406	   13.7077	0.00186382	   13.8257	0.00194983	   13.7265	0.00190257	   13.7265	   47.5643	
   13.5265	0.00189607	   13.5835	0.00186636	   13.7014	0.00195206	   13.6038	0.00190483	   13.6038	   47.6208	
   13.4061	  0.001898	   13.4591	0.00186892	   13.5763	0.00195435	   13.4805	0.00190709	   13.4805	   47.6773	
   13.2849	0.00189989	   13.3337	0.00187146	   13.4505	 0.0019567	   13.3563	0.00190935	   13.3563	   47.7337	
    13.163	0.00190174	   13.2082	0.00187394	    13.324	0.00195907	   13.2317	0.00191158	   13.2317	   47.7895	
   13.0406	0.00190358	   13.0817	 0.0018763	   13.1972	0.00196144	   13.1065	0.00191377	   13.1065	   47.8443	
    12.917	0.00190541	   12.9552	0.00187852	   13.0699	0.00196378	   12.9807	 0.0019159	   12.9807	   47.8976	
   12.7926	0.00190724	   12.8276	0.00188058	   12.9425	0.00196604	   12.8542	0.00191795	   12.8542	   47.9488	
   12.6671	0.00190905	   12.7003	0.00188247	   12.8151	0.00196819	   12.7275	 0.0019199	   12.7275	   47.9976	
   12.5411	0.00191084	   12.5735	 0.0018842	   12.6876	0.00197019	   12.6007	0.00192174	   12.6007	   48.0436	
   12.4134	0.00191258	   12.4454	 0.0018858	   12.5599	0.00197204	   12.4729	0.00192347	   12.4729	   48.0868	
   12.2854	0.00191424	   12.3165	0.00188731	   12.4315	0.00197372	   12.3444	0.00192509	   12.3444	   48.1272	
   12.1567	0.00191582	   12.1871	0.00188877	   12.3028	0.00197524	   12.2155	0.00192661	   12.2155	   48.1653	
   12.0277	 0.0019173	   12.0563	0.00189022	   12.1728	0.00197665	   12.0856	0.00192806	   12.0856	   48.2014	
    11.898	0.00191867	   11.9247	0.00189169	    12.042	0.00197798	   11.9549	0.00192945	   11.9549	   48.2362	
   11.7675	0.00191994	   11.7941	0.00189321	   11.9109	0.00197925	   11.8242	 0.0019308	   11.8242	     48.27	
   11.6367	0.00192112	   11.6624	0.00189477	   11.7788	0.00198051	   11.6926	0.00193213	   11.6926	   48.3033	
   11.5052	0.00192221	   11.5297	0.00189638	   11.6459	0.00198178	   11.5602	0.00193346	   11.5602	   48.3364	
   11.3735	0.00192324	   11.3963	  0.001898	   11.5127	0.00198309	   11.4275	0.00193477	   11.4275	   48.3693	
   11.2409	0.00192422	   11.2629	0.00189959	    11.379	0.00198443	   11.2943	0.00193608	   11.2943	    48.402	
   11.1068	0.00192517	   11.1291	0.00190112	   11.2451	 0.0019858	   11.1603	0.00193736	   11.1603	   48.4341	
   10.9723	0.00192613	    10.994	0.00190255	   11.1115	0.00198717	   11.0259	0.00193862	   11.0259	   48.4654	
   10.8373	0.00192708	   10.8588	0.00190384	   10.9771	0.00198853	   10.8911	0.00193982	   10.8911	   48.4954	
   10.7018	0.00192801	   10.7233	0.00190497	   10.8419	0.00198982	   10.7557	0.00194094	   10.7557	   48.5234	
    10.566	0.00192893	   10.5878	0.00190594	   10.7062	0.00199103	     10.62	0.00194197	     10.62	   48.5492	
   10.4296	0.00192982	   10.4519	0.00190676	   10.5707	0.00199211	   10.4841	 0.0019429	   10.4841	   48.5725	
   10.2931	0.00193065	   10.3154	0.00190745	   10.4347	0.00199307	   10.3477	0.00194372	   10.3477	   48.5931	
   10.1565	0.00193138	   10.1784	0.00190805	   10.2983	 0.0019939	   10.2111	0.00194444	   10.2111	    48.611	
   10.0191	0.00193201	   10.0411	0.00190859	   10.1617	0.00199459	    10.074	0.00194506	    10.074	   48.6265	
   9.88052	0.00193251	   9.90274	0.00190911	   10.0246	0.00199516	   9.93594	0.00194559	   9.93594	   48.6399	
   9.74153	0.00193287	   9.76492	0.00190964	   9.88593	0.00199565	   9.79746	0.00194605	   9.79746	   48.6513	
   9.60184	 0.0019331	   9.62728	 0.0019102	   9.74778	0.00199607	   9.65897	0.00194646	   9.65897	   48.6615	
   9.46242	0.00193321	    9.4895	 0.0019108	   9.60905	0.00199646	   9.52032	0.00194682	   9.52032	   48.6706	
   9.32175	0.00193321	   9.35128	0.00191143	    9.4695	0.00199684	   9.38084	0.00194716	   9.38084	    48.679	
   9.18084	0.00193315	   9.21285	0.00191206	   9.32984	0.00199722	   9.24118	0.00194748	   9.24118	   48.6869	
   9.03965	0.00193305	   9.07488	0.00191266	   9.18957	0.00199762	   9.10137	0.00194778	   9.10137	   48.6944	
   8.89768	0.00193296	   8.93608	0.00191321	   9.04819	0.00199801	   8.96065	0.00194806	   8.96065	   48.7015	
   8.75567	0.00193293	   8.79717	0.00191366	   8.90719	0.00199839	   8.82001	0.00194833	   8.82001	   48.7082	
   8.61332	0.00193298	   8.65739	0.00191399	   8.76552	0.00199874	   8.67874	0.00194857	   8.67874	   48.7142	
   8.47038	0.00193307	   8.51699	0.00191418	   8.62367	0.00199903	   8.53702	0.00194876	   8.53702	   48.7189	
   8.32662	0.00193317	   8.37621	0.00191421	   8.48161	0.00199922	   8.39481	0.00194887	   8.39481	   48.7217	
   8.18181	0.00193324	   8.23431	0.00191411	   8.33882	0.00199931	   8.25165	0.00194889	   8.25165	   48.7222	
    8.0372	0.00193326	   8.09181	0.00191387	    8.1958	0.00199928	   8.10827	 0.0019488	   8.10827	   48.7201	
   7.89226	0.00193312	   7.94895	0.00191355	   8.05252	0.00199911	   7.96457	0.00194859	   7.96457	   48.7148	
   7.74768	0.00193282	   7.80499	0.00191316	   7.90992	0.00199882	   7.82086	0.00194827	   7.82086	   48.7067	
   7.60365	0.00193233	   7.66166	0.00191272	   7.76646	0.00199843	   7.67726	0.00194783	   7.67726	   48.6957	
   7.45936	0.00193163	   7.51815	0.00191224	   7.62097	0.00199795	   7.53283	0.00194727	   7.53283	   48.6818	
   7.31504	0.00193075	   7.37371	0.00191176	   7.47477	 0.0019974	   7.38784	0.00194664	   7.38784	   48.6659	
   7.16992	0.00192972	   7.23005	0.00191129	   7.32835	0.00199681	   7.24277	0.00194594	   7.24277	   48.6485	
   7.02475	0.00192858	   7.08635	0.00191082	    7.1822	0.00199619	   7.09777	 0.0019452	   7.09777	   48.6299	
   6.87901	0.00192739	    6.9421	0.00191035	   7.03672	0.00199556	   6.95261	0.00194443	   6.95261	   48.6109	
   6.73321	 0.0019262	   6.79826	0.00190989	   6.89088	0.00199493	   6.80745	0.00194367	   6.80745	   48.5919	
   6.58779	0.00192509	   6.65403	0.00190943	    6.7437	0.00199429	   6.66184	0.00194294	   6.66184	   48.5734	
   6.44316	0.00192405	   6.50988	0.00190895	   6.59645	0.00199364	    6.5165	0.00194221	    6.5165	   48.5553	
   6.29826	0.00192311	     6.366	0.00190843	   6.44888	0.00199295	   6.37105	0.00194149	   6.37105	   48.5374	
   6.15355	0.00192226	   6.22235	0.00190784	   6.30002	 0.0019922	   6.22531	0.00194077	   6.22531	   48.5192	
   6.00803	0.00192145	   6.07885	0.00190717	   6.15042	0.00199138	    6.0791	   0.00194	    6.0791	      48.5	
    5.8622	0.00192064	   5.93569	0.00190639	    6.0006	0.00199046	   5.93283	0.00193916	   5.93283	   48.4791	
   5.71653	0.00191977	   5.79257	 0.0019055	   5.85055	0.00198944	   5.78655	0.00193824	   5.78655	   48.4559	
      5.57	0.00191877	   5.64847	0.00190449	    5.7005	0.00198831	   5.63966	0.00193719	   5.63966	   48.4297	
    5.4241	0.00191759	   5.50392	0.00190333	   5.55068	0.00198707	    5.4929	0.00193599	    5.4929	   48.3998	
   5.27826	 0.0019162	   5.35866	0.00190204	   5.40032	0.00198573	   5.34575	0.00193465	   5.34575	   48.3664	
   5.13149	0.00191459	   5.21344	0.00190065	   5.24968	 0.0019843	    5.1982	0.00193318	    5.1982	   48.3295	
   4.98501	0.00191276	   5.06846	0.00189918	   5.09949	0.00198281	   5.05098	0.00193158	   5.05098	   48.2895	
   4.83781	0.00191075	   4.92342	0.00189762	   4.94945	0.00198126	   4.90356	0.00192988	   4.90356	   48.2469	
   4.69064	0.00190861	   4.77781	  0.001896	   4.79904	0.00197967	   4.75583	 0.0019281	   4.75583	   48.2024	
   4.54371	 0.0019064	   4.63163	0.00189436	   4.64827	0.00197805	   4.60787	0.00192627	   4.60787	   48.1567	
   4.39576	0.00190416	    4.4849	 0.0018927	   4.49764	0.00197641	   4.45943	0.00192442	   4.45943	   48.1105	
   4.24901	0.00190195	   4.33787	0.00189102	   4.34687	0.00197474	   4.31125	0.00192257	   4.31125	   48.0642	
   4.10213	0.00189979	    4.1898	0.00188932	   4.19571	0.00197303	   4.16255	0.00192071	   4.16255	   48.0178	
    3.9551	0.00189769	     4.041	0.00188759	   4.04537	0.00197127	   4.01382	0.00191885	   4.01382	   47.9713	
   3.80838	0.00189567	   3.89221	0.00188581	   3.89457	0.00196944	   3.86505	0.00191697	   3.86505	   47.9243	
   3.66167	0.00189368	   3.74293	0.00188397	   3.74332	0.00196753	   3.71598	0.00191506	   3.71598	   47.8765	
   3.51518	0.00189169	   3.59269	0.00188204	   3.59213	0.00196553	   3.56667	0.00191309	   3.56667	   47.8272	
   3.36887	0.00188965	   3.44299	0.00188003	      3.44	0.00196343	   3.41729	0.00191104	   3.41729	   47.7759	
   3.22244	0.00188751	   3.29209	0.00187791	    3.2882	0.00196123	   3.26758	0.00190888	   3.26758	   47.7221	
   3.07659	0.00188523	   3.14124	0.00187571	   3.13597	0.00195892	   3.11794	0.00190662	   3.11794	   47.6655	
   2.92933	0.00188277	   2.99092	0.00187341	   2.98356	0.00195653	   2.96794	0.00190424	   2.96794	   47.6059	
   2.78217	0.00188013	    2.8401	0.00187103	   2.83122	0.00195404	   2.81783	0.00190173	   2.81783	   47.5434	
   2.63531	0.00187729	      2.69	0.00186857	   2.67819	0.00195149	   2.66783	0.00189912	   2.66783	    47.478	
   2.48846	0.00187428	    2.5403	0.00186606	   2.52573	0.00194888	   2.51816	0.00189641	   2.51816	   47.4102	
   2.34134	0.00187113	    2.3907	0.00186348	   2.37281	0.00194622	   2.36829	0.00189361	   2.36829	   47.3403	
    2.1937	0.00186789	   2.24095	0.00186085	   2.21946	0.00194352	   2.21804	0.00189075	   2.21804	   47.2688	
    2.0446	0.00186458	   2.09005	0.00185817	   2.06665	0.00194076	    2.0671	0.00188784	    2.0671	    47.196	
   1.89604	0.00186127	   1.93953	0.00185543	   1.91434	0.00193795	   1.91664	0.00188488	   1.91664	   47.1221	
     1.747	0.00185797	   1.78813	0.00185263	   1.76127	0.00193507	   1.76546	0.00188189	   1.76546	   47.0472	
   1.59796	0.00185471	   1.63711	0.00184974	   1.60867	0.00193213	   1.61458	0.00187886	   1.61458	   46.9715	
   1.44842	 0.0018515	   1.48641	0.00184677	   1.45555	0.00192911	   1.46346	0.00187579	   1.46346	   46.8948	
    1.2984	 0.0018483	    1.3348	0.00184371	   1.30241	0.00192598	   1.31187	0.00187267	   1.31187	   46.8166	
   1.14887	0.00184511	   1.18352	0.00184055	   1.14971	0.00192277	    1.1607	0.00186948	    1.1607	   46.7369	
  0.998333	0.00184187	   1.03229	 0.0018373	   0.99718	0.00191945	   1.00927	0.00186621	   1.00927	   46.6552	
  0.847803	0.00183855	   0.88133	0.00183395	  0.845021	0.00191601	  0.858051	0.00186284	  0.858051	   46.5709	
   0.69726	 0.0018351	  0.729877	 0.0018305	  0.691747	0.00191245	  0.706295	0.00185935	  0.706295	   46.4837	
  0.546687	0.00183149	  0.578675	0.00182696	  0.538879	0.00190877	  0.554747	0.00185574	  0.554747	   46.3935	
  0.396306	 0.0018277	  0.427201	0.00182333	  0.385886	0.00190498	  0.403131	  0.001852	  0.403131	   46.3001	
  0.245837	0.00182373	  0.275939	0.00181964	  0.232771	0.00190108	  0.251515	0.00184815	  0.251515	   46.2037	
 0.0943047	0.00181959	  0.124616	0.00181588	 0.0797671	0.00189709	 0.0995625	0.00184419	 0.0995625	   46.1047	
-0.0570205	 0.0018153	-0.0255829	0.00181207	-0.0733888	0.00189303	-0.0519974	0.00184013	-0.0519974	   46.0034	
 -0.208893	0.00181092	 -0.175728	0.00180822	 -0.226217	0.00188889	 -0.203613	0.00183601	 -0.203613	   45.9002	
 -0.361048	0.00180647	 -0.325364	0.00180433	 -0.378995	0.00188471	 -0.355136	0.00183184	 -0.355136	   45.7959	
 -0.512757	  0.001802	 -0.474552	0.00180039	 -0.531501	 0.0018805	  -0.50627	0.00182763	  -0.50627	   45.6908	
 -0.664556	0.00179754	 -0.624552	 0.0017964	 -0.683049	0.00187627	 -0.657386	 0.0018234	 -0.657386	   45.5851	
 -0.815975	0.00179311	 -0.774604	0.00179234	 -0.835416	0.00187202	 -0.808665	0.00181915	 -0.808665	   45.4788	
 -0.967298	 0.0017887	 -0.924484	 0.0017882	 -0.987349	0.00186774	  -0.95971	0.00181488	  -0.95971	    45.372	
  -1.11879	0.00178431	  -1.07447	0.00178396	  -1.13914	0.00186343	   -1.1108	0.00181057	   -1.1108	   45.2642	
  -1.26999	0.00177991	  -1.22482	0.00177961	  -1.29106	0.00185907	  -1.26196	 0.0018062	  -1.26196	   45.1549	
   -1.4214	0.00177545	   -1.3748	0.00177517	  -1.44287	0.00185463	  -1.41302	0.00180175	  -1.41302	   45.0438	
  -1.57231	 0.0017709	  -1.52422	0.00177062	   -1.5946	 0.0018501	  -1.56371	0.00179721	  -1.56371	   44.9302	
  -1.72398	0.00176622	  -1.67436	0.00176596	  -1.74675	0.00184544	  -1.71503	0.00179254	  -1.71503	   44.8134	
  -1.87636	0.00176137	  -1.82517	0.00176119	  -1.89786	0.00184065	  -1.86647	0.00178774	  -1.86647	   44.6934	
   -2.0275	0.00175635	  -1.97543	0.00175632	  -2.04972	0.00183572	  -2.01755	 0.0017828	  -2.01755	   44.5699	
  -2.17848	0.00175114	  -2.12592	0.00175137	  -2.20156	0.00183064	  -2.16865	0.00177772	  -2.16865	   44.4429	
  -2.32883	0.00174577	  -2.27568	0.00174633	  -2.35315	0.00182541	  -2.31922	 0.0017725	  -2.31922	   44.3126	
  -2.47864	0.00174027	  -2.42528	0.00174123	   -2.5043	0.00182003	  -2.46941	0.00176718	  -2.46941	   44.1794	
  -2.62845	0.00173465	  -2.57546	0.00173607	  -2.65507	0.00181453	  -2.61966	0.00176175	  -2.61966	   44.0438	
  -2.77779	0.00172897	  -2.72453	0.00173085	  -2.80501	0.00180892	  -2.76911	0.00175625	  -2.76911	   43.9062	
  -2.92698	0.00172326	  -2.87331	0.00172557	  -2.95519	0.00180324	  -2.91849	0.00175069	  -2.91849	   43.7673	
  -3.07629	0.00171754	  -3.02113	0.00172024	  -3.10463	0.00179751	  -3.06735	0.00174509	  -3.06735	   43.6274	
  -3.22453	0.00171182	  -3.16859	0.00171484	  -3.25487	0.00179174	    -3.216	0.00173947	    -3.216	   43.4867	
  -3.37253	0.00170611	  -3.31525	0.00170938	  -3.40441	0.00178597	  -3.36407	0.00173382	  -3.36407	   43.3454	
  -3.52083	 0.0017004	  -3.46146	0.00170384	  -3.55383	0.00178019	  -3.51204	0.00172814	  -3.51204	   43.2036	
  -3.66894	0.00169467	  -3.60679	0.00169823	  -3.70338	0.00177439	   -3.6597	0.00172243	   -3.6597	   43.0607	
  -3.81691	0.00168887	   -3.7516	0.00169253	  -3.85237	0.00176856	  -3.80696	0.00171666	  -3.80696	   42.9164	
  -3.96381	0.00168299	  -3.89621	0.00168674	  -4.00135	0.00176268	  -3.95379	 0.0017108	  -3.95379	   42.7701	
  -4.11121	0.00167698	  -4.04091	0.00168086	  -4.15034	0.00175671	  -4.10082	0.00170485	  -4.10082	   42.6213	
  -4.25814	0.00167083	  -4.18596	0.00167488	  -4.29912	0.00175063	  -4.24774	0.00169878	  -4.24774	   42.4694	
  -4.40465	0.00166451	  -4.33067	0.00166882	  -4.44798	0.00174441	  -4.39443	0.00169258	  -4.39443	   42.3144	
   -4.5513	0.00165802	  -4.47629	0.00166267	  -4.59718	0.00173805	  -4.54159	0.00168625	  -4.54159	   42.1562	
  -4.69716	0.00165138	   -4.6216	0.00165645	  -4.74552	0.00173154	  -4.68809	0.00167979	  -4.68809	   41.9947	
  -4.84302	 0.0016446	  -4.76688	0.00165016	  -4.89476	0.00172486	  -4.83489	0.00167321	  -4.83489	   41.8302	
   -4.9887	0.00163771	  -4.91291	 0.0016438	  -5.04415	0.00171806	  -4.98192	0.00166652	  -4.98192	   41.6631	
  -5.13424	0.00163076	  -5.05869	0.00163738	  -5.19346	0.00171114	   -5.1288	0.00165976	   -5.1288	   41.4939	
  -5.28065	0.00162376	  -5.20525	0.00163089	  -5.34223	0.00170413	  -5.27604	0.00165293	  -5.27604	   41.3231	
  -5.42598	0.00161676	  -5.35207	0.00162434	   -5.4903	0.00169705	  -5.42278	0.00164605	  -5.42278	   41.1512	
  -5.57202	0.00160975	  -5.49869	0.00161773	  -5.63846	0.00168992	  -5.56972	0.00163913	  -5.56972	   40.9783	
  -5.71755	0.00160275	  -5.64611	0.00161105	  -5.78603	0.00168277	  -5.71656	0.00163219	  -5.71656	   40.8048	
  -5.86217	0.00159575	  -5.79239	0.00160431	  -5.93282	0.00167559	  -5.86246	0.00162522	  -5.86246	   40.6304	
  -6.00647	0.00158872	   -5.9386	 0.0015975	  -6.07919	0.00166838	  -6.00809	 0.0016182	  -6.00809	    40.455	
  -6.15052	0.00158165	  -6.08502	 0.0015906	  -6.22471	0.00166114	  -6.15342	0.00161113	  -6.15342	   40.2782	
  -6.29436	0.00157448	  -6.23143	0.00158363	  -6.37045	0.00165384	  -6.29875	0.00160399	  -6.29875	   40.0996	
  -6.43927	0.00156721	  -6.37859	0.00157658	  -6.51666	0.00164648	  -6.44484	0.00159675	  -6.44484	   39.9188	
   -6.5835	0.00155979	  -6.52574	0.00156944	  -6.66215	0.00163902	  -6.59046	0.00158942	  -6.59046	   39.7354	
  -6.72789	0.00155222	  -6.67268	0.00156221	  -6.80797	0.00163145	  -6.73618	0.00158196	  -6.73618	    39.549	
  -6.87125	0.00154449	  -6.81897	0.00155489	  -6.95364	0.00162376	  -6.88128	0.00157438	  -6.88128	   39.3594	
  -7.01515	0.00153659	  -6.96445	0.00154748	  -7.09873	0.00161593	  -7.02611	0.00156667	  -7.02611	   39.1667	
  -7.15934	0.00152857	  -7.10996	0.00153997	  -7.24284	0.00160797	  -7.17071	0.00155884	  -7.17071	   38.9709	
  -7.30312	0.00152043	  -7.25528	0.00153238	  -7.38706	0.00159988	  -7.31515	 0.0015509	  -7.31515	   38.7725	
  -7.44705	0.00151223	  -7.40047	0.00152469	  -7.53093	0.00159169	  -7.45948	0.00154287	  -7.45948	   38.5717	
  -7.59068	0.00150397	   -7.5446	0.00151692	  -7.67404	 0.0015834	  -7.60311	0.00153476	  -7.60311	   38.3691	
  -7.73359	 0.0014957	  -7.68781	0.00150906	  -7.81673	0.00157502	  -7.74605	0.00152659	  -7.74605	   38.1648	
  -7.87588	0.00148743	  -7.83069	0.00150112	   -7.9598	0.00156659	  -7.88879	0.00151838	  -7.88879	   37.9595	
  -8.01741	0.00147917	  -7.97331	0.00149311	  -8.10231	 0.0015581	  -8.03101	0.00151013	  -8.03101	   37.7532	
  -8.15803	 0.0014709	  -8.11622	0.00148504	  -8.24433	0.00154958	  -8.17286	0.00150184	  -8.17286	    37.546	
  -8.29932	 0.0014626	  -8.25943	 0.0014769	  -8.38572	0.00154103	  -8.31483	0.00149351	  -8.31483	   37.3378	
  -8.44007	0.00145426	  -8.40105	0.00146871	  -8.52754	0.00153244	  -8.45622	0.00148513	  -8.45622	   37.1284	
  -8.58062	0.00144582	  -8.54268	0.00146045	  -8.66859	0.00152381	   -8.5973	0.00147669	   -8.5973	   36.9173	
  -8.72055	0.00143726	  -8.68413	0.00145215	  -8.80852	0.00151511	  -8.73773	0.00146818	  -8.73773	   36.7044	
  -8.86044	0.00142856	  -8.82572	0.00144379	  -8.94841	0.00150635	  -8.87819	0.00145956	  -8.87819	   36.4891	
  -9.00035	0.00141965	   -8.9677	0.00143536	  -9.08785	0.00149749	  -9.01863	0.00145083	  -9.01863	   36.2708	
  -9.13985	0.00141055	  -9.10843	0.00142687	  -9.22692	0.00148853	   -9.1584	0.00144198	   -9.1584	   36.0495	
  -9.27855	0.00140131	  -9.24948	 0.0014183	  -9.36547	0.00147945	  -9.29783	0.00143302	  -9.29783	   35.8255	
  -9.41704	0.00139195	  -9.39041	0.00140964	  -9.50288	0.00147025	  -9.43678	0.00142395	  -9.43678	   35.5987	
  -9.55468	0.00138251	  -9.52935	0.00140089	  -9.64049	0.00146094	  -9.57484	0.00141478	  -9.57484	   35.3695	
  -9.69232	0.00137302	  -9.66795	0.00139206	  -9.77859	0.00145152	  -9.71295	0.00140553	  -9.71295	   35.1384	
  -9.82905	0.00136357	  -9.80605	0.00138314	    -9.916	0.00144199	  -9.85037	0.00139623	  -9.85037	   34.9059	
  -9.96525	0.00135417	  -9.94328	0.00137412	  -10.0531	0.00143239	   -9.9872	0.00138689	   -9.9872	   34.6723	
  -10.1003	0.00134482	  -10.0805	0.00136503	  -10.1899	0.00142271	  -10.1236	0.00137752	  -10.1236	    34.438	
  -10.2348	0.00133552	  -10.2168	0.00135587	  -10.3271	0.00141298	  -10.2596	0.00136812	  -10.2596	   34.2031	
   -10.369	0.00132626	  -10.3527	0.00134663	  -10.4641	0.00140322	  -10.3953	 0.0013587	  -10.3953	   33.9675	
  -10.5026	0.00131697	  -10.4885	0.00133732	  -10.6006	0.00139342	  -10.5305	0.00134924	  -10.5305	   33.7309	
  -10.6365	0.00130765	  -10.6246	0.00132794	  -10.7371	0.00138359	  -10.6661	0.00133972	  -10.6661	   33.4931	
  -10.7712	0.00129822	  -10.7596	 0.0013185	   -10.873	0.00137372	  -10.8013	0.00133015	  -10.8013	   33.2536	
  -10.9053	0.00128862	  -10.8933	0.00130899	  -11.0087	0.00136381	  -10.9358	0.00132047	  -10.9358	   33.0118	
  -11.0394	0.00127883	  -11.0274	0.00129941	  -11.1444	0.00135384	  -11.0704	 0.0013107	  -11.0704	   32.7674	
  -11.1736	0.00126885	  -11.1608	0.00128977	  -11.2796	 0.0013438	  -11.2047	0.00130081	  -11.2047	   32.5202	
  -11.3077	0.00125867	  -11.2925	0.00128006	   -11.414	0.00133367	   -11.338	 0.0012908	   -11.338	   32.2701	
  -11.4412	0.00124831	  -11.4243	0.00127028	  -11.5481	0.00132345	  -11.4712	0.00128068	  -11.4712	    32.017	
  -11.5741	0.00123781	  -11.5553	0.00126044	  -11.6819	0.00131312	  -11.6038	0.00127046	  -11.6038	   31.7614	
  -11.7072	0.00122723	  -11.6858	0.00125052	   -11.816	0.00130268	  -11.7363	0.00126014	  -11.7363	   31.5036	
  -11.8398	0.00121661	  -11.8157	0.00124053	  -11.9491	0.00129215	  -11.8682	0.00124976	  -11.8682	    31.244	
  -11.9712	0.00120602	   -11.945	0.00123047	  -12.0817	0.00128152	  -11.9993	0.00123934	  -11.9993	   30.9834	
  -12.1023	0.00119549	  -12.0736	0.00122034	  -12.2144	0.00127082	  -12.1301	0.00122889	  -12.1301	   30.7221	
  -12.2322	0.00118504	  -12.2023	0.00121015	  -12.3467	0.00126006	  -12.2604	0.00121842	  -12.2604	   30.4604	
  -12.3608	0.00117467	  -12.3305	0.00119989	  -12.4783	0.00124925	  -12.3899	0.00120794	  -12.3899	   30.1984	
  -12.4889	0.00116437	  -12.4589	0.00118957	  -12.6095	0.00123841	  -12.5191	0.00119745	  -12.5191	   29.9362	
   -12.616	0.00115408	   -12.587	0.00117919	  -12.7402	0.00122754	  -12.6477	0.00118694	  -12.6477	   29.6735	
  -12.7428	0.00114377	  -12.7158	0.00116875	  -12.8712	0.00121664	  -12.7766	0.00117639	  -12.7766	   29.4096	
  -12.8693	0.00113337	   -12.844	0.00115825	  -13.0014	0.00120569	  -12.9049	0.00116577	  -12.9049	   29.1443	
  -12.9954	0.00112284	  -12.9722	 0.0011477	  -13.1304	0.00119469	  -13.0327	0.00115507	  -13.0327	   28.8768	
  -13.1208	0.00111213	     -13.1	0.00113705	  -13.2593	 0.0011836	    -13.16	0.00114426	    -13.16	   28.6066	
  -13.2449	0.00110124	  -13.2266	0.00112631	  -13.3884	0.00117242	  -13.2866	0.00113332	  -13.2866	   28.3331	
  -13.3684	0.00109016	  -13.3528	0.00111549	  -13.5165	0.00116113	  -13.4126	0.00112226	  -13.4126	   28.0564	
   -13.491	0.00107889	  -13.4785	0.00110459	  -13.6432	0.00114972	  -13.5376	0.00111107	  -13.5376	   27.7766	
  -13.6123	0.00106748	  -13.6033	0.00109364	  -13.7698	0.00113821	  -13.6618	0.00109978	  -13.6618	   27.4944	
  -13.7331	0.00105598	  -13.7269	0.00108264	  -13.8957	 0.0011266	  -13.7852	0.00108841	  -13.7852	   27.2102	
  -13.8535	0.00104444	  -13.8496	0.00107161	  -14.0216	0.00111493	  -13.9082	0.00107699	  -13.9082	   26.9248	
  -13.9731	0.00103288	  -13.9716	0.00106058	   -14.147	0.00110318	  -14.0306	0.00106555	  -14.0306	   26.6387	
  -14.0932	0.00102136	  -14.0935	0.00104955	  -14.2716	0.00109137	  -14.1527	0.00105409	  -14.1527	   26.3524	
  -14.2122	 0.0010099	  -14.2144	 0.0010385	  -14.3956	0.00107952	  -14.2741	0.00104264	  -14.2741	    26.066	
  -14.3317	0.000998506	  -14.3353	0.00102741	  -14.5189	0.00106764	  -14.3953	0.00103119	  -14.3953	   25.7797	
  -14.4513	0.000987157	  -14.4551	0.00101628	  -14.6404	0.00105574	  -14.5156	0.00101973	  -14.5156	   25.4932	
  -14.5698	0.000975835	  -14.5745	0.00100511	  -14.7618	 0.0010438	  -14.6354	0.00100825	  -14.6354	   25.2062	
  -14.6876	0.000964496	  -14.6936	0.000993854	  -14.8831	0.00103184	  -14.7548	0.00099673	  -14.7548	   24.9182	
  -14.8043	0.000953099	  -14.8116	0.000982508	  -15.0031	0.00101985	   -14.873	0.000985151	   -14.873	   24.6288	
  -14.9206	0.000941603	  -14.9287	0.000971059	  -15.1222	0.00100781	  -14.9905	0.000973492	  -14.9905	   24.3373	
   -15.036	0.000929973	   -15.045	0.000959503	   -15.241	0.000995736	  -15.1074	0.000961737	  -15.1074	   24.0434	
  -15.1511	0.000918186	  -15.1606	0.00094784	   -15.359	0.000983611	  -15.2236	0.000949879	  -15.2236	    23.747	
  -15.2658	0.00090624	  -15.2754	0.000936094	  -15.4761	0.000971407	  -15.3391	0.000937914	  -15.3391	   23.4478	
  -15.3794	0.000894144	  -15.3903	0.000924279	  -15.5925	0.000959125	  -15.4541	0.000925849	  -15.4541	   23.1462	
   -15.493	0.000881918	  -15.5042	0.000912397	  -15.7092	0.000946766	  -15.5688	0.000913694	  -15.5688	   22.8423	
  -15.6057	0.000869601	  -15.6175	0.000900482	  -15.8254	0.000934326	  -15.6829	0.00090147	  -15.6829	   22.5367	
  -15.7172	0.000857232	  -15.7301	0.000888562	  -15.9407	0.000921804	   -15.796	0.000889199	   -15.796	     22.23	
  -15.8283	0.000844847	  -15.8422	0.000876647	  -16.0562	0.000909199	  -15.9089	0.000876898	  -15.9089	   21.9224	
  -15.9376	0.000832482	  -15.9536	0.000864747	   -16.171	0.000896539	  -16.0207	0.00086459	  -16.0207	   21.6147	
  -16.0465	0.000820162	   -16.064	0.000852868	  -16.2849	0.000883836	  -16.1318	0.000852289	  -16.1318	   21.3072	
  -16.1546	0.000807889	  -16.1746	0.000841005	  -16.3982	0.000871094	  -16.2425	0.000839996	  -16.2425	   20.9999	
  -16.2622	0.000795659	  -16.2851	0.000829142	   -16.511	0.000858335	  -16.3528	0.000827712	  -16.3528	   20.6928	
  -16.3699	0.000783455	  -16.3943	0.000817265	  -16.6225	0.000845574	  -16.4622	0.000815431	  -16.4622	   20.3858	
  -16.4778	0.000771248	  -16.5033	0.000805348	  -16.7326	0.000832795	  -16.5712	0.00080313	  -16.5712	   20.0783	
  -16.5851	0.000758998	  -16.6113	0.000793365	   -16.843	0.000819999	  -16.6798	0.000790787	  -16.6798	   19.7697	
  -16.6921	0.000746669	  -16.7189	0.000781313	  -16.9529	0.000807183	  -16.7879	0.000778388	  -16.7879	   19.4597	
  -16.7987	0.000734234	  -16.8256	0.000769183	   -17.061	0.000794333	  -16.8951	0.000765917	  -16.8951	   19.1479	
  -16.9045	0.000721668	   -16.932	0.000756965	  -17.1681	0.000781433	  -17.0015	0.000753356	  -17.0015	   18.8339	
  -17.0095	0.000708962	  -17.0381	0.000744661	  -17.2737	0.000768468	  -17.1071	0.000740697	  -17.1071	   18.5174	
  -17.1126	0.000696126	  -17.1439	0.000732281	  -17.3792	0.000755433	  -17.2119	0.000727947	  -17.2119	   18.1987	
  -17.2155	0.000683178	  -17.2489	0.000719838	  -17.4843	0.00074232	  -17.3162	0.000715112	  -17.3162	   17.8778	
  -17.3174	0.000670153	   -17.353	0.000707344	  -17.5886	0.000729126	  -17.4197	0.000702208	  -17.4197	   17.5552	
  -17.4191	0.000657089	  -17.4558	0.000694818	  -17.6924	0.00071586	  -17.5224	0.000689256	  -17.5224	   17.2314	
  -17.5206	0.00064402	  -17.5588	0.000682275	  -17.7956	0.000702529	   -17.625	0.000676275	   -17.625	   16.9069	
  -17.6208	0.000630977	  -17.6603	0.000669722	  -17.8978	0.000689148	  -17.7263	0.000663282	  -17.7263	   16.5821	
  -17.7212	0.000617981	    -17.76	0.000657174	  -17.9996	0.000675735	  -17.8269	0.000650297	  -17.8269	   16.2574	
  -17.8216	0.000605045	  -17.8594	0.000644642	  -18.1003	0.000662307	  -17.9271	0.000637331	  -17.9271	   15.9333	
  -17.9208	0.000592161	  -17.9587	0.000632117	  -18.1994	0.000648876	  -18.0263	0.000624385	  -18.0263	   15.6096	
  -18.0201	0.000579314	  -18.0576	0.000619593	  -18.2983	0.000635457	  -18.1253	0.000611455	  -18.1253	   15.2864	
  -18.1181	0.000566481	  -18.1554	0.000607072	  -18.3968	0.000622049	  -18.2234	0.000598534	  -18.2234	   14.9633	
  -18.2156	0.000553628	  -18.2522	0.000594542	  -18.4944	0.000608651	  -18.3207	0.000585607	  -18.3207	   14.6402	
  -18.3124	0.000540727	   -18.348	0.000581972	  -18.5907	0.000595251	   -18.417	0.00057265	   -18.417	   14.3162	
  -18.4082	0.000527754	  -18.4424	0.000569358	  -18.6865	0.000581839	  -18.5123	0.00055965	  -18.5123	   13.9913	
  -18.5037	0.000514692	  -18.5358	 0.0005567	  -18.7819	0.00056839	  -18.6071	0.000546594	  -18.6071	   13.6648	
  -18.5993	0.000501535	  -18.6275	0.000543982	  -18.8755	0.000554916	  -18.7008	0.000533478	  -18.7008	   13.3369	
  -18.6945	0.00048829	  -18.7188	0.000531202	  -18.9684	0.000541402	  -18.7939	0.000520298	  -18.7939	   13.0074	
  -18.7891	0.000474971	  -18.8101	0.000518373	  -19.0606	0.000527814	  -18.8866	0.000507053	  -18.8866	   12.6763	
  -18.8825	0.000461604	   -18.901	0.000505505	   -19.152	0.000514183	  -18.9785	0.000493764	  -18.9785	   12.3441	
  -18.9748	0.000448213	  -18.9914	0.000492605	   -19.243	0.000500513	  -19.0697	0.000480444	  -19.0697	   12.0111	
  -19.0666	0.000434827	  -19.0811	0.000479688	  -19.3326	0.000486793	  -19.1601	0.000467103	  -19.1601	   11.6776	
   -19.157	0.000421466	  -19.1706	0.000466778	  -19.4218	0.000473025	  -19.2498	0.000453756	  -19.2498	   11.3439	
  -19.2471	0.000408146	  -19.2596	0.000453872	  -19.5099	0.000459227	  -19.3389	0.000440415	  -19.3389	   11.0104	
  -19.3369	0.000394876	  -19.3475	0.000440974	  -19.5972	0.000445409	  -19.4272	0.000427086	  -19.4272	   10.6772	
   -19.426	0.000381652	  -19.4352	0.00042809	  -19.6845	0.000431572	  -19.5152	0.000413771	  -19.5152	   10.3443	
  -19.5146	0.000368461	  -19.5218	0.000415214	  -19.7709	0.000417732	  -19.6025	0.000400469	  -19.6025	   10.0117	
  -19.6014	0.000355287	  -19.6071	0.000402331	  -19.8576	0.000403895	  -19.6887	0.000387171	  -19.6887	   9.67927	
  -19.6875	0.000342107	  -19.6919	0.000389432	   -19.944	0.000390053	  -19.7744	0.000373864	  -19.7744	    9.3466	
  -19.7727	0.000328898	  -19.7757	0.000376509	  -20.0286	0.000376231	   -19.859	0.000360546	   -19.859	   9.01365	
  -19.8564	0.000315641	  -19.8586	0.000363549	  -20.1125	0.000362446	  -19.9425	0.000347212	  -19.9425	    8.6803	
  -19.9396	0.000302324	  -19.9416	0.000350549	  -20.1965	0.000348695	  -20.0259	0.000333856	  -20.0259	    8.3464	
  -20.0209	0.00028894	  -20.0231	0.00033751	  -20.2796	0.000334984	  -20.1079	0.000320478	  -20.1079	   8.01195	
  -20.1005	0.000275494	  -20.1035	0.000324435	  -20.3619	0.000321313	  -20.1887	0.000307081	  -20.1887	   7.67702	
  -20.1794	0.000261996	  -20.1828	0.000311327	  -20.4429	0.000307675	  -20.2684	0.000293666	  -20.2684	   7.34165	
  -20.2578	0.000248463	  -20.2618	0.000298204	  -20.5242	0.000294051	  -20.3479	0.000280239	  -20.3479	   7.00598	
  -20.3357	0.000234914	  -20.3406	0.00028507	  -20.6031	0.000280428	  -20.4265	0.000266804	  -20.4265	    6.6701	
  -20.4123	0.000221372	  -20.4187	0.000271931	  -20.6814	0.000266782	  -20.5041	0.000253362	  -20.5041	   6.33404	
  -20.4888	0.000207854	  -20.4962	 0.0002588	  -20.7592	0.000253086	  -20.5814	0.000239913	  -20.5814	   5.99783	
  -20.5646	0.000194376	  -20.5731	0.000245678	  -20.8356	0.00023934	  -20.6578	0.000226465	  -20.6578	   5.66162	
  -20.6399	0.000180944	  -20.6484	0.000232565	  -20.9112	0.000225535	  -20.7332	0.000213015	  -20.7332	   5.32537	
  -20.7141	0.000167561	  -20.7227	0.000219465	   -20.987	0.00021166	  -20.8079	0.000199562	  -20.8079	   4.98905	
  -20.7875	0.000154218	  -20.7958	0.000206376	  -21.0616	0.000197727	  -20.8816	0.000186107	  -20.8816	   4.65268	
  -20.8599	0.000140902	  -20.8687	0.000193292	  -21.1351	0.000183755	  -20.9546	0.00017265	  -20.9546	   4.31624	
  -20.9327	0.000127595	  -20.9415	0.000180206	  -21.2078	0.000169767	  -21.0273	0.000159189	  -21.0273	   3.97974	
  -21.0034	0.000114278	  -21.0134	0.000167119	  -21.2795	0.000155799	  -21.0988	0.000145732	  -21.0988	    3.6433	
  -21.0732	0.000100934	  -21.0844	0.000154025	  -21.3502	0.000141877	  -21.1693	0.000132279	  -21.1693	   3.30697	
  -21.1429	8.75534e-05	  -21.1542	0.00014092	  -21.4203	0.000128012	  -21.2391	0.000118829	  -21.2391	   2.97072	
  -21.2119	 7.413e-05	  -21.2232	0.000127809	  -21.4896	0.000114221	  -21.3082	0.000105387	  -21.3082	   2.63467	
  -21.2796	6.06671e-05	   -21.293	0.000114692	   -21.558	0.000100512	  -21.3769	9.19571e-05	  -21.3769	   2.29893	
  -21.3463	4.71741e-05	  -21.3621	0.000101569	  -21.6252	8.68726e-05	  -21.4445	7.85386e-05	  -21.4445	   1.96347	
  -21.4116	3.36646e-05	  -21.4307	8.84454e-05	  -21.6928	7.3282e-05	  -21.5117	6.51307e-05	  -21.5117	   1.62827	
  -21.4761	2.0154e-05	  -21.4984	7.53277e-05	  -21.7584	5.97252e-05	  -21.5776	5.17356e-05	  -21.5776	   1.29339	
  -21.5397	6.66475e-06	  -21.5653	6.22159e-05	  -21.8226	4.61828e-05	  -21.6425	3.83545e-05	  -21.6425	  0.958862	
  -21.6022	-6.78717e-06	  -21.6305	4.91141e-05	  -21.8861	3.26262e-05	  -21.7063	2.49844e-05	  -21.7063	  0.624609	
  -21.6636	-2.01895e-05	  -21.6939	3.60289e-05	  -21.9481	1.90354e-05	  -21.7685	1.1625e-05	  -21.7685	  0.290624	
  -21.7245	-3.35355e-05	  -21.7562	2.29603e-05	  -22.0098	5.40631e-06	  -21.8302	-1.72299e-06	  -21.8302	-0.0430746	
  -21.7844	-4.68232e-05	  -21.8181	9.90871e-06	  -22.0704	-8.27831e-06	   -21.891	-1.50643e-05	   -21.891	 -0.376607	
  -21.8443	-6.0062e-05	  -21.8786	-3.12242e-06	  -22.1306	-2.20163e-05	  -21.9512	-2.84003e-05	  -21.9512	 -0.710006	
   -21.904	-7.32628e-05	   -21.938	-1.61372e-05	  -22.1899	-3.57838e-05	  -22.0106	-4.17279e-05	  -22.0106	   -1.0432	
  -21.9625	-8.64326e-05	  -21.9965	-2.91412e-05	  -22.2485	-4.95693e-05	  -22.0692	-5.50477e-05	  -22.0692	  -1.37619	
  -22.0211	-9.95902e-05	  -22.0537	-4.21343e-05	  -22.3064	-6.33569e-05	  -22.1271	-6.83605e-05	  -22.1271	  -1.70901	
  -22.0789	-0.000112747	  -22.1092	-5.51181e-05	  -22.3627	-7.71202e-05	  -22.1836	-8.16617e-05	  -22.1836	  -2.04154	
  -22.1359	-0.000125916	  -22.1636	-6.80984e-05	  -22.4172	-9.08352e-05	  -22.2389	-9.49498e-05	  -22.2389	  -2.37375	
  -22.1921	-0.000139105	   -22.217	-8.10756e-05	  -22.4714	-0.000104493	  -22.2935	-0.000108225	  -22.2935	  -2.70562	
  -22.2472	-0.000152314	  -22.2697	-9.4048e-05	  -22.5246	-0.000118083	  -22.3472	-0.000121482	  -22.3472	  -3.03704	
   -22.302	-0.000165539	  -22.3218	-0.000107016	  -22.5765	-0.000131597	  -22.4001	-0.000134717	  -22.4001	  -3.36794	
  -22.3562	-0.000178767	  -22.3739	-0.000119981	  -22.6286	-0.000145051	  -22.4529	-0.000147933	  -22.4529	  -3.69832	
  -22.4096	-0.000191986	   -22.425	-0.000132933	  -22.6798	-0.000158455	  -22.5048	-0.000161125	  -22.5048	  -4.02812	
  -22.4622	-0.000205178	  -22.4751	-0.000145871	  -22.7309	-0.000171821	  -22.5561	-0.00017429	  -22.5561	  -4.35725	
  -22.5137	-0.000218346	   -22.525	-0.000158792	  -22.7805	-0.000185167	  -22.6064	-0.000187435	  -22.6064	  -4.68587	
  -22.5636	-0.000231489	  -22.5737	-0.000171688	  -22.8297	-0.000198513	  -22.6557	-0.000200564	  -22.6557	  -5.01409	
  -22.6129	-0.000244593	   -22.622	-0.000184557	  -22.8778	-0.000211873	  -22.7042	-0.000213674	  -22.7042	  -5.34185	
   -22.661	-0.000257651	   -22.669	-0.000197395	  -22.9247	-0.000225256	  -22.7516	-0.000226768	  -22.7516	  -5.66919	
  -22.7083	-0.000270698	  -22.7154	-0.000210205	  -22.9707	-0.000238665	  -22.7981	-0.000239856	  -22.7981	  -5.99639	
  -22.7545	-0.000283719	  -22.7603	-0.000222986	  -23.0153	-0.000252093	  -22.8434	-0.000252933	  -22.8434	  -6.32332	
  -22.8001	-0.000296698	  -22.8045	-0.000235712	  -23.0596	-0.000265528	  -22.8881	-0.00026598	  -22.8881	  -6.64949	
  -22.8444	-0.000309639	  -22.8472	-0.000248396	  -23.1038	-0.000278959	  -22.9318	-0.000278998	  -22.9318	  -6.97494	
  -22.8874	-0.000322536	   -22.889	-0.00026105	  -23.1463	-0.000292368	  -22.9743	-0.000291985	  -22.9743	  -7.29961	
  -22.9292	-0.00033538	    -22.93	-0.000273709	  -23.1878	-0.000305735	  -23.0156	-0.000304941	  -23.0156	  -7.62353	
  -22.9703	-0.000348164	    -22.97	-0.000286376	   -23.229	-0.000319047	  -23.0564	-0.000317862	  -23.0564	  -7.94656	
  -23.0106	-0.000360905	  -23.0095	-0.000299057	  -23.2688	-0.000332298	  -23.0963	-0.000330753	  -23.0963	  -8.26883	
  -23.0509	-0.000373601	  -23.0486	-0.00031178	  -23.3084	-0.000345483	   -23.136	-0.000343621	   -23.136	  -8.59053	
  -23.0906	-0.000386269	  -23.0876	-0.000324551	   -23.347	-0.0003586	  -23.1751	-0.000356473	  -23.1751	  -8.91183	
  -23.1286	-0.000398937	  -23.1245	-0.000337365	  -23.3852	-0.000371663	  -23.2128	-0.000369322	  -23.2128	  -9.23305	
  -23.1656	-0.000411613	  -23.1612	-0.000350215	  -23.4222	-0.000384681	  -23.2497	-0.00038217	  -23.2497	  -9.55425	
  -23.2001	-0.000424305	   -23.198	-0.000363069	  -23.4573	-0.000397668	  -23.2851	-0.000395014	  -23.2851	  -9.87535	
  -23.2337	-0.000437005	  -23.2344	-0.000375906	  -23.4913	-0.000410643	  -23.3198	-0.000407851	  -23.3198	  -10.1963	
  -23.2662	-0.000449718	  -23.2699	-0.000388705	  -23.5247	-0.000423616	  -23.3536	-0.00042068	  -23.3536	   -10.517	
  -23.2971	-0.000462437	  -23.3039	-0.000401445	  -23.5583	-0.000436594	  -23.3864	-0.000433492	  -23.3864	  -10.8373	
   -23.327	-0.000475152	  -23.3368	-0.000414092	  -23.5906	-0.000449581	  -23.4181	-0.000446275	  -23.4181	  -11.1569	
  -23.3558	-0.000487838	  -23.3682	-0.000426622	  -23.6214	-0.000462575	  -23.4485	-0.000459012	  -23.4485	  -11.4753	
  -23.3842	-0.000500474	  -23.3989	-0.000439047	  -23.6506	-0.000475564	  -23.4779	-0.000471695	  -23.4779	  -11.7924	
  -23.4123	-0.00051306	  -23.4296	-0.00045137	  -23.6791	-0.000488536	   -23.507	-0.000484322	   -23.507	  -12.1081	
  -23.4387	-0.000525578	  -23.4595	-0.0004636	  -23.7069	-0.000501477	   -23.535	-0.000496885	   -23.535	  -12.4221	
  -23.4642	-0.00053802	  -23.4878	-0.000475761	  -23.7332	-0.000514372	  -23.5617	-0.000509384	  -23.5617	  -12.7346	
   -23.489	-0.000550404	  -23.5148	-0.000487871	  -23.7588	-0.000527207	  -23.5875	-0.000521827	  -23.5875	  -13.0457	
  -23.5127	-0.000562728	  -23.5395	-0.000499965	  -23.7844	-0.000539974	  -23.6122	-0.000534223	  -23.6122	  -13.3556	
  -23.5354	-0.000574994	  -23.5637	-0.000512071	  -23.8091	-0.00055267	  -23.6361	-0.000546578	  -23.6361	  -13.6645	
  -23.5571	-0.000587215	  -23.5877	-0.000524211	  -23.8331	-0.000565292	  -23.6593	-0.000558906	  -23.6593	  -13.9726	
  -23.5784	-0.000599405	  -23.6107	-0.000536389	   -23.857	-0.000577848	   -23.682	-0.000571214	   -23.682	  -14.2803	
  -23.5995	-0.000611564	  -23.6332	-0.000548597	  -23.8794	-0.000590348	   -23.704	-0.000583503	   -23.704	  -14.5876	
  -23.6196	-0.000623703	  -23.6539	-0.000560828	  -23.9003	-0.000602805	  -23.7246	-0.000595779	  -23.7246	  -14.8945	
  -23.6385	-0.000635837	  -23.6746	-0.000573058	  -23.9199	-0.000615228	  -23.7444	-0.000608041	  -23.7444	   -15.201	
  -23.6564	-0.000647965	  -23.6936	-0.000585252	  -23.9381	-0.000627621	  -23.7627	-0.000620279	  -23.7627	   -15.507	
  -23.6732	-0.000660071	  -23.7115	-0.000597374	   -23.955	-0.000639948	  -23.7799	-0.000632465	  -23.7799	  -15.8116	
   -23.689	-0.000672158	  -23.7294	-0.000609395	  -23.9714	-0.000652233	  -23.7966	-0.000644595	  -23.7966	  -16.1149	
  -23.7038	-0.000684208	  -23.7456	-0.000621297	   -23.987	-0.000664491	  -23.8121	-0.000656665	  -23.8121	  -16.4166	
  -23.7177	-0.000696205	  -23.7611	-0.000633082	   -24.002	-0.000676727	  -23.8269	-0.000668672	  -23.8269	  -16.7168	
  -23.7315	-0.000708136	   -23.776	-0.000644758	  -24.0168	-0.000688949	  -23.8415	-0.000680614	  -23.8415	  -17.0154	
  -23.7445	-0.000719998	  -23.7902	-0.000656341	  -24.0303	-0.000701148	   -23.855	-0.000692496	   -23.855	  -17.3124	
  -23.7572	-0.000731781	  -23.8036	-0.000667856	  -24.0424	-0.000713348	  -23.8677	-0.000704328	  -23.8677	  -17.6082	
  -23.7689	-0.000743478	   -23.816	-0.000679336	   -24.053	-0.000725534	  -23.8793	-0.000716116	  -23.8793	  -17.9029	
  -23.7797	-0.000755099	  -23.8277	-0.000690803	  -24.0631	-0.000737697	  -23.8902	-0.000727867	  -23.8902	  -18.1967	
  -23.7892	-0.000766649	   -23.838	-0.000702273	  -24.0723	-0.000749832	  -23.8998	-0.000739585	  -23.8998	  -18.4896	
  -23.7964	-0.000778132	  -23.8463	-0.000713759	  -24.0811	-0.000761915	  -23.9079	-0.000751269	  -23.9079	  -18.7817	
  -23.8025	-0.000789566	  -23.8529	-0.00072523	  -24.0895	-0.000773938	   -23.915	-0.000762911	   -23.915	  -19.0728	
  -23.8073	-0.000800961	  -23.8584	-0.000736628	  -24.0953	-0.000785893	  -23.9204	-0.000774494	  -23.9204	  -19.3624	
  -23.8112	-0.000812322	  -23.8624	-0.000747997	  -24.1005	-0.000797756	  -23.9247	-0.000786025	  -23.9247	  -19.6506	
  -23.8153	-0.000823659	  -23.8655	-0.00075941	  -24.1054	-0.000809504	  -23.9287	-0.000797524	  -23.9287	  -19.9381	
  -23.8189	-0.000834971	  -23.8668	-0.000770825	  -24.1088	-0.000821134	  -23.9315	-0.000808977	  -23.9315	  -20.2244	
  -23.8222	-0.000846259	   -23.866	-0.000782186	  -24.1113	-0.000832661	  -23.9332	-0.000820369	  -23.9332	  -20.5092	
   -23.825	-0.000857519	  -23.8612	-0.000793555	  -24.1124	-0.000844092	  -23.9329	-0.000831722	  -23.9329	  -20.7931	
  -23.8267	-0.000868746	  -23.8548	-0.000804954	  -24.1129	-0.000855437	  -23.9315	-0.000843046	  -23.9315	  -21.0761	
  -23.8281	-0.000879929	  -23.8498	-0.000816322	  -24.1121	-0.000866719	    -23.93	-0.000854323	    -23.93	  -21.3581	
  -23.8272	-0.000891053	  -23.8451	-0.00082763	  -24.1091	-0.000877952	  -23.9271	-0.000865545	  -23.9271	  -21.6386	
  -23.8249	-0.000902115	  -23.8373	-0.000838866	  -24.1066	-0.000889163	  -23.9229	-0.000876714	  -23.9229	  -21.9179	
  -23.8215	-0.000913105	  -23.8277	-0.00084998	  -24.1021	-0.000900372	  -23.9171	-0.000887819	  -23.9171	  -22.1955	
  -23.8169	-0.000924015	  -23.8213	-0.000860945	  -24.0967	-0.000911586	  -23.9116	-0.000898849	  -23.9116	  -22.4712	
  -23.8119	-0.000934847	  -23.8177	-0.000871799	   -24.091	-0.000922814	  -23.9069	-0.00090982	  -23.9069	  -22.7455	
  -23.8065	-0.000945604	  -23.8111	-0.000882496	  -24.0845	-0.000934016	  -23.9007	-0.000920705	  -23.9007	  -23.0176	
  -23.7995	-0.000956291	  -23.8027	-0.000893001	  -24.0769	-0.000945188	   -23.893	-0.000931493	   -23.893	  -23.2873	
  -23.7922	-0.000966915	  -23.7959	-0.000903386	  -24.0688	-0.000956324	  -23.8856	-0.000942208	  -23.8856	  -23.5552	
  -23.7835	-0.000977489	  -23.7907	-0.000913717	  -24.0597	-0.000967427	   -23.878	-0.000952878	   -23.878	  -23.8219	
   -23.774	-0.000988019	  -23.7842	-0.000924024	  -24.0509	-0.000978478	  -23.8697	-0.000963507	  -23.8697	  -24.0877	
  -23.7631	-0.000998512	  -23.7763	-0.000934343	  -24.0403	-0.000989457	  -23.8599	-0.000974104	  -23.8599	  -24.3526	
  -23.7511	-0.00100898	  -23.7673	-0.000944726	  -24.0285	-0.00100039	   -23.849	-0.000984696	   -23.849	  -24.6174	
  -23.7386	-0.00101941	  -23.7586	-0.000955196	  -24.0153	-0.00101127	  -23.8375	-0.000995292	  -23.8375	  -24.8823	
  -23.7253	-0.0010298	  -23.7471	-0.00096575	  -24.0016	-0.00102212	  -23.8247	-0.00100589	  -23.8247	  -25.1472	
  -23.7118	-0.00104015	   -23.734	-0.000976384	  -23.9873	-0.00103293	   -23.811	-0.00101649	   -23.811	  -25.4122	
  -23.6975	-0.00105044	  -23.7203	-0.000987043	  -23.9719	-0.00104371	  -23.7965	-0.00102706	  -23.7965	  -25.6766	
  -23.6817	-0.00106068	  -23.7046	-0.000997658	  -23.9554	-0.00105445	  -23.7805	-0.00103759	  -23.7805	  -25.9398	
  -23.6659	-0.00107084	  -23.6876	-0.0010082	  -23.9384	-0.00106515	   -23.764	-0.00104806	   -23.764	  -26.2016	
  -23.6489	-0.00108094	  -23.6683	-0.00101862	  -23.9199	-0.00107581	  -23.7457	-0.00105845	  -23.7457	  -26.4614	
  -23.6306	-0.00109095	  -23.6486	-0.00102886	  -23.9007	-0.00108641	  -23.7266	-0.00106874	  -23.7266	  -26.7185	
  -23.6106	-0.00110089	  -23.6283	-0.00103889	   -23.881	-0.00109693	  -23.7066	-0.0010789	  -23.7066	  -26.9725	
   -23.589	-0.00111075	  -23.6054	-0.00104871	  -23.8601	-0.00110738	  -23.6848	-0.00108895	  -23.6848	  -27.2237	
  -23.5672	-0.00112054	  -23.5811	-0.00105835	  -23.8384	-0.00111776	  -23.6622	-0.00109888	  -23.6622	  -27.4721	
  -23.5442	-0.00113027	  -23.5575	-0.00106783	  -23.8151	-0.00112806	  -23.6389	-0.00110872	  -23.6389	   -27.718	
  -23.5208	-0.00113995	  -23.5332	-0.00107722	  -23.7914	-0.00113828	  -23.6151	-0.00111848	  -23.6151	  -27.9621	
   -23.497	-0.00114958	  -23.5084	-0.00108657	  -23.7663	-0.00114842	  -23.5906	-0.00112819	  -23.5906	  -28.2048	
  -23.4726	-0.00115918	  -23.4817	-0.00109593	  -23.7402	-0.00115848	  -23.5648	-0.00113786	  -23.5648	  -28.4466	
  -23.4474	-0.00116874	  -23.4554	-0.00110535	  -23.7131	-0.00116849	  -23.5386	-0.00114753	  -23.5386	  -28.6882	
  -23.4209	-0.00117827	  -23.4299	-0.00111486	  -23.6852	-0.00117846	   -23.512	-0.00115719	   -23.512	  -28.9299	
  -23.3924	-0.00118776	  -23.4029	-0.00112445	  -23.6559	-0.00118837	  -23.4837	-0.00116686	  -23.4837	  -29.1715	
  -23.3629	-0.0011972	  -23.3749	-0.00113411	  -23.6266	-0.00119825	  -23.4548	-0.00117652	  -23.4548	   -29.413	
   -23.332	-0.00120659	  -23.3463	-0.0011438	  -23.5956	-0.0012081	  -23.4246	-0.00118616	  -23.4246	  -29.6541	
  -23.3005	-0.00121593	  -23.3181	-0.0011535	  -23.5636	-0.00121791	  -23.3941	-0.00119578	  -23.3941	  -29.8944	
  -23.2681	-0.0012252	  -23.2894	-0.00116313	  -23.5308	-0.00122768	  -23.3627	-0.00120534	  -23.3627	  -30.1334	
  -23.2354	-0.0012344	  -23.2582	-0.00117267	  -23.4974	-0.00123741	  -23.3303	-0.00121483	  -23.3303	  -30.3707	
  -23.2016	-0.00124352	  -23.2255	-0.00118207	  -23.4634	-0.00124711	  -23.2968	-0.00122423	  -23.2968	  -30.6058	
  -23.1657	-0.00125257	  -23.1923	-0.0011913	  -23.4285	-0.00125677	  -23.2622	-0.00123355	  -23.2622	  -30.8387	
  -23.1296	-0.00126154	  -23.1579	-0.00120038	  -23.3933	-0.00126638	  -23.2269	-0.00124277	  -23.2269	  -31.0692	
  -23.0926	-0.00127045	   -23.122	-0.0012093	   -23.356	-0.00127593	  -23.1902	-0.00125189	  -23.1902	  -31.2973	
  -23.0542	-0.00127929	  -23.0843	-0.0012181	  -23.3179	-0.00128542	  -23.1521	-0.00126094	  -23.1521	  -31.5235	
  -23.0153	-0.00128808	  -23.0456	-0.0012268	  -23.2796	-0.00129486	  -23.1135	-0.00126991	  -23.1135	  -31.7478	
  -22.9764	-0.00129682	  -23.0065	-0.00123544	  -23.2398	-0.00130422	  -23.0742	-0.00127883	  -23.0742	  -31.9706	
  -22.9365	-0.00130551	   -22.966	-0.00124407	  -23.1995	-0.0013135	   -23.034	-0.00128769	   -23.034	  -32.1924	
  -22.8965	-0.00131416	   -22.925	-0.00125271	  -23.1581	-0.00132271	  -22.9932	-0.00129653	  -22.9932	  -32.4132	
   -22.855	-0.00132278	  -22.8823	-0.00126139	  -23.1154	-0.00133184	  -22.9509	-0.00130534	  -22.9509	  -32.6334	
  -22.8124	-0.00133136	  -22.8382	-0.00127011	   -23.072	-0.00134089	  -22.9075	-0.00131412	  -22.9075	   -32.853	
  -22.7693	-0.00133989	  -22.7932	-0.00127887	  -23.0277	-0.00134987	  -22.8634	-0.00132288	  -22.8634	  -33.0719	
  -22.7247	-0.00134837	  -22.7473	-0.00128764	  -22.9824	-0.00135879	  -22.8181	-0.0013316	  -22.8181	    -33.29	
  -22.6791	-0.00135679	  -22.7001	-0.00129639	  -22.9361	-0.00136763	  -22.7718	-0.00134027	  -22.7718	  -33.5068	
  -22.6332	-0.00136514	  -22.6523	-0.00130508	  -22.8893	-0.00137642	  -22.7249	-0.00134888	  -22.7249	   -33.722	
  -22.5862	-0.00137342	  -22.6031	-0.00131368	  -22.8419	-0.00138515	  -22.6771	-0.00135742	  -22.6771	  -33.9354	
  -22.5385	-0.00138162	  -22.5539	-0.00132216	  -22.7929	-0.00139382	  -22.6284	-0.00136587	  -22.6284	  -34.1467	
  -22.4891	-0.00138974	  -22.5042	-0.0013305	  -22.7428	-0.00140244	  -22.5787	-0.00137423	  -22.5787	  -34.3556	
  -22.4389	-0.00139779	  -22.4533	-0.00133867	  -22.6931	 -0.001411	  -22.5284	-0.00138249	  -22.5284	  -34.5622	
   -22.388	-0.00140576	  -22.4022	-0.0013467	  -22.6424	-0.00141951	  -22.4775	-0.00139066	  -22.4775	  -34.7664	
  -22.3362	-0.00141366	  -22.3502	-0.00135458	  -22.5907	-0.00142797	  -22.4257	-0.00139874	  -22.4257	  -34.9685	
  -22.2842	-0.00142151	  -22.2977	-0.00136237	  -22.5385	-0.00143638	  -22.3735	-0.00140675	  -22.3735	  -35.1688	
  -22.2311	-0.00142931	  -22.2444	-0.00137008	  -22.4868	-0.00144473	  -22.3207	-0.0014147	  -22.3207	  -35.3676	
  -22.1761	-0.00143705	  -22.1895	-0.00137775	  -22.4348	-0.00145301	  -22.2668	-0.00142261	  -22.2668	  -35.5652	
  -22.1206	-0.00144476	  -22.1342	-0.00138542	  -22.3817	-0.00146123	  -22.2122	-0.00143047	  -22.2122	  -35.7618	
  -22.0644	-0.00145243	  -22.0793	-0.00139311	  -22.3281	-0.0014694	  -22.1573	-0.00143831	  -22.1573	  -35.9578	
  -22.0072	-0.00146005	   -22.024	-0.00140083	  -22.2733	-0.0014775	  -22.1015	-0.00144612	  -22.1015	  -36.1531	
  -21.9484	-0.00146762	  -21.9679	-0.00140857	   -22.217	-0.00148554	  -22.0444	-0.00145391	  -22.0444	  -36.3477	
  -21.8896	-0.00147514	  -21.9103	-0.00141632	    -22.16	-0.00149352	  -21.9866	-0.00146166	  -21.9866	  -36.5415	
  -21.8303	-0.00148259	  -21.8532	-0.00142404	  -22.1021	-0.00150144	  -21.9285	-0.00146936	  -21.9285	  -36.7339	
    -21.77	-0.00148998	  -21.7946	-0.00143169	  -22.0429	-0.0015093	  -21.8692	-0.00147699	  -21.8692	  -36.9247	
  -21.7091	-0.00149728	  -21.7357	-0.00143927	  -21.9832	-0.0015171	  -21.8093	-0.00148455	  -21.8093	  -37.1138	
  -21.6476	-0.00150452	   -21.675	-0.00144674	  -21.9219	-0.00152483	  -21.7482	-0.00149203	  -21.7482	  -37.3007	
  -21.5859	-0.00151168	  -21.6132	-0.00145409	  -21.8597	-0.00153253	  -21.6863	-0.00149943	  -21.6863	  -37.4859	
  -21.5235	-0.00151876	  -21.5509	-0.00146135	  -21.7966	-0.00154022	  -21.6237	-0.00150678	  -21.6237	  -37.6694	
  -21.4598	-0.00152578	  -21.4875	-0.00146849	  -21.7331	-0.00154786	  -21.5601	-0.00151404	  -21.5601	  -37.8511	
  -21.3951	-0.00153273	  -21.4235	-0.00147558	  -21.6683	-0.00155542	  -21.4956	-0.00152124	  -21.4956	  -38.0311	
  -21.3298	-0.00153962	  -21.3588	-0.00148263	  -21.6014	-0.00156291	    -21.43	-0.00152839	    -21.43	  -38.2097	
  -21.2641	-0.00154646	  -21.2932	-0.00148965	  -21.5338	-0.00157031	  -21.3637	-0.00153548	  -21.3637	  -38.3869	
  -21.1976	-0.00155325	  -21.2261	-0.00149666	  -21.4656	-0.00157761	  -21.2964	-0.0015425	  -21.2964	  -38.5626	
  -21.1299	-0.00155998	  -21.1579	-0.00150367	  -21.3967	-0.00158479	  -21.2282	-0.00154948	  -21.2282	   -38.737	
  -21.0615	-0.00156666	  -21.0893	-0.00151068	  -21.3271	-0.00159186	  -21.1593	-0.0015564	  -21.1593	  -38.9101	
  -20.9931	-0.00157328	  -21.0196	-0.00151763	  -21.2566	-0.00159884	  -21.0897	-0.00156325	  -21.0897	  -39.0812	
  -20.9226	-0.00157984	  -20.9475	-0.00152448	  -21.1861	-0.00160573	  -21.0187	-0.00157002	  -21.0187	  -39.2504	
  -20.8509	-0.00158634	   -20.874	-0.00153129	  -21.1148	-0.00161255	  -20.9466	-0.00157673	  -20.9466	  -39.4182	
  -20.7786	-0.00159281	  -20.7996	-0.00153797	  -21.0426	-0.00161938	  -20.8736	-0.00158338	  -20.8736	  -39.5846	
  -20.7057	-0.00159922	  -20.7239	-0.00154451	  -20.9692	-0.00162622	  -20.7996	-0.00158999	  -20.7996	  -39.7496	
  -20.6321	-0.0016056	  -20.6473	-0.00155098	  -20.8955	-0.00163308	   -20.725	-0.00159656	   -20.725	  -39.9139	
  -20.5564	-0.00161194	  -20.5676	-0.00155739	  -20.8208	-0.00163993	  -20.6483	-0.00160309	  -20.6483	  -40.0772	
  -20.4792	-0.00161823	  -20.4863	-0.00156375	  -20.7449	-0.00164677	  -20.5701	-0.00160958	  -20.5701	  -40.2396	
  -20.4012	-0.0016245	  -20.4057	-0.0015701	   -20.668	-0.00165357	  -20.4916	-0.00161606	  -20.4916	  -40.4014	
  -20.3216	-0.00163071	  -20.3227	-0.00157651	  -20.5913	-0.00166027	  -20.4118	-0.0016225	  -20.4118	  -40.5625	
  -20.2419	-0.00163685	  -20.2375	-0.00158296	  -20.5137	-0.00166683	  -20.3311	-0.00162888	  -20.3311	   -40.722	
  -20.1612	-0.00164291	  -20.1537	-0.00158945	  -20.4347	-0.00167322	  -20.2499	-0.00163519	  -20.2499	  -40.8799	
  -20.0798	-0.00164891	  -20.0735	 -0.001596	  -20.3552	-0.00167942	  -20.1695	-0.00164145	  -20.1695	  -41.0361	
  -19.9982	-0.00165481	  -19.9927	-0.00160255	  -20.2748	-0.00168547	  -20.0886	-0.00164761	  -20.0886	  -41.1902	
  -19.9151	-0.00166057	  -19.9093	-0.00160901	  -20.1932	-0.00169135	  -20.0059	-0.00165364	  -20.0059	  -41.3411	
  -19.8315	-0.0016662	   -19.827	-0.00161537	  -20.1114	-0.0016971	  -19.9233	-0.00165956	  -19.9233	  -41.4889	
  -19.7463	-0.00167174	  -19.7478	-0.00162157	  -20.0281	-0.00170276	  -19.8407	-0.00166536	  -19.8407	  -41.6339	
  -19.6603	-0.00167715	  -19.6685	-0.00162756	  -19.9439	-0.0017084	  -19.7576	-0.00167104	  -19.7576	  -41.7759	
  -19.5741	-0.00168245	  -19.5881	-0.00163331	   -19.859	-0.00171408	  -19.6737	-0.00167661	  -19.6737	  -41.9152	
  -19.4873	-0.00168767	  -19.5072	-0.00163883	  -19.7732	-0.00171981	  -19.5892	-0.0016821	  -19.5892	  -42.0526	
  -19.4001	-0.00169282	  -19.4267	-0.00164415	  -19.6867	-0.00172562	  -19.5045	-0.00168753	  -19.5045	  -42.1882	
  -19.3125	-0.00169796	  -19.3456	-0.0016493	   -19.599	-0.00173149	   -19.419	-0.00169292	   -19.419	  -42.3229	
  -19.2237	-0.0017031	  -19.2618	-0.00165437	  -19.5105	-0.0017374	   -19.332	-0.00169829	   -19.332	  -42.4572	
  -19.1348	-0.00170828	  -19.1763	-0.00165941	  -19.4201	-0.00174332	  -19.2437	-0.00170367	  -19.2437	  -42.5917	
  -19.0449	-0.00171348	  -19.0887	-0.00166448	  -19.3287	-0.00174917	  -19.1541	-0.00170904	  -19.1541	  -42.7261	
  -18.9541	-0.00171872	  -19.0002	-0.00166964	  -19.2369	-0.00175491	  -19.0638	-0.00171442	  -19.0638	  -42.8606	
  -18.8625	 -0.001724	  -18.9104	-0.00167492	  -19.1433	-0.00176051	  -18.9721	-0.00171981	  -18.9721	  -42.9952	
    -18.77	-0.00172926	  -18.8183	-0.0016803	  -19.0494	-0.00176595	  -18.8792	-0.00172517	  -18.8792	  -43.1292	
  -18.6764	-0.00173446	  -18.7256	-0.00168578	  -18.9548	-0.00177123	  -18.7856	-0.00173049	  -18.7856	  -43.2623	
   -18.582	-0.00173958	  -18.6315	-0.00169132	  -18.8591	-0.00177635	  -18.6909	-0.00173575	  -18.6909	  -43.3937	
  -18.4867	-0.00174455	  -18.5361	-0.00169685	  -18.7631	-0.00178134	  -18.5953	-0.00174091	  -18.5953	  -43.5228	
  -18.3912	-0.00174935	  -18.4407	-0.0017023	  -18.6666	-0.00178624	  -18.4995	-0.00174597	  -18.4995	  -43.6492	
  -18.2946	-0.00175396	  -18.3452	-0.00170763	    -18.57	-0.0017911	  -18.4033	-0.0017509	  -18.4033	  -43.7725	
   -18.197	-0.00175838	   -18.249	-0.00171277	  -18.4728	-0.00179594	  -18.3062	-0.0017557	  -18.3062	  -43.8925	
  -18.0989	-0.00176263	  -18.1522	-0.00171768	  -18.3746	-0.00180081	  -18.2086	-0.00176037	  -18.2086	  -44.0094	
  -18.0002	-0.00176674	   -18.055	-0.00172237	  -18.2764	-0.00180571	  -18.1105	-0.00176494	  -18.1105	  -44.1236	
  -17.9017	-0.00177078	  -17.9586	-0.00172687	  -18.1764	-0.00181064	  -18.0122	-0.00176943	  -18.0122	  -44.2357	
  -17.8023	-0.00177476	  -17.8613	-0.00173118	  -18.0757	-0.00181559	  -17.9131	-0.00177384	  -17.9131	  -44.3461	
   -17.703	-0.00177875	  -17.7634	-0.00173538	  -17.9741	-0.00182053	  -17.8135	-0.00177822	  -17.8135	  -44.4554	
  -17.6031	-0.00178278	  -17.6647	-0.00173952	  -17.8719	-0.00182541	  -17.7132	-0.00178257	  -17.7132	  -44.5643	
  -17.5024	-0.00178688	  -17.5654	-0.00174367	  -17.7682	-0.0018302	   -17.612	-0.00178692	   -17.612	   -44.673	
  -17.4009	-0.00179106	  -17.4666	-0.00174787	  -17.6643	-0.00183489	  -17.5106	-0.00179127	  -17.5106	  -44.7819	
  -17.2986	-0.0017953	   -17.367	-0.00175217	  -17.5588	-0.00183945	  -17.4081	-0.00179564	  -17.4081	   -44.891	
  -17.1952	-0.00179957	  -17.2646	-0.00175658	  -17.4524	-0.00184386	  -17.3041	   -0.0018	  -17.3041	  -45.0001	
  -17.0927	-0.00180384	  -17.1625	-0.00176107	  -17.3453	-0.00184814	  -17.2002	-0.00180435	  -17.2002	  -45.1087	
  -16.9889	-0.00180804	    -17.06	-0.00176563	  -17.2379	-0.00185229	  -17.0956	-0.00180865	  -17.0956	  -45.2163	
  -16.8852	-0.00181214	  -16.9569	-0.0017702	  -17.1293	-0.00185634	  -16.9905	-0.00181289	  -16.9905	  -45.3223	
   -16.781	-0.00181608	  -16.8521	-0.00177471	  -17.0198	-0.00186033	  -16.8843	-0.00181704	  -16.8843	  -45.4259	
  -16.6765	-0.00181984	  -16.7456	-0.00177909	  -16.9094	-0.00186427	  -16.7772	-0.00182107	  -16.7772	  -45.5267	
  -16.5716	-0.00182342	  -16.6404	-0.00178331	  -16.7981	-0.0018682	    -16.67	-0.00182498	    -16.67	  -45.6244	
  -16.4656	-0.00182681	  -16.5346	-0.00178731	  -16.6863	-0.00187214	  -16.5622	-0.00182875	  -16.5622	  -45.7188	
  -16.3592	-0.00183006	  -16.4279	-0.00179108	  -16.5736	-0.00187608	  -16.4536	-0.00183241	  -16.4536	  -45.8102	
  -16.2525	-0.0018332	  -16.3199	-0.00179465	  -16.4608	-0.00188004	  -16.3444	-0.00183596	  -16.3444	  -45.8991	
  -16.1447	-0.00183628	  -16.2111	-0.00179804	  -16.3472	 -0.001884	  -16.2343	-0.00183944	  -16.2343	  -45.9859	
  -16.0359	-0.00183935	  -16.1023	-0.0018013	  -16.2333	-0.00188794	  -16.1238	-0.00184286	  -16.1238	  -46.0716	
  -15.9268	-0.00184245	  -15.9912	-0.00180452	  -16.1179	-0.00189184	   -16.012	-0.00184627	   -16.012	  -46.1567	
  -15.8177	-0.00184561	  -15.8784	-0.00180775	  -16.0029	-0.00189567	  -15.8997	-0.00184968	  -15.8997	  -46.2419	
  -15.7078	-0.00184883	  -15.7656	-0.00181102	  -15.8873	-0.00189942	  -15.7869	-0.00185309	  -15.7869	  -46.3273	
  -15.5965	-0.00185211	  -15.6518	-0.00181438	  -15.7715	-0.00190306	  -15.6732	-0.00185652	  -15.6732	  -46.4129	
  -15.4847	-0.00185542	  -15.5372	-0.00181783	  -15.6552	-0.00190658	  -15.5591	-0.00185994	  -15.5591	  -46.4986	
  -15.3717	-0.00185873	  -15.4219	-0.00182136	  -15.5381	-0.00190997	  -15.4439	-0.00186335	  -15.4439	  -46.5838	
  -15.2585	-0.00186198	  -15.3056	-0.00182494	  -15.4209	-0.00191325	  -15.3283	-0.00186673	  -15.3283	  -46.6681	
  -15.1442	-0.00186514	  -15.1894	-0.00182853	  -15.3028	-0.00191643	  -15.2121	-0.00187004	  -15.2121	  -46.7509	
   -15.029	-0.00186816	  -15.0721	-0.00183206	  -15.1841	-0.00191954	  -15.0951	-0.00187325	  -15.0951	  -46.8313	
  -14.9136	-0.00187101	  -14.9535	-0.00183548	  -15.0653	-0.00192258	  -14.9775	-0.00187636	  -14.9775	  -46.9089	
  -14.7972	-0.00187369	  -14.8343	-0.00183874	  -14.9452	-0.0019256	  -14.8589	-0.00187934	  -14.8589	  -46.9835	
  -14.6791	-0.00187619	  -14.7138	-0.0018418	  -14.8244	-0.00192861	  -14.7391	-0.0018822	  -14.7391	   -47.055	
  -14.5605	-0.00187854	  -14.5934	-0.00184465	  -14.7035	-0.00193162	  -14.6191	-0.00188493	  -14.6191	  -47.1234	
  -14.4408	-0.00188077	  -14.4716	-0.00184728	  -14.5825	-0.00193463	  -14.4983	-0.00188756	  -14.4983	   -47.189	
  -14.3208	-0.00188288	    -14.35	-0.00184974	  -14.4613	-0.00193763	  -14.3774	-0.00189009	  -14.3774	  -47.2522	
  -14.2006	-0.00188495	  -14.2288	-0.00185208	  -14.3398	-0.00194062	  -14.2564	-0.00189255	  -14.2564	  -47.3138	
  -14.0786	-0.00188703	  -14.1063	-0.00185433	  -14.2189	-0.00194357	  -14.1346	-0.00189498	  -14.1346	  -47.3744	
  -13.9564	-0.00188915	  -13.9832	-0.00185656	  -14.0976	-0.00194646	  -14.0124	-0.00189739	  -14.0124	  -47.4348	
  -13.8333	-0.00189135	  -13.8604	-0.00185883	  -13.9754	-0.00194926	  -13.8897	-0.00189981	  -13.8897	  -47.4953	
  -13.7093	-0.00189361	  -13.7372	-0.00186117	  -13.8525	-0.00195195	  -13.7663	-0.00190225	  -13.7663	  -47.5561	
  -13.5854	-0.00189596	  -13.6136	-0.00186361	  -13.7283	-0.00195453	  -13.6424	-0.0019047	  -13.6424	  -47.6175	
   -13.461	-0.00189835	  -13.4886	-0.00186614	  -13.6038	-0.00195699	  -13.5178	-0.00190716	  -13.5178	  -47.6791	
  -13.3366	-0.00190075	   -13.364	-0.00186875	  -13.4796	-0.00195934	  -13.3934	-0.00190961	  -13.3934	  -47.7404	
  -13.2125	-0.00190312	  -13.2403	-0.00187138	   -13.354	-0.0019616	   -13.269	-0.00191203	   -13.269	  -47.8008	
  -13.0864	-0.00190539	  -13.1164	 -0.001874	  -13.2281	-0.00196377	  -13.1436	-0.00191439	  -13.1436	  -47.8596	
  -12.9603	-0.00190751	  -12.9925	-0.00187654	  -13.1021	-0.0019659	  -13.0183	-0.00191665	  -13.0183	  -47.9163	
  -12.8342	-0.00190948	  -12.8677	-0.00187896	  -12.9756	 -0.001968	  -12.8925	-0.00191881	  -12.8925	  -47.9703	
  -12.7081	-0.00191125	  -12.7431	-0.00188121	  -12.8492	-0.00197008	  -12.7668	-0.00192085	  -12.7668	  -48.0212	
   -12.582	-0.00191282	  -12.6178	-0.00188326	  -12.7221	-0.00197215	  -12.6406	-0.00192275	  -12.6406	  -48.0687	
  -12.4544	-0.00191419	  -12.4914	-0.00188512	  -12.5946	-0.00197422	  -12.5135	-0.00192451	  -12.5135	  -48.1128	
  -12.3258	-0.00191542	  -12.3634	-0.00188681	  -12.4662	-0.00197628	  -12.3851	-0.00192617	  -12.3851	  -48.1542	
  -12.1967	-0.00191654	  -12.2352	-0.00188834	  -12.3375	-0.00197831	  -12.2565	-0.00192773	  -12.2565	  -48.1933	
  -12.0674	-0.0019176	  -12.1068	-0.00188977	  -12.2083	-0.0019803	  -12.1275	-0.00192923	  -12.1275	  -48.2306	
  -11.9393	-0.00191866	  -11.9783	-0.00189115	  -12.0775	-0.00198223	  -11.9984	-0.00193068	  -11.9984	   -48.267	
  -11.8107	-0.00191975	  -11.8489	-0.00189252	  -11.9464	-0.00198406	  -11.8687	-0.00193211	  -11.8687	  -48.3028	
  -11.6811	-0.00192091	  -11.7189	-0.00189392	  -11.8145	-0.00198583	  -11.7382	-0.00193355	  -11.7382	  -48.3388	
  -11.5517	-0.00192215	   -11.588	-0.00189538	  -11.6823	-0.00198749	  -11.6073	-0.00193501	  -11.6073	  -48.3752	
  -11.4211	-0.00192346	  -11.4562	-0.00189691	  -11.5492	-0.00198904	  -11.4755	-0.00193647	  -11.4755	  -48.4118	
  -11.2902	-0.00192481	  -11.3244	-0.0018985	   -11.416	-0.00199048	  -11.3435	-0.00193793	  -11.3435	  -48.4483	
  -11.1587	-0.00192616	  -11.1925	-0.00190012	  -11.2822	-0.00199183	  -11.2111	-0.00193937	  -11.2111	  -48.4843	
  -11.0269	-0.00192747	  -11.0593	-0.00190173	  -11.1478	-0.00199309	   -11.078	-0.00194076	   -11.078	   -48.519	
  -10.8953	-0.00192867	   -10.926	-0.00190327	  -11.0127	-0.00199426	  -10.9447	-0.00194207	  -10.9447	  -48.5517	
  -10.7614	-0.00192974	  -10.7916	-0.00190469	  -10.8772	-0.00199534	  -10.8101	-0.00194326	  -10.8101	  -48.5815	
  -10.6268	-0.00193064	  -10.6571	-0.00190597	  -10.7415	-0.00199634	  -10.6751	-0.00194432	  -10.6751	  -48.6079	
  -10.4917	-0.00193136	  -10.5223	-0.00190707	  -10.6056	-0.00199726	  -10.5399	-0.00194523	  -10.5399	  -48.6308	
  -10.3558	-0.00193192	  -10.3868	-0.00190799	  -10.4693	-0.0019981	   -10.404	 -0.001946	   -10.404	  -48.6501	
  -10.2203	-0.00193233	  -10.2513	-0.00190873	  -10.3314	-0.00199887	  -10.2677	-0.00194664	  -10.2677	   -48.666	
  -10.0841	-0.00193263	  -10.1147	-0.00190932	  -10.1933	-0.00199956	  -10.1307	-0.00194717	  -10.1307	  -48.6792	
  -9.94753	-0.00193287	  -9.97834	-0.00190981	  -10.0553	-0.00200019	  -9.99374	-0.00194762	  -9.99374	  -48.6906	
   -9.8105	-0.00193309	   -9.8418	-0.00191024	   -9.9165	-0.00200077	  -9.85626	-0.00194803	  -9.85626	  -48.7008	
  -9.67348	-0.00193333	  -9.70433	-0.00191065	  -9.77727	-0.0020013	  -9.71836	-0.00194843	  -9.71836	  -48.7107	
  -9.53688	-0.00193361	  -9.56692	-0.00191108	  -9.63812	-0.00200179	  -9.58064	-0.00194883	  -9.58064	  -48.7207	
  -9.40012	-0.00193394	   -9.4295	-0.00191156	  -9.49849	-0.00200225	   -9.4427	-0.00194925	   -9.4427	  -48.7313	
  -9.26315	-0.00193431	  -9.29153	-0.0019121	  -9.35838	-0.0020027	  -9.30435	-0.0019497	  -9.30435	  -48.7426	
  -9.12594	-0.00193471	  -9.15298	-0.00191268	  -9.21777	-0.00200313	  -9.16556	-0.00195017	  -9.16556	  -48.7544	
  -8.98723	-0.00193509	   -9.0141	-0.00191329	   -9.0776	-0.00200353	  -9.02631	-0.00195063	  -9.02631	  -48.7659	
  -8.84828	-0.00193542	  -8.87508	-0.00191387	  -8.93635	-0.00200388	  -8.88657	-0.00195106	  -8.88657	  -48.7764	
  -8.70883	-0.00193565	  -8.73589	-0.0019144	  -8.79429	-0.00200418	  -8.74634	-0.00195141	  -8.74634	  -48.7853	
  -8.56932	-0.00193576	  -8.59696	-0.00191484	  -8.65337	-0.00200441	  -8.60655	-0.00195167	  -8.60655	  -48.7917	
  -8.42996	-0.00193572	  -8.45774	-0.00191514	  -8.51176	-0.00200456	  -8.46648	-0.00195181	  -8.46648	  -48.7952	
  -8.28923	-0.00193552	  -8.31819	-0.0019153	  -8.36995	-0.0020046	  -8.32579	-0.00195181	  -8.32579	  -48.7952	
  -8.14816	-0.00193517	  -8.17829	-0.00191529	   -8.2279	-0.00200454	  -8.18478	-0.00195167	  -8.18478	  -48.7917	
  -8.00671	-0.00193469	  -8.03752	-0.00191513	  -8.08439	-0.00200438	  -8.04288	-0.0019514	  -8.04288	   -48.785	
  -7.86536	-0.00193411	  -7.89639	-0.00191483	  -7.94021	-0.00200411	  -7.90066	-0.00195102	  -7.90066	  -48.7755	
  -7.72453	-0.00193346	  -7.75536	-0.00191442	  -7.79561	-0.00200376	   -7.7585	-0.00195055	   -7.7585	  -48.7637	
  -7.58364	-0.00193278	  -7.61341	-0.00191395	  -7.65083	-0.00200333	  -7.61596	-0.00195002	  -7.61596	  -48.7504	
  -7.44265	-0.0019321	  -7.47104	-0.00191344	  -7.50656	-0.00200283	  -7.47342	-0.00194945	  -7.47342	  -48.7364	
  -7.30104	-0.00193144	  -7.32873	-0.00191293	  -7.36152	-0.00200228	  -7.33043	-0.00194888	  -7.33043	  -48.7221	
  -7.15952	-0.00193081	  -7.18689	-0.00191245	  -7.21645	-0.00200171	  -7.18762	-0.00194832	  -7.18762	   -48.708	
  -7.01781	-0.00193021	  -7.04449	 -0.001912	  -7.07036	-0.00200111	  -7.04422	-0.00194777	  -7.04422	  -48.6943	
  -6.87586	-0.00192963	  -6.90201	-0.00191157	   -6.9245	-0.00200049	  -6.90079	-0.00194723	  -6.90079	  -48.6807	
  -6.73318	-0.00192903	  -6.75916	-0.00191116	  -6.77857	-0.00199985	  -6.75697	-0.00194668	  -6.75697	  -48.6669	
  -6.59025	-0.00192838	  -6.61569	-0.00191073	  -6.63183	-0.00199918	  -6.61259	-0.0019461	  -6.61259	  -48.6524	
   -6.4461	-0.00192765	  -6.47209	-0.00191024	  -6.48526	-0.00199849	  -6.46782	-0.00194546	  -6.46782	  -48.6364	
  -6.30172	-0.0019268	  -6.32881	-0.00190966	  -6.33834	-0.00199774	  -6.32296	-0.00194473	  -6.32296	  -48.6184	
  -6.15711	-0.00192581	  -6.18409	-0.00190896	  -6.19106	-0.00199694	  -6.17742	-0.0019439	  -6.17742	  -48.5976	
  -6.01128	-0.00192467	  -6.03921	-0.00190812	  -6.04343	-0.00199605	  -6.03131	-0.00194295	  -6.03131	  -48.5737	
  -5.86622	-0.00192339	   -5.8939	-0.00190713	  -5.89567	-0.00199508	  -5.88526	-0.00194186	  -5.88526	  -48.5466	
  -5.72038	-0.00192197	  -5.74744	-0.00190598	   -5.7485	 -0.001994	  -5.73877	-0.00194065	  -5.73877	  -48.5163	
  -5.57475	-0.00192043	  -5.60013	-0.0019047	  -5.60207	-0.00199282	  -5.59232	-0.00193932	  -5.59232	   -48.483	
  -5.42833	-0.00191883	  -5.45321	-0.00190331	  -5.45533	-0.00199153	  -5.44562	-0.00193789	  -5.44562	  -48.4472	
  -5.28209	-0.00191718	  -5.30661	-0.00190184	  -5.30804	-0.00199014	  -5.29891	-0.00193639	  -5.29891	  -48.4097	
  -5.13599	-0.00191552	  -5.15979	-0.00190032	  -5.15996	-0.00198866	  -5.15191	-0.00193483	  -5.15191	  -48.3708	
   -4.9895	-0.00191387	  -5.01274	-0.00189879	  -5.01234	-0.00198711	  -5.00486	-0.00193325	  -5.00486	  -48.3313	
  -4.84334	-0.00191224	  -4.86569	-0.00189726	  -4.86486	-0.00198549	  -4.85796	-0.00193166	  -4.85796	  -48.2915	
  -4.69673	-0.00191063	  -4.71837	-0.00189576	  -4.71676	-0.00198382	  -4.71062	-0.00193007	  -4.71062	  -48.2517	
   -4.5492	-0.00190902	  -4.57124	-0.00189427	  -4.56831	-0.0019821	  -4.56292	-0.00192846	  -4.56292	  -48.2116	
  -4.40079	-0.00190744	  -4.42426	-0.00189281	  -4.42022	-0.00198035	  -4.41509	-0.00192686	  -4.41509	  -48.1716	
  -4.25249	-0.00190583	  -4.27619	-0.00189131	  -4.27196	-0.00197865	  -4.26688	-0.00192526	  -4.26688	  -48.1316	
  -4.10428	-0.00190415	   -4.1278	-0.00188973	  -4.12304	-0.00197699	  -4.11837	-0.00192363	  -4.11837	  -48.0906	
  -3.95707	-0.00190237	  -3.97933	-0.00188807	  -3.97419	-0.00197532	   -3.9702	-0.00192192	   -3.9702	   -48.048	
  -3.80933	-0.00190044	  -3.83099	-0.0018863	  -3.82563	-0.0019736	  -3.82198	-0.00192011	  -3.82198	  -48.0028	
