# User: ACHyster
# File name: C:/ACHYSTER/ACHyster SENS/SHAMS/CoFe2O4-1gl-water-15 Glycerol- Sens-07-03-2023/CoFe2O4-1gl-water-15 Glycerol- 10_100F- 12kAm -Sens-07-03-20230000#1.txt
# Saved at: ma. mar. 7 14:56:28 2023
# Hyster Loop (3 iterations). Intensity: 12.0 kA/m; Tuned frequency: 9.4 kHz
# Units x axis: (kA/m)
# Units y axis: "Repeats y" & "Average y" (10^(-3)Am^2); "Mass avg y" (Am^2/kg)
# Magnetic mass: 4e-05 g
# Parameter      	Repeat   1	Repeat   2	Repeat   3	Average   	Sigma     
# H_C (kA/m)     	       4.5	       4.5	       4.4	       4.5	       0.1
# M_R (Am^2/kg)  	      33.9	      33.9	      33.3	      33.7	       0.3
# M_max (Am^2/kg)	      66.8	      67.4	      67.1	      67.1	       0.2
# Area (mJ/kg)   	    1211.8	    1212.9	    1177.5	    1200.7	      16.4
# SAR (W/g)      	      11.4	      11.4	      11.1	      11.3	       0.2
#Repeat 1 x	Repeat 1 y	Repeat 2 x	Repeat 2 y	Repeat 3 x	Repeat 3 y	Average x 	Average y 	Mass avg x 	Mass avg y 
  -1.67169	-0.00171413	  -1.67369	-0.00171482	  -1.67807	-0.00168867	  -1.67449	-0.00170587	  -1.67449	  -42.6469	
  -1.59672	-0.00169988	  -1.59878	-0.00170092	  -1.60294	-0.00167403	  -1.59948	-0.00169161	  -1.59948	  -42.2902	
  -1.52186	-0.00168541	  -1.52391	-0.00168695	  -1.52793	-0.00165922	  -1.52457	-0.00167719	  -1.52457	  -41.9298	
  -1.44687	-0.00167078	  -1.44886	-0.00167269	  -1.45279	-0.00164433	  -1.44951	-0.0016626	  -1.44951	   -41.565	
  -1.37193	-0.00165608	  -1.37386	-0.00165832	  -1.37767	-0.00162927	  -1.37449	-0.00164789	  -1.37449	  -41.1972	
  -1.29683	-0.00164116	  -1.29883	-0.0016438	  -1.30256	-0.00161404	  -1.29941	 -0.001633	  -1.29941	  -40.8249	
  -1.22168	-0.00162608	  -1.22373	-0.00162907	  -1.22738	-0.00159874	  -1.22426	-0.00161796	  -1.22426	  -40.4491	
  -1.14663	-0.00161085	   -1.1486	-0.0016142	  -1.15226	-0.00158322	  -1.14916	-0.00160276	  -1.14916	  -40.0689	
  -1.07144	-0.00159548	  -1.07329	-0.00159918	  -1.07694	-0.0015676	  -1.07389	-0.00158742	  -1.07389	  -39.6856	
 -0.996304	-0.00157994	  -0.99804	-0.00158396	  -1.00167	-0.00155191	  -0.99867	-0.00157194	  -0.99867	  -39.2984	
 -0.921017	-0.00156421	 -0.922662	-0.00156859	 -0.926202	-0.00153601	 -0.923293	-0.00155627	 -0.923293	  -38.9067	
 -0.845729	-0.00154831	 -0.847282	-0.00155307	  -0.85073	-0.00151999	 -0.847914	-0.00154045	 -0.847914	  -38.5114	
 -0.770518	-0.00153231	 -0.772002	-0.00153735	  -0.77523	-0.00150388	 -0.772584	-0.00152451	 -0.772584	  -38.1128	
 -0.695209	-0.00151611	 -0.696595	-0.00152149	 -0.699634	-0.00148756	 -0.697146	-0.00150839	 -0.697146	  -37.7096	
 -0.619982	-0.00149972	 -0.621245	-0.00150546	 -0.624125	-0.00147105	 -0.621784	-0.00149208	 -0.621784	  -37.3019	
 -0.544668	-0.00148324	 -0.545758	-0.00148928	 -0.548507	-0.00145448	 -0.546311	-0.00147567	 -0.546311	  -36.8917	
 -0.469417	-0.00146655	 -0.470316	-0.00147293	 -0.472933	-0.00143779	 -0.470889	-0.00145909	 -0.470889	  -36.4772	
 -0.394104	-0.00144964	  -0.39487	-0.00145638	 -0.397331	-0.00142085	 -0.395435	-0.00144229	 -0.395435	  -36.0573	
  -0.31871	-0.00143262	 -0.319373	-0.00143968	 -0.321655	-0.00140389	 -0.319913	-0.0014254	 -0.319913	  -35.6349	
 -0.243343	-0.00141542	 -0.243931	-0.0014228	 -0.246113	-0.00138677	 -0.244463	-0.00140833	 -0.244463	  -35.2083	
 -0.167863	-0.00139799	 -0.168377	-0.00140569	 -0.170432	-0.00136943	  -0.16889	-0.00139104	  -0.16889	  -34.7759	
-0.0924491	-0.00138044	-0.0929123	-0.00138839	-0.0948428	-0.00135204	-0.0934014	-0.00137362	-0.0934014	  -34.3405	
-0.0169597	-0.00136273	-0.0173225	 -0.001371	-0.0192564	-0.00133448	-0.0178462	-0.00135607	-0.0178462	  -33.9017	
 0.0585047	-0.0013448	   0.05829	-0.00135329	 0.0563609	-0.00131671	 0.0577185	-0.00133827	 0.0577185	  -33.4567	
  0.133824	-0.00132673	  0.133772	-0.00133539	  0.131881	-0.00129882	  0.133159	-0.00132031	  0.133159	  -33.0078	
  0.209275	-0.00130853	  0.209326	-0.00131741	  0.207554	-0.00128078	  0.208718	-0.00130224	  0.208718	   -32.556	
  0.284625	-0.00129012	  0.284798	-0.00129914	  0.283095	-0.0012626	  0.284173	-0.00128395	  0.284173	  -32.0988	
  0.360042	-0.00127159	  0.360356	-0.00128076	  0.358722	-0.00124424	  0.359707	-0.00126553	  0.359707	  -31.6382	
  0.435455	-0.00125295	    0.4359	-0.00126218	  0.434337	-0.00122568	  0.435231	-0.00124694	  0.435231	  -31.1734	
  0.510665	-0.00123411	  0.511379	-0.00124341	  0.509887	-0.00120703	  0.510643	-0.00122819	  0.510643	  -30.7046	
  0.586003	-0.00121512	  0.586938	-0.00122454	  0.585543	-0.00118818	  0.586161	-0.00120928	  0.586161	   -30.232	
  0.661211	-0.00119603	  0.662349	-0.00120541	   0.66105	-0.00116909	  0.661537	-0.00119018	  0.661537	  -29.7544	
  0.736512	-0.00117673	  0.737836	-0.0011861	  0.736554	-0.00114991	  0.736967	-0.00117091	  0.736967	  -29.2727	
  0.811755	-0.00115726	  0.813273	-0.00116664	  0.812014	-0.00113053	  0.812347	-0.00115148	  0.812347	  -28.7869	
  0.886896	-0.00113773	  0.888808	-0.00114703	  0.887478	-0.00111094	  0.887727	-0.0011319	  0.887727	  -28.2975	
  0.962111	-0.00111799	  0.964025	-0.0011271	  0.962966	-0.00109123	  0.963034	-0.00111211	  0.963034	  -27.8028	
   1.03717	-0.00109804	   1.03933	-0.00110709	   1.03826	-0.00107136	   1.03825	-0.00109216	   1.03825	   -27.304	
   1.11233	-0.00107807	   1.11458	-0.00108687	   1.11363	-0.00105124	   1.11351	-0.00107206	   1.11351	  -26.8014	
   1.18744	-0.00105778	   1.18979	-0.00106638	   1.18893	-0.00103105	   1.18872	-0.00105174	   1.18872	  -26.2934	
   1.26252	-0.00103742	   1.26499	-0.00104581	   1.26413	-0.00101065	   1.26388	-0.00103129	   1.26388	  -25.7823	
   1.33757	-0.00101698	   1.34018	-0.00102503	   1.33937	-0.000989987	   1.33904	-0.00101067	   1.33904	  -25.2667	
   1.41249	-0.000996239	   1.41529	-0.00100401	   1.41442	-0.000969234	   1.41407	-0.000989829	   1.41407	  -24.7457	
   1.48742	-0.000975416	   1.49042	-0.000982916	   1.48954	-0.000948307	   1.48913	-0.00096888	   1.48913	   -24.222	
   1.56228	-0.000954514	   1.56549	-0.0009617	   1.56456	-0.000927158	   1.56411	-0.000947791	   1.56411	  -23.6948	
   1.63695	-0.000933366	    1.6404	-0.000940181	   1.63944	-0.000905848	   1.63893	-0.000926465	   1.63893	  -23.1616	
   1.71168	-0.000912129	   1.71536	-0.000918581	   1.71435	-0.000884412	    1.7138	-0.000905041	    1.7138	   -22.626	
   1.78626	-0.000890827	   1.79019	-0.000896936	   1.78905	-0.000862781	    1.7885	-0.000883515	    1.7885	  -22.0879	
   1.86093	-0.00086929	   1.86502	-0.000874983	   1.86381	-0.000840995	   1.86325	-0.000861756	   1.86325	  -21.5439	
   1.93552	-0.000847644	   1.93976	-0.000852907	   1.93849	-0.000819072	   1.93792	-0.000839874	   1.93792	  -20.9969	
   2.00996	-0.000825944	   2.01441	-0.000830776	   2.01304	-0.000796946	   2.01247	-0.000817889	   2.01247	  -20.4472	
   2.08444	-0.000804044	   2.08911	-0.000808311	   2.08763	-0.000774707	   2.08706	-0.000795688	   2.08706	  -19.8922	
   2.15875	-0.00078199	   2.16359	-0.000785696	   2.16207	-0.000752345	   2.16147	-0.000773343	   2.16147	  -19.3336	
   2.23301	-0.000759815	   2.23806	-0.00076303	   2.23655	-0.000729764	   2.23587	-0.000750869	   2.23587	  -18.7717	
   2.30722	-0.000737535	   2.31243	-0.000740093	   2.31095	-0.000707053	    2.3102	-0.000728227	    2.3102	  -18.2057	
   2.38119	-0.00071507	   2.38661	-0.000717021	   2.38518	-0.00068422	   2.38433	-0.000705437	   2.38433	  -17.6359	
   2.45517	-0.000692476	   2.46083	-0.000693871	   2.45945	-0.000661187	   2.45848	-0.000682511	   2.45848	  -17.0628	
   2.52899	-0.000669768	   2.53488	-0.00067051	   2.53353	-0.000638016	   2.53247	-0.000659432	   2.53247	  -16.4858	
   2.60273	-0.000646845	   2.60894	-0.000647058	   2.60759	-0.000614732	   2.60642	-0.000636212	   2.60642	  -15.9053	
   2.67646	-0.000623789	   2.68292	-0.000623558	   2.68159	-0.000591261	   2.68033	-0.00061287	   2.68033	  -15.3217	
   2.75007	-0.000600645	   2.75658	-0.000599801	   2.75537	-0.000567673	   2.75401	-0.000589373	   2.75401	  -14.7343	
   2.82354	-0.000577326	   2.83028	-0.000576031	   2.82915	-0.00054395	   2.82766	-0.000565769	   2.82766	  -14.1442	
   2.89698	-0.000553865	   2.90403	-0.000552177	   2.90276	-0.000520069	   2.90126	-0.000542037	   2.90126	  -13.5509	
   2.97025	-0.000530321	   2.97753	-0.000528096	   2.97622	-0.000496066	   2.97467	-0.000518161	   2.97467	   -12.954	
   3.04336	-0.000506621	   3.05101	-0.000503938	   3.04966	-0.000471944	   3.04801	-0.000494168	   3.04801	  -12.3542	
   3.11631	-0.000482707	   3.12442	-0.000479747	   3.12287	-0.000447673	    3.1212	-0.000470043	    3.1212	  -11.7511	
   3.18913	-0.000458747	   3.19765	-0.000455419	   3.19606	-0.000423316	   3.19428	-0.000445827	   3.19428	  -11.1457	
   3.26187	-0.000434689	   3.27068	-0.000430986	   3.26915	-0.000398843	   3.26723	-0.000421506	   3.26723	  -10.5376	
   3.33436	-0.000410426	   3.34355	-0.000406463	   3.34201	-0.000374224	   3.33997	-0.000397038	   3.33997	  -9.92594	
   3.40686	-0.000386096	   3.41632	-0.000381849	    3.4149	-0.000349535	   3.41269	-0.000372493	   3.41269	  -9.31233	
   3.47919	-0.000361668	   3.48887	-0.000357046	   3.48756	-0.000324754	   3.48521	-0.000347823	   3.48521	  -8.69557	
   3.55132	-0.000337075	   3.56131	-0.000332168	   3.56002	-0.00029983	   3.55755	-0.000323024	   3.55755	  -8.07561	
    3.6234	-0.000312422	   3.63365	-0.000307257	    3.6324	-0.000274897	   3.62982	-0.000298192	   3.62982	   -7.4548	
   3.69527	-0.000287693	    3.7058	-0.000282099	   3.70449	-0.000249757	   3.70185	-0.000273183	   3.70185	  -6.82957	
   3.76701	-0.000262817	    3.7779	-0.000256983	   3.77654	-0.000224564	   3.77382	-0.000248122	   3.77382	  -6.20304	
   3.83866	-0.000237938	   3.84985	-0.000231778	   3.84845	-0.000199315	   3.84565	-0.00022301	   3.84565	  -5.57526	
   3.91005	-0.000212904	   3.92157	-0.000206399	    3.9201	-0.000173901	   3.91724	-0.000197735	   3.91724	  -4.94337	
   3.98142	-0.000187824	   3.99324	 -0.000181	   3.99173	-0.000148435	    3.9888	-0.00017242	    3.9888	  -4.31049	
   4.05276	-0.000162847	   4.06469	-0.000155533	   4.06314	-0.000122922	   4.06019	-0.000147101	   4.06019	  -3.67751	
   4.12374	-0.000137573	   4.13585	-0.000129964	   4.13433	-9.7282e-05	   4.13131	-0.000121606	   4.13131	  -3.04015	
   4.19472	-0.000112305	   4.20696	-0.000104366	   4.20546	-7.16041e-05	   4.20238	-9.60918e-05	   4.20238	  -2.40229	
   4.26555	-8.71526e-05	   4.27779	-7.87131e-05	   4.27631	-4.58985e-05	   4.27321	-7.05881e-05	   4.27321	   -1.7647	
   4.33621	-6.17904e-05	   4.34854	-5.29878e-05	    4.3469	-2.00828e-05	   4.34388	-4.49537e-05	   4.34388	  -1.12384	
   4.40678	-3.63974e-05	   4.41914	-2.72321e-05	   4.41738	5.74933e-06	   4.41443	-1.92934e-05	   4.41443	 -0.482335	
   4.47709	-1.10983e-05	    4.4894	-1.40429e-06	   4.48754	3.16451e-05	   4.48467	6.38083e-06	   4.48467	  0.159521	
   4.54715	1.43633e-05	   4.55955	2.44698e-05	   4.55759	5.75768e-05	   4.55477	3.21366e-05	   4.55477	  0.803416	
   4.61711	3.98816e-05	   4.62954	5.03801e-05	   4.62752	8.35579e-05	   4.62473	5.79398e-05	   4.62473	    1.4485	
   4.68673	6.53214e-05	   4.69926	7.63145e-05	   4.69717	0.000109624	   4.69439	8.37532e-05	   4.69439	   2.09383	
    4.7561	9.09017e-05	   4.76895	0.000102263	   4.76668	0.000135688	   4.76391	0.000109618	   4.76391	   2.74044	
   4.82533	0.000116587	   4.83843	0.000128238	   4.83599	0.000161789	   4.83325	0.000135538	   4.83325	   3.38845	
   4.89419	0.000142212	   4.90764	0.000154206	   4.90506	0.000187967	    4.9023	0.000161462	    4.9023	   4.03654	
   4.96297	0.000167893	   4.97666	0.000180217	   4.97402	0.00021414	   4.97121	0.000187417	   4.97121	   4.68542	
   5.03156	0.000193644	   5.04557	0.000206189	   5.04274	0.000240343	   5.03996	0.000213392	   5.03996	    5.3348	
    5.0999	0.000219346	    5.1144	0.000232137	   5.11118	0.00026659	    5.1085	0.000239358	    5.1085	   5.98394	
   5.16818	0.000245095	   5.18297	0.000258147	   5.17955	0.000292801	    5.1769	0.000265348	    5.1769	    6.6337	
   5.23624	0.000270894	   5.25127	0.00028414	   5.24765	0.000319036	   5.24506	0.000291357	   5.24506	   7.28392	
     5.304	0.000296649	   5.31942	0.000310101	   5.31552	0.000345293	   5.31298	0.000317348	   5.31298	   7.93369	
   5.37171	0.000322433	   5.38741	0.00033613	    5.3833	0.000371453	   5.38081	0.000343339	   5.38081	   8.58347	
   5.43917	0.000348244	   5.45507	0.000362108	   5.45118	 0.0003977	   5.44848	0.00036935	   5.44848	   9.23376	
   5.50636	0.000373984	    5.5225	0.000388093	   5.51859	0.000423949	   5.51582	0.000395342	   5.51582	   9.88355	
   5.57345	0.000399751	   5.58974	0.000414054	   5.58585	0.000450065	   5.58301	0.00042129	   5.58301	   10.5323	
   5.64029	0.000425521	   5.65666	0.00043999	   5.65269	0.000476405	   5.64988	0.000447305	   5.64988	   11.1826	
   5.70686	0.000451343	   5.72332	0.000465885	   5.71943	0.000502515	   5.71653	0.000473247	   5.71653	   11.8312	
   5.77315	0.000477087	   5.78987	0.000491789	   5.78592	0.00052859	   5.78298	0.000499155	   5.78298	   12.4789	
   5.83928	0.000502845	    5.8561	0.000517657	   5.85216	0.000554793	   5.84918	0.000525098	   5.84918	   13.1275	
   5.90522	0.000528624	   5.92204	0.00054346	   5.91805	0.00058082	    5.9151	0.000550968	    5.9151	   13.7742	
   5.97079	0.000554311	   5.98789	0.000569252	   5.98384	0.000606776	   5.98084	0.000576779	   5.98084	   14.4195	
   6.03611	0.000580031	   6.05344	0.000594989	   6.04933	0.000632746	   6.04629	0.000602589	   6.04629	   15.0647	
   6.10133	0.000605699	   6.11871	0.000620614	   6.11451	0.000658558	   6.11152	0.00062829	   6.11152	   15.7073	
   6.16621	0.000631276	    6.1839	0.000646195	   6.17955	0.000684314	   6.17655	0.000653928	   6.17655	   16.3482	
   6.23089	0.000656887	   6.24877	0.000671727	   6.24434	0.000709998	   6.24133	0.000679537	   6.24133	   16.9884	
   6.29528	0.000682468	   6.31339	0.000697143	   6.30885	0.000735579	   6.30584	0.000705063	   6.30584	   17.6266	
   6.35953	0.000707912	    6.3779	0.000722483	   6.37324	0.000761059	   6.37022	0.000730485	   6.37022	   18.2621	
   6.42357	0.000733368	   6.44211	0.000747777	   6.43737	0.000786433	   6.43435	0.000755859	   6.43435	   18.8965	
   6.48719	0.00075877	   6.50594	0.000772962	    6.5012	0.000811758	   6.49811	0.000781163	   6.49811	   19.5291	
   6.55068	0.000784035	   6.56964	0.000798072	   6.56488	0.000836952	   6.56173	0.000806353	   6.56173	   20.1588	
   6.61399	0.000809272	   6.63308	0.000823111	   6.62833	0.000861997	   6.62513	0.00083146	   6.62513	   20.7865	
   6.67693	0.000834425	   6.69619	0.000848038	   6.69138	0.000887038	   6.68817	 0.0008565	   6.68817	   21.4125	
   6.73957	0.000859441	    6.7591	0.000872876	   6.75429	0.00091189	   6.75099	0.000881402	   6.75099	   22.0351	
   6.80207	0.000884388	   6.82178	0.000897619	     6.817	0.000936588	   6.81362	0.000906198	   6.81362	    22.655	
   6.86424	0.000909235	   6.88406	0.000922229	   6.87936	0.000961242	   6.87589	0.000930902	   6.87589	   23.2725	
   6.92604	0.000933934	   6.94601	0.000946731	   6.94147	0.000985717	   6.93784	0.000955461	   6.93784	   23.8865	
   6.98771	0.000958533	   7.00776	0.000971148	   7.00331	0.00101004	   6.99959	0.000979906	   6.99959	   24.4976	
    7.0491	0.00098303	   7.06916	0.000995438	   7.06476	0.00103433	   7.06101	0.00100427	   7.06101	   25.1066	
   7.11012	0.00100738	   7.13018	0.00101958	   7.12598	0.00105846	   7.12209	0.00102847	   7.12209	   25.7118	
   7.17094	0.00103161	   7.19102	0.00104364	   7.18672	0.00108236	    7.1829	0.00105254	    7.1829	   26.3135	
   7.23157	0.00105572	    7.2516	0.00106759	   7.24737	0.00110625	   7.24351	0.00107652	   7.24351	    26.913	
   7.29183	 0.0010797	   7.31171	0.00109134	   7.30783	   0.00113	   7.30379	0.00110035	   7.30379	   27.5087	
   7.35181	0.00110351	   7.37159	0.00111499	   7.36788	0.00115345	   7.36376	0.00112398	   7.36376	   28.0996	
   7.41142	0.00112723	   7.43129	0.00113852	   7.42773	0.00117681	   7.42348	0.00114752	   7.42348	   28.6881	
   7.47078	0.00115071	   7.49062	0.00116188	   7.48736	0.00120008	   7.48292	0.00117089	   7.48292	   29.2723	
   7.52991	0.00117406	   7.54963	0.00118511	   7.54672	 0.0012231	   7.54209	0.00119409	   7.54209	   29.8522	
   7.58886	0.00119734	   7.60845	0.00120821	   7.60581	0.00124598	   7.60104	0.00121717	   7.60104	   30.4294	
   7.64748	0.00122037	   7.66699	0.00123112	   7.66462	 0.0012688	    7.6597	 0.0012401	    7.6597	   31.0024	
   7.70567	0.00124323	   7.72518	0.00125388	   7.72305	0.00129137	   7.71797	0.00126283	   7.71797	   31.5706	
    7.7635	0.00126599	    7.7831	0.00127649	   7.78122	0.00131377	   7.77594	0.00128542	   7.77594	   32.1354	
   7.82111	0.00128858	   7.84082	0.00129892	   7.83901	0.00133609	   7.83365	0.00130786	   7.83365	   32.6966	
   7.87843	0.00131101	   7.89817	 0.0013212	   7.89646	0.00135817	   7.89102	0.00133013	   7.89102	   33.2532	
   7.93528	0.00133328	   7.95508	0.00134329	   7.95351	0.00138004	   7.94796	 0.0013522	   7.94796	   33.8051	
   7.99186	0.00135542	    8.0118	0.00136525	   8.01029	0.00140179	   8.00465	0.00137415	   8.00465	   34.3538	
   8.04818	0.00137733	   8.06828	0.00138706	   8.06684	0.00142332	    8.0611	 0.0013959	    8.0611	   34.8976	
   8.10417	0.00139908	   8.12434	0.00140863	   8.12296	0.00144461	   8.11716	0.00141744	   8.11716	   35.4359	
   8.15969	0.00142066	   8.17997	0.00143003	   8.17868	0.00146578	   8.17278	0.00143883	   8.17278	   35.9706	
   8.21501	  0.001442	   8.23538	0.00145138	   8.23426	 0.0014867	   8.22822	0.00146003	   8.22822	   36.5007	
   8.27008	0.00146319	   8.29053	0.00147244	   8.28956	0.00150743	   8.28339	0.00148102	   8.28339	   37.0255	
   8.32478	0.00148412	   8.34525	0.00149334	   8.34443	0.00152798	   8.33815	0.00150181	   8.33815	   37.5453	
   8.37912	0.00150489	   8.39961	0.00151415	   8.39887	0.00154828	   8.39254	0.00152244	   8.39254	   38.0611	
   8.43317	0.00152548	   8.45378	0.00153469	   8.45307	0.00156836	   8.44667	0.00154284	   8.44667	   38.5711	
   8.48695	 0.0015458	   8.50766	0.00155503	   8.50698	0.00158834	   8.50053	0.00156305	   8.50053	   39.0764	
   8.54035	0.00156593	   8.56107	0.00157523	   8.56043	0.00160803	   8.55395	0.00158306	   8.55395	   39.5766	
   8.59325	0.00158587	    8.6142	0.00159518	   8.61347	 0.0016275	   8.60698	0.00160285	   8.60698	   40.0713	
   8.64591	0.00160558	   8.66709	0.00161493	    8.6663	0.00164693	   8.65977	0.00162248	   8.65977	   40.5619	
   8.69834	0.00162508	   8.71968	0.00163452	   8.71882	0.00166604	   8.71228	0.00164188	   8.71228	    41.047	
    8.7504	0.00164439	   8.77182	0.00165387	    8.7709	0.00168487	   8.76437	0.00166104	   8.76437	   41.5261	
   8.80196	0.00166346	   8.82355	0.00167301	   8.82252	0.00170364	   8.81601	0.00168004	   8.81601	   42.0009	
   8.85321	 0.0016823	     8.875	0.00169199	   8.87386	0.00172213	   8.86736	0.00169881	   8.86736	   42.4702	
   8.90417	0.00170095	   8.92614	0.00171072	   8.92491	0.00174037	   8.91841	0.00171734	   8.91841	   42.9336	
    8.9548	0.00171935	   8.97687	0.00172929	   8.97555	 0.0017585	   8.96907	0.00173571	   8.96907	   43.3928	
   9.00495	0.00173751	   9.02709	0.00174763	   9.02574	 0.0017763	   9.01926	0.00175381	   9.01926	   43.8454	
   9.05469	0.00175553	   9.07704	0.00176572	   9.07546	 0.0017939	   9.06906	0.00177172	   9.06906	   44.2929	
   9.10419	0.00177327	   9.12675	0.00178364	   9.12498	0.00181137	   9.11864	0.00178943	   9.11864	   44.7356	
   9.15343	0.00179079	    9.1761	0.00180135	   9.17417	 0.0018285	    9.1679	0.00180688	    9.1679	    45.172	
   9.20225	0.00180816	   9.22497	0.00181874	    9.2229	0.00184543	   9.21671	0.00182411	   9.21671	   45.6028	
   9.25057	0.00182526	   9.27337	0.00183595	   9.27119	0.00186222	   9.26504	0.00184114	   9.26504	   46.0286	
   9.29847	0.00184213	   9.32156	0.00185295	    9.3192	 0.0018787	   9.31308	0.00185793	   9.31308	   46.4482	
   9.34619	0.00185883	   9.36945	0.00186962	   9.36696	0.00189499	   9.36086	0.00187448	   9.36086	    46.862	
   9.39358	0.00187529	   9.41704	0.00188619	   9.41433	 0.0019111	   9.40832	0.00189086	   9.40832	   47.2715	
    9.4405	0.00189151	   9.46412	0.00190253	   9.46121	0.00192691	   9.45528	0.00190698	   9.45528	   47.6746	
   9.48698	0.00190751	   9.51083	 0.0019185	   9.50768	0.00194254	   9.50183	0.00192285	   9.50183	   48.0713	
   9.53304	 0.0019233	   9.55719	0.00193435	   9.55389	0.00195801	   9.54804	0.00193856	   9.54804	   48.4639	
   9.57883	0.00193888	   9.60322	0.00195004	   9.59982	0.00197322	   9.59396	0.00195405	   9.59396	   48.8511	
   9.62428	 0.0019542	   9.64886	0.00196544	   9.64533	0.00198817	   9.63949	0.00196927	   9.63949	   49.2318	
   9.66926	0.00196931	   9.69401	0.00198067	   9.69031	  0.002003	   9.68453	0.00198432	   9.68453	   49.6081	
    9.7137	0.00198421	   9.73868	0.00199579	   9.73483	0.00201753	   9.72907	0.00199918	   9.72907	   49.9794	
   9.75779	 0.0019989	    9.7831	0.00201064	   9.77907	0.00203187	   9.77332	0.00201381	   9.77332	   50.3451	
   9.80164	 0.0020134	   9.82717	0.00202528	   9.82302	0.00204603	   9.81728	0.00202824	   9.81728	   50.7059	
   9.84516	0.00202768	   9.87085	 0.0020398	   9.86658	 0.0020599	   9.86086	0.00204246	   9.86086	   51.0615	
   9.88824	0.00204175	     9.914	0.00205405	   9.90965	0.00207362	   9.90396	0.00205647	   9.90396	   51.4117	
   9.93076	0.00205563	   9.95701	0.00206803	   9.95223	0.00208717	   9.94667	0.00207028	   9.94667	   51.7569	
   9.97289	0.00206931	   9.99933	0.00208196	   9.99447	0.00210043	    9.9889	 0.0020839	    9.9889	   52.0975	
   10.0148	0.00208278	   10.0413	0.00209561	   10.0364	0.00211349	   10.0308	 0.0020973	   10.0308	   52.4324	
   10.0564	0.00209605	   10.0829	0.00210904	   10.0781	0.00212645	   10.0725	0.00211051	   10.0725	   52.7628	
   10.0977	0.00210909	   10.1241	0.00212239	   10.1192	0.00213912	   10.1137	0.00212353	   10.1137	   53.0883	
   10.1384	0.00212198	   10.1647	0.00213544	   10.1599	0.00215158	   10.1543	0.00213633	   10.1543	   53.4083	
   10.1786	0.00213455	   10.2049	0.00214833	   10.2001	0.00216393	   10.1945	0.00214894	   10.1945	   53.7234	
   10.2183	0.00214692	   10.2448	0.00216102	   10.2398	0.00217604	   10.2343	0.00216133	   10.2343	   54.0332	
   10.2578	0.00215915	   10.2843	0.00217354	   10.2793	0.00218793	   10.2738	0.00217354	   10.2738	   54.3385	
    10.297	0.00217108	   10.3235	0.00218588	   10.3185	0.00219967	    10.313	0.00218555	    10.313	   54.6387	
   10.3358	0.00218283	   10.3622	0.00219804	   10.3572	 0.0022112	   10.3517	0.00219735	   10.3517	   54.9339	
    10.374	0.00219442	   10.4003	0.00220996	   10.3953	0.00222247	   10.3899	0.00220895	   10.3899	   55.2237	
   10.4118	0.00220574	    10.438	0.00222168	   10.4329	0.00223361	   10.4276	0.00222034	   10.4276	   55.5085	
   10.4491	0.00221691	   10.4753	0.00223323	   10.4702	0.00224456	   10.4649	0.00223157	   10.4649	   55.7892	
   10.4861	0.00222785	   10.5123	0.00224457	   10.5071	0.00225522	   10.5018	0.00224255	   10.5018	   56.0637	
   10.5227	 0.0022386	    10.549	0.00225572	   10.5437	0.00226575	   10.5385	0.00225336	   10.5385	   56.3339	
   10.5591	 0.0022492	   10.5853	0.00226669	   10.5799	0.00227609	   10.5747	0.00226399	   10.5747	   56.5998	
    10.595	0.00225959	    10.621	0.00227747	   10.6156	0.00228613	   10.6105	 0.0022744	   10.6105	     56.86	
   10.6304	0.00226974	   10.6562	0.00228804	   10.6508	0.00229612	   10.6458	0.00228464	   10.6458	   57.1159	
   10.6652	0.00227987	   10.6909	0.00229849	   10.6855	0.00230589	   10.6805	0.00229475	   10.6805	   57.3687	
   10.6994	0.00228971	   10.7254	0.00230874	   10.7199	0.00231538	   10.7149	0.00230461	   10.7149	   57.6153	
   10.7334	0.00229941	   10.7595	0.00231882	    10.754	0.00232483	   10.7489	0.00231435	   10.7489	   57.8588	
    10.767	0.00230902	   10.7933	0.00232876	   10.7878	0.00233407	   10.7827	0.00232395	   10.7827	   58.0988	
   10.8004	0.00231839	   10.8268	0.00233852	   10.8212	0.00234308	   10.8161	0.00233333	   10.8161	   58.3332	
   10.8333	0.00232761	   10.8597	 0.0023481	   10.8541	  0.002352	   10.8491	0.00234257	   10.8491	   58.5642	
   10.8658	0.00233671	   10.8921	0.00235762	   10.8865	0.00236073	   10.8815	0.00235169	   10.8815	   58.7922	
   10.8978	0.00234557	    10.924	0.00236688	   10.9184	0.00236924	   10.9134	0.00236056	   10.9134	   59.0141	
   10.9292	0.00235426	   10.9556	0.00237589	   10.9498	0.00237764	   10.9449	0.00236926	   10.9449	   59.2315	
   10.9601	0.00236281	   10.9868	0.00238495	   10.9807	0.00238585	   10.9759	0.00237787	   10.9759	   59.4467	
   10.9906	0.00237118	   11.0175	0.00239376	   11.0112	0.00239388	   11.0064	0.00238627	   11.0064	   59.6569	
   11.0208	 0.0023794	   11.0477	0.00240231	   11.0415	 0.0024018	   11.0367	 0.0023945	   11.0367	   59.8626	
   11.0506	0.00238756	   11.0776	0.00241088	   11.0713	0.00240959	   11.0665	0.00240268	   11.0665	   60.0669	
   11.0801	0.00239546	   11.1069	0.00241924	   11.1007	0.00241711	   11.0959	 0.0024106	   11.0959	   60.2651	
   11.1092	0.00240318	   11.1359	0.00242733	   11.1297	0.00242463	   11.1249	0.00241838	   11.1249	   60.4595	
   11.1377	0.00241083	   11.1643	0.00243547	   11.1582	0.00243201	   11.1534	 0.0024261	   11.1534	   60.6526	
   11.1658	 0.0024183	   11.1922	0.00244338	   11.1861	0.00243918	   11.1814	0.00243362	   11.1814	   60.8404	
   11.1933	0.00242557	   11.2195	0.00245106	   11.2134	0.00244629	   11.2087	0.00244097	   11.2087	   61.0244	
   11.2201	0.00243281	   11.2465	0.00245877	   11.2401	0.00245329	   11.2356	0.00244829	   11.2356	   61.2073	
   11.2464	0.00243983	   11.2732	0.00246624	   11.2666	0.00246006	   11.2621	0.00245538	   11.2621	   61.3844	
   11.2722	0.00244665	   11.2995	0.00247358	   11.2927	0.00246679	   11.2881	0.00246234	   11.2881	   61.5585	
   11.2978	0.00245342	   11.3254	0.00248082	   11.3186	 0.0024734	   11.3139	0.00246921	   11.3139	   61.7303	
    11.323	0.00246001	   11.3511	0.00248786	    11.344	0.00247982	   11.3394	 0.0024759	   11.3394	   61.8975	
   11.3479	0.00246643	   11.3764	0.00249474	   11.3692	 0.0024862	   11.3645	0.00248246	   11.3645	   62.0614	
   11.3725	0.00247274	   11.4012	0.00250154	   11.3939	0.00249244	   11.3892	0.00248891	   11.3892	   62.2227	
   11.3969	 0.0024788	   11.4255	0.00250813	   11.4182	0.00249852	   11.4135	0.00249515	   11.4135	   62.3787	
   11.4205	0.00248489	   11.4493	0.00251458	   11.4419	0.00250455	   11.4372	0.00250134	   11.4372	   62.5335	
   11.4437	0.00249079	   11.4725	0.00252093	   11.4652	0.00251048	   11.4604	 0.0025074	   11.4604	    62.685	
   11.4664	0.00249648	   11.4951	0.00252707	   11.4878	0.00251625	   11.4831	0.00251327	   11.4831	   62.8317	
   11.4885	0.00250217	    11.517	0.00253309	   11.5099	0.00252196	   11.5051	0.00251907	   11.5051	   62.9769	
   11.5101	0.00250773	   11.5386	0.00253901	   11.5314	0.00252757	   11.5267	0.00252477	   11.5267	   63.1192	
   11.5311	0.00251311	   11.5597	0.00254476	   11.5524	0.00253302	   11.5477	 0.0025303	   11.5477	   63.2574	
   11.5515	0.00251848	   11.5804	0.00255037	    11.573	0.00253838	   11.5683	0.00253574	   11.5683	   63.3936	
   11.5713	0.00252374	   11.6007	0.00255587	   11.5932	0.00254365	   11.5884	0.00254109	   11.5884	   63.5272	
   11.5906	0.00252883	   11.6207	0.00256126	    11.613	0.00254876	   11.6081	0.00254628	   11.6081	   63.6571	
   11.6094	0.00253385	   11.6404	0.00256656	   11.6325	0.00255378	   11.6274	 0.0025514	   11.6274	    63.785	
   11.6277	 0.0025388	   11.6597	0.00257176	   11.6516	0.00255871	   11.6463	0.00255642	   11.6463	   63.9106	
   11.6456	0.00254359	   11.6785	0.00257677	   11.6704	0.00256354	   11.6649	 0.0025613	   11.6649	   64.0325	
   11.6632	 0.0025483	   11.6969	0.00258176	   11.6889	0.00256821	    11.683	0.00256609	    11.683	   64.1523	
   11.6805	0.00255295	   11.7147	0.00258667	   11.7074	 0.0025728	   11.7009	 0.0025708	   11.7009	   64.2701	
   11.6975	0.00255745	    11.732	0.00259135	    11.725	0.00257735	   11.7182	0.00257538	   11.7182	   64.3846	
   11.7142	0.00256182	   11.7489	0.00259597	    11.742	0.00258175	    11.735	0.00257985	    11.735	   64.4962	
   11.7306	0.00256615	   11.7652	0.00260054	   11.7585	0.00258608	   11.7514	0.00258426	   11.7514	   64.6064	
   11.7466	0.00257041	   11.7811	0.00260491	   11.7745	0.00259044	   11.7674	0.00258858	   11.7674	   64.7146	
   11.7622	0.00257457	   11.7965	0.00260919	   11.7901	0.00259455	   11.7829	0.00259277	   11.7829	   64.8193	
   11.7775	0.00257867	   11.8115	0.00261341	   11.8052	0.00259861	   11.7981	 0.0025969	   11.7981	   64.9225	
   11.7926	0.00258264	    11.826	0.00261752	   11.8199	0.00260264	   11.8128	0.00260093	   11.8128	   65.0233	
   11.8068	0.00258665	     11.84	0.00262154	   11.8341	0.00260648	   11.8269	0.00260489	   11.8269	   65.1222	
   11.8207	0.00259056	   11.8535	0.00262542	   11.8478	0.00261026	   11.8406	0.00260874	   11.8406	   65.2186	
   11.8341	0.00259435	   11.8665	0.00262914	    11.861	0.00261397	   11.8538	0.00261249	   11.8538	   65.3122	
   11.8469	0.00259821	    11.879	0.00263286	   11.8737	0.00261755	   11.8665	 0.0026162	   11.8665	   65.4051	
   11.8593	0.00260193	    11.891	0.00263641	   11.8859	0.00262105	   11.8787	 0.0026198	   11.8787	   65.4949	
   11.8713	0.00260563	   11.9025	0.00263983	   11.8975	 0.0026245	   11.8904	0.00262332	   11.8904	    65.583	
   11.8828	0.00260933	   11.9134	0.00264321	   11.9087	0.00262782	   11.9016	0.00262679	   11.9016	   65.6697	
   11.8938	0.00261287	   11.9239	0.00264643	   11.9194	0.00263111	   11.9124	0.00263014	   11.9124	   65.7535	
   11.9045	0.00261637	   11.9339	0.00264951	   11.9296	0.00263429	   11.9226	0.00263339	   11.9226	   65.8347	
   11.9145	0.00261985	   11.9434	0.00265254	   11.9393	 0.0026374	   11.9324	 0.0026366	   11.9324	    65.915	
   11.9241	0.00262322	   11.9524	0.00265544	   11.9485	0.00264046	   11.9416	0.00263971	   11.9416	   65.9927	
   11.9333	0.00262653	   11.9609	 0.0026582	   11.9572	0.00264342	   11.9505	0.00264272	   11.9505	   66.0679	
    11.942	 0.0026298	    11.969	0.00266092	   11.9654	 0.0026463	   11.9588	0.00264567	   11.9588	   66.1418	
   11.9503	0.00263297	   11.9766	0.00266353	   11.9732	0.00264913	   11.9667	0.00264854	   11.9667	   66.2136	
   11.9581	0.00263607	   11.9838	0.00266603	   11.9806	0.00265191	   11.9742	0.00265133	   11.9742	   66.2833	
   11.9656	0.00263911	   11.9905	0.00266846	   11.9875	0.00265458	   11.9812	0.00265405	   11.9812	   66.3512	
   11.9726	0.00264206	   11.9968	0.00267081	   11.9938	0.00265717	   11.9877	0.00265668	   11.9877	    66.417	
   11.9793	0.00264494	   12.0027	 0.0026731	   11.9995	0.00265977	   11.9938	0.00265927	   11.9938	   66.4817	
   11.9855	0.00264777	   12.0082	0.00267533	   12.0048	0.00266226	   11.9995	0.00266179	   11.9995	   66.5447	
   11.9913	 0.0026505	   12.0132	 0.0026775	   12.0098	0.00266464	   12.0048	0.00266422	   12.0048	   66.6054	
   11.9967	0.00265313	    12.018	 0.0026796	   12.0142	0.00266704	   12.0096	0.00266659	   12.0096	   66.6647	
   12.0017	0.00265574	   12.0223	0.00268165	   12.0182	 0.0026694	   12.0141	0.00266893	   12.0141	   66.7233	
   12.0063	0.00265823	   12.0263	0.00268365	   12.0218	0.00267169	   12.0181	0.00267119	   12.0181	   66.7797	
   12.0101	0.00266061	   12.0298	0.00268557	   12.0248	0.00267393	   12.0216	0.00267337	   12.0216	   66.8342	
   12.0135	0.00266293	    12.033	0.00268745	   12.0275	0.00267605	   12.0247	0.00267548	   12.0247	   66.8869	
   12.0163	0.00266519	   12.0359	0.00268927	   12.0298	0.00267815	   12.0273	0.00267754	   12.0273	   66.9384	
   12.0185	 0.0026674	   12.0383	0.00269102	   12.0317	 0.0026802	   12.0295	0.00267954	   12.0295	   66.9884	
   12.0202	0.00266946	   12.0403	0.00269274	   12.0332	0.00268214	   12.0312	0.00268145	   12.0312	   67.0363	
   12.0214	0.00267149	   12.0417	0.00269443	   12.0341	0.00268407	   12.0324	0.00268333	   12.0324	   67.0833	
   12.0219	0.00267347	   12.0425	0.00269604	   12.0345	0.00268596	    12.033	0.00268515	    12.033	   67.1289	
   12.0219	0.00267536	   12.0426	0.00269762	   12.0344	0.00268776	    12.033	0.00268692	    12.033	   67.1729	
   12.0212	0.00267714	   12.0422	 0.0026992	   12.0337	0.00268952	   12.0323	0.00268862	   12.0323	   67.2155	
   12.0199	0.00267887	   12.0411	0.00270069	   12.0323	0.00269123	   12.0311	0.00269026	   12.0311	   67.2565	
   12.0182	0.00268051	   12.0395	0.00270219	   12.0304	0.00269284	   12.0294	0.00269185	   12.0294	   67.2962	
   12.0159	0.00268209	   12.0374	 0.0027036	    12.028	0.00269449	   12.0271	0.00269339	   12.0271	   67.3349	
   12.0133	0.00268361	   12.0347	0.00270499	   12.0252	0.00269601	   12.0244	0.00269487	   12.0244	   67.3718	
   12.0103	0.00268507	   12.0316	0.00270635	    12.022	0.00269747	   12.0213	 0.0026963	   12.0213	   67.4074	
    12.007	0.00268643	   12.0281	0.00270766	   12.0184	0.00269893	   12.0178	0.00269767	   12.0178	   67.4419	
   12.0032	 0.0026878	   12.0242	0.00270894	   12.0145	0.00270029	    12.014	0.00269901	    12.014	   67.4753	
    11.999	0.00268908	     12.02	0.00271018	   12.0102	0.00270157	   12.0098	0.00270028	   12.0098	   67.5069	
   11.9943	0.00269028	   12.0153	0.00271136	   12.0056	0.00270288	   12.0051	0.00270151	   12.0051	   67.5377	
   11.9888	0.00269148	   12.0102	0.00271254	   12.0006	0.00270412	   11.9999	0.00270271	   11.9999	   67.5677	
   11.9828	0.00269259	   12.0045	0.00271361	   11.9949	0.00270526	   11.9941	0.00270382	   11.9941	   67.5955	
   11.9761	0.00269367	   11.9982	0.00271469	   11.9887	0.00270646	   11.9877	0.00270494	   11.9877	   67.6235	
   11.9689	0.00269467	   11.9913	0.00271571	    11.982	0.00270746	   11.9807	0.00270594	   11.9807	   67.6486	
   11.9612	0.00269559	   11.9838	0.00271658	   11.9747	0.00270848	   11.9732	0.00270689	   11.9732	   67.6721	
   11.9531	0.00269651	   11.9758	0.00271751	   11.9669	0.00270956	   11.9653	0.00270786	   11.9653	   67.6965	
   11.9445	0.00269736	   11.9674	0.00271837	   11.9587	0.00271044	   11.9569	0.00270873	   11.9569	   67.7181	
   11.9355	 0.0026981	   11.9585	0.00271912	   11.9501	0.00271133	    11.948	0.00270952	    11.948	   67.7379	
   11.9261	0.00269884	   11.9494	0.00271991	   11.9412	0.00271224	   11.9389	0.00271033	   11.9389	   67.7582	
   11.9161	 0.0026995	   11.9398	0.00272067	   11.9318	0.00271306	   11.9292	0.00271108	   11.9292	    67.777	
   11.9055	 0.0027001	   11.9298	0.00272133	    11.922	0.00271378	   11.9191	0.00271174	   11.9191	   67.7934	
   11.8944	0.00270067	   11.9193	0.00272198	   11.9116	0.00271451	   11.9085	0.00271239	   11.9085	   67.8097	
   11.8828	 0.0027012	   11.9082	0.00272268	   11.9006	0.00271519	   11.8972	0.00271302	   11.8972	   67.8256	
   11.8707	0.00270169	   11.8966	0.00272326	   11.8892	0.00271577	   11.8855	0.00271358	   11.8855	   67.8394	
   11.8582	0.00270216	   11.8844	0.00272385	   11.8772	0.00271634	   11.8733	0.00271412	   11.8733	   67.8529	
   11.8455	0.00270259	   11.8718	0.00272445	   11.8648	0.00271684	   11.8607	0.00271463	   11.8607	   67.8657	
   11.8324	0.00270298	   11.8589	0.00272492	   11.8521	0.00271727	   11.8478	0.00271506	   11.8478	   67.8764	
    11.819	0.00270335	   11.8456	 0.0027254	    11.839	0.00271762	   11.8345	0.00271546	   11.8345	   67.8864	
   11.8051	0.00270372	   11.8319	0.00272589	   11.8255	0.00271793	   11.8209	0.00271585	   11.8209	   67.8962	
   11.7907	0.00270399	   11.8178	0.00272625	   11.8115	0.00271817	   11.8067	0.00271613	   11.8067	   67.9034	
   11.7757	0.00270431	    11.803	0.00272659	   11.7969	0.00271836	   11.7919	0.00271642	   11.7919	   67.9104	
   11.7603	 0.0027046	   11.7877	  0.002727	   11.7817	0.00271847	   11.7766	0.00271669	   11.7766	   67.9172	
   11.7445	0.00270479	   11.7719	0.00272728	   11.7661	0.00271849	   11.7608	0.00271685	   11.7608	   67.9213	
   11.7284	0.00270503	   11.7558	0.00272755	   11.7501	0.00271851	   11.7448	0.00271703	   11.7448	   67.9257	
   11.7119	0.00270526	   11.7393	 0.0027279	   11.7338	 0.0027184	   11.7283	0.00271719	   11.7283	   67.9296	
   11.6949	0.00270541	   11.7225	0.00272817	    11.717	0.00271822	   11.7115	0.00271727	   11.7115	   67.9316	
   11.6773	0.00270557	   11.7051	0.00272836	   11.6997	0.00271801	   11.6941	0.00271731	   11.6941	   67.9328	
   11.6592	0.00270573	   11.6872	0.00272853	   11.6818	0.00271769	   11.6761	0.00271732	   11.6761	   67.9329	
   11.6406	0.00270581	   11.6687	 0.0027287	   11.6634	0.00271727	   11.6576	0.00271726	   11.6576	   67.9315	
   11.6218	0.00270592	   11.6498	0.00272886	   11.6446	0.00271683	   11.6387	 0.0027172	   11.6387	   67.9301	
   11.6026	0.00270595	   11.6306	0.00272897	   11.6255	0.00271642	   11.6195	0.00271711	   11.6195	   67.9279	
   11.5829	0.00270591	   11.6111	  0.002729	    11.606	0.00271585	      11.6	0.00271692	      11.6	    67.923	
   11.5626	0.00270591	    11.591	0.00272902	   11.5859	0.00271522	   11.5798	0.00271672	   11.5798	    67.918	
   11.5418	0.00270588	   11.5703	0.00272899	   11.5652	0.00271457	   11.5591	0.00271648	   11.5591	    67.912	
   11.5206	0.00270575	   11.5491	0.00272888	   11.5441	0.00271381	   11.5379	0.00271615	   11.5379	   67.9037	
    11.499	0.00270562	   11.5275	0.00272877	   11.5225	 0.0027131	   11.5163	0.00271583	   11.5163	   67.8958	
    11.477	0.00270545	   11.5056	0.00272854	   11.5006	0.00271231	   11.4944	0.00271543	   11.4944	   67.8858	
   11.4546	0.00270519	    11.483	0.00272841	   11.4783	0.00271141	   11.4719	  0.002715	   11.4719	   67.8751	
   11.4315	0.00270489	   11.4601	 0.0027281	   11.4553	0.00271054	    11.449	0.00271451	    11.449	   67.8628	
   11.4079	0.00270455	   11.4367	0.00272773	   11.4318	 0.0027096	   11.4255	0.00271396	   11.4255	    67.849	
    11.384	0.00270417	   11.4129	0.00272748	   11.4079	0.00270857	   11.4016	0.00271341	   11.4016	   67.8352	
   11.3597	0.00270372	   11.3887	0.00272701	   11.3836	0.00270755	   11.3773	0.00271276	   11.3773	    67.819	
    11.335	0.00270327	   11.3642	 0.0027265	    11.359	0.00270648	   11.3527	0.00271208	   11.3527	   67.8021	
   11.3097	0.00270269	   11.3392	0.00272608	   11.3339	0.00270534	   11.3276	0.00271137	   11.3276	   67.7843	
   11.2838	 0.0027021	   11.3135	 0.0027255	   11.3082	0.00270423	   11.3019	0.00271061	   11.3019	   67.7653	
   11.2576	0.00270143	   11.2874	0.00272485	   11.2821	 0.0027031	   11.2757	 0.0027098	   11.2757	   67.7449	
   11.2311	0.00270066	   11.2609	0.00272425	   11.2556	0.00270184	   11.2492	0.00270892	   11.2492	    67.723	
   11.2041	0.00269996	    11.234	0.00272352	   11.2287	0.00270064	   11.2223	0.00270804	   11.2223	    67.701	
   11.1766	0.00269913	   11.2066	0.00272275	   11.2014	0.00269944	   11.1949	0.00270711	   11.1949	   67.6776	
   11.1486	 0.0026982	   11.1785	0.00272201	   11.1735	0.00269812	   11.1669	0.00270611	   11.1669	   67.6528	
   11.1202	0.00269738	     11.15	0.00272113	   11.1451	0.00269682	   11.1385	0.00270511	   11.1385	   67.6278	
   11.0915	0.00269644	   11.1212	 0.0027202	   11.1163	0.00269552	   11.1097	0.00270405	   11.1097	   67.6012	
   11.0624	 0.0026954	    11.092	0.00271927	   11.0873	0.00269412	   11.0805	0.00270293	   11.0805	   67.5732	
   11.0326	0.00269442	   11.0623	0.00271824	   11.0577	0.00269273	   11.0509	 0.0027018	   11.0509	   67.5449	
   11.0025	0.00269339	   11.0321	0.00271714	   11.0275	0.00269131	   11.0207	0.00270062	   11.0207	   67.5154	
   10.9719	0.00269218	   11.0015	0.00271604	   10.9969	0.00268984	   10.9901	0.00269936	   10.9901	   67.4839	
   10.9411	0.00269101	   10.9705	0.00271485	   10.9659	0.00268839	   10.9592	0.00269809	   10.9592	   67.4521	
   10.9097	0.00268982	   10.9393	0.00271356	   10.9346	0.00268693	   10.9279	0.00269677	   10.9279	   67.4193	
   10.8779	0.00268846	   10.9075	0.00271226	   10.9027	0.00268539	    10.896	0.00269537	    10.896	   67.3842	
   10.8456	0.00268711	   10.8752	0.00271096	   10.8703	0.00268387	   10.8637	0.00269398	   10.8637	   67.3495	
    10.813	0.00268574	   10.8425	0.00270952	   10.8376	0.00268237	    10.831	0.00269254	    10.831	   67.3136	
     10.78	0.00268425	   10.8093	0.00270802	   10.8045	0.00268081	   10.7979	0.00269103	   10.7979	   67.2756	
   10.7465	0.00268275	   10.7756	0.00270652	   10.7709	0.00267929	   10.7643	0.00268952	   10.7643	    67.238	
   10.7126	0.00268125	   10.7417	0.00270495	   10.7367	0.00267766	   10.7303	0.00268795	   10.7303	   67.1987	
   10.6783	0.00267963	   10.7075	0.00270333	   10.7022	0.00267603	    10.696	0.00268633	    10.696	   67.1582	
   10.6437	0.00267798	   10.6728	0.00270165	   10.6674	0.00267444	   10.6613	0.00268469	   10.6613	   67.1172	
   10.6085	0.00267636	   10.6376	0.00269991	   10.6321	 0.0026727	   10.6261	0.00268299	   10.6261	   67.0748	
   10.5729	0.00267469	   10.6021	0.00269813	   10.5964	0.00267097	   10.5905	0.00268126	   10.5905	   67.0315	
    10.537	0.00267299	   10.5663	0.00269631	   10.5602	0.00266927	   10.5545	0.00267952	   10.5545	   66.9881	
   10.5006	0.00267126	   10.5298	0.00269454	   10.5238	0.00266742	   10.5181	0.00267774	   10.5181	   66.9435	
   10.4638	0.00266934	   10.4931	0.00269257	   10.4869	0.00266559	   10.4813	0.00267583	   10.4813	   66.8959	
   10.4266	0.00266751	   10.4558	0.00269066	   10.4496	 0.0026638	    10.444	0.00267399	    10.444	   66.8497	
   10.3891	0.00266561	   10.4182	0.00268869	   10.4118	0.00266188	   10.4064	0.00267206	   10.4064	   66.8015	
   10.3512	0.00266357	   10.3803	0.00268659	   10.3737	0.00265996	   10.3684	0.00267004	   10.3684	    66.751	
   10.3127	0.00266159	   10.3419	0.00268454	   10.3352	0.00265807	   10.3299	0.00266806	   10.3299	   66.7016	
   10.2738	0.00265955	    10.303	0.00268241	   10.2961	0.00265608	    10.291	0.00266601	    10.291	   66.6503	
   10.2346	0.00265741	   10.2637	0.00268011	   10.2567	0.00265408	   10.2517	0.00266386	   10.2517	   66.5966	
   10.1951	0.00265531	   10.2241	0.00267795	   10.2171	0.00265208	   10.2121	0.00266178	   10.2121	   66.5445	
   10.1549	0.00265314	   10.1841	0.00267568	   10.1769	0.00264999	    10.172	0.00265961	    10.172	   66.4902	
   10.1144	0.00265086	   10.1436	0.00267327	   10.1363	0.00264788	   10.1315	0.00265734	   10.1315	   66.4334	
   10.0737	0.00264867	   10.1028	0.00267093	   10.0954	0.00264575	   10.0906	0.00265512	   10.0906	    66.378	
   10.0326	0.00264629	   10.0617	 0.0026685	   10.0541	0.00264356	   10.0495	0.00265278	   10.0495	   66.3196	
   9.99095	0.00264389	     10.02	0.00266595	   10.0123	0.00264133	   10.0078	0.00265039	   10.0078	   66.2598	
     9.949	0.00264155	    9.9779	 0.0026634	   9.97016	0.00263907	   9.96569	0.00264801	   9.96569	   66.2001	
   9.90658	0.00263906	   9.93549	0.00266082	    9.9277	0.00263676	   9.92326	0.00264555	   9.92326	   66.1387	
   9.86374	0.00263656	   9.89264	0.00265815	   9.88481	 0.0026344	    9.8804	0.00264304	    9.8804	    66.076	
   9.82052	0.00263411	   9.84927	0.00265547	   9.84142	0.00263204	   9.83707	0.00264054	   9.83707	   66.0135	
     9.777	0.00263156	   9.80556	0.00265273	    9.7977	0.00262966	   9.79342	0.00263798	   9.79342	   65.9496	
   9.73311	0.00262897	   9.76159	 0.0026499	   9.75373	0.00262713	   9.74948	0.00263533	   9.74948	   65.8833	
   9.68871	 0.0026264	   9.71707	0.00264707	   9.70982	0.00262453	    9.7052	0.00263267	    9.7052	   65.8166	
   9.64395	0.00262374	   9.67214	0.00264418	   9.66484	0.00262218	   9.66031	0.00263003	   9.66031	   65.7507	
   9.59886	0.00262102	   9.62691	0.00264124	   9.61966	0.00261966	   9.61515	 0.0026273	   9.61515	   65.6826	
   9.55325	0.00261829	   9.58129	 0.0026383	   9.57405	0.00261697	   9.56953	0.00262452	   9.56953	    65.613	
   9.50716	 0.0026155	   9.53518	0.00263527	   9.52807	0.00261453	   9.52347	0.00262177	   9.52347	   65.5441	
   9.46066	0.00261264	   9.48879	0.00263212	   9.48179	0.00261193	   9.47708	 0.0026189	   9.47708	   65.4724	
   9.41379	0.00260975	   9.44197	0.00262901	   9.43513	0.00260919	   9.43029	0.00261598	   9.43029	   65.3996	
   9.36652	0.00260675	   9.39476	0.00262588	     9.388	0.00260661	   9.38309	0.00261308	   9.38309	    65.327	
    9.3189	0.00260369	   9.34724	0.00262263	   9.34055	0.00260385	   9.33556	0.00261006	   9.33556	   65.2515	
   9.27082	 0.0026007	   9.29937	0.00261934	   9.29279	0.00260092	   9.28766	0.00260699	   9.28766	   65.1746	
   9.22235	0.00259762	   9.25107	0.00261602	   9.24453	0.00259807	   9.23932	 0.0026039	   9.23932	   65.0976	
    9.1736	0.00259443	   9.20239	0.00261263	   9.19591	0.00259508	   9.19063	0.00260071	   9.19063	   65.0178	
   9.12467	0.00259129	   9.15348	0.00260916	   9.14694	0.00259193	    9.1417	0.00259746	    9.1417	   64.9365	
   9.07531	0.00258805	   9.10416	0.00260564	   9.09768	0.00258884	   9.09239	0.00259418	   9.09239	   64.8545	
   9.02562	0.00258473	   9.05443	0.00260207	   9.04802	0.00258561	   9.04269	 0.0025908	   9.04269	   64.7701	
   8.97572	0.00258143	   9.00442	0.00259848	   8.99813	 0.0025823	   8.99276	 0.0025874	   8.99276	   64.6851	
   8.92544	0.00257805	   8.95394	0.00259481	    8.9479	0.00257897	   8.94243	0.00258394	   8.94243	   64.5985	
   8.87458	0.00257456	   8.90301	0.00259107	   8.89723	0.00257555	   8.89161	0.00258039	   8.89161	   64.5098	
   8.82342	0.00257104	   8.85182	0.00258729	    8.8463	0.00257207	   8.84051	 0.0025768	   8.84051	   64.4199	
   8.77188	 0.0025675	   8.80021	0.00258343	   8.79507	0.00256852	   8.78905	0.00257315	   8.78905	   64.3287	
   8.72003	0.00256389	   8.74817	0.00257949	    8.7434	0.00256487	    8.7372	0.00256942	    8.7372	   64.2354	
   8.66795	0.00256029	   8.69589	0.00257554	   8.69147	0.00256119	    8.6851	0.00256567	    8.6851	   64.1418	
   8.61554	0.00255662	    8.6432	0.00257153	   8.63917	0.00255744	   8.63263	0.00256187	   8.63263	   64.0467	
   8.56281	0.00255283	   8.59006	0.00256744	   8.58645	0.00255359	   8.57977	0.00255796	   8.57977	   63.9489	
   8.50984	0.00254909	   8.53668	0.00256332	   8.53332	0.00254973	   8.52661	0.00255405	   8.52661	   63.8512	
   8.45646	0.00254527	   8.48304	0.00255914	   8.47977	0.00254577	   8.47309	0.00255006	   8.47309	   63.7515	
    8.4027	0.00254134	   8.42895	0.00255489	   8.42597	0.00254169	   8.41921	0.00254598	   8.41921	   63.6494	
   8.34877	0.00253744	   8.37461	 0.0025506	   8.37177	0.00253765	   8.36505	 0.0025419	   8.36505	   63.5474	
   8.29447	0.00253344	   8.32002	0.00254624	   8.31733	0.00253347	   8.31061	0.00253772	   8.31061	    63.443	
    8.2398	0.00252936	   8.26499	 0.0025418	   8.26257	0.00252916	   8.25579	0.00253344	   8.25579	    63.336	
   8.18495	0.00252527	    8.2097	0.00253731	   8.20746	0.00252485	   8.20071	0.00252914	   8.20071	   63.2285	
   8.12965	0.00252115	   8.15408	0.00253275	     8.152	0.00252045	   8.14524	0.00252478	   8.14524	   63.1196	
   8.07409	0.00251688	   8.09804	0.00252814	   8.09613	0.00251593	   8.08942	0.00252032	   8.08942	   63.0079	
    8.0182	0.00251255	   8.04179	0.00252348	   8.04002	0.00251138	   8.03334	 0.0025158	   8.03334	   62.8951	
     7.962	0.00250821	   7.98517	0.00251877	   7.98358	0.00250677	   7.97692	0.00251125	   7.97692	   62.7812	
   7.90547	0.00250378	   7.92817	0.00251397	   7.92683	0.00250208	   7.92016	0.00250661	   7.92016	   62.6653	
   7.84862	0.00249926	   7.87096	0.00250914	   7.86977	0.00249733	   7.86312	0.00250191	   7.86312	   62.5478	
   7.79136	0.00249469	   7.81337	0.00250425	   7.81241	0.00249252	   7.80571	0.00249715	   7.80571	   62.4288	
   7.73377	0.00249003	   7.75542	0.00249929	   7.75472	0.00248764	   7.74797	0.00249232	   7.74797	   62.3081	
   7.67603	0.00248531	   7.69731	0.00249432	   7.69673	0.00248273	   7.69002	0.00248745	   7.69002	   62.1863	
   7.61786	0.00248054	   7.63878	0.00248923	   7.63837	0.00247773	   7.63167	 0.0024825	   7.63167	   62.0625	
   7.55941	 0.0024757	   7.57994	0.00248413	   7.57966	0.00247259	     7.573	0.00247747	     7.573	   61.9369	
    7.5007	0.00247078	   7.52084	  0.002479	   7.52073	0.00246746	   7.51409	0.00247241	   7.51409	   61.8103	
   7.44154	0.00246583	   7.46131	0.00247376	   7.46136	 0.0024622	   7.45474	0.00246726	   7.45474	   61.6816	
   7.38216	0.00246078	   7.40153	0.00246849	   7.40172	0.00245682	   7.39514	0.00246203	   7.39514	   61.5507	
   7.32249	0.00245564	    7.3415	0.00246316	   7.34187	0.00245147	   7.33529	0.00245676	   7.33529	   61.4189	
   7.26246	0.00245047	   7.28105	0.00245772	   7.28159	  0.002446	   7.27504	 0.0024514	   7.27504	   61.2849	
   7.20225	0.00244514	   7.22037	0.00245219	   7.22111	0.00244043	   7.21458	0.00244592	   7.21458	    61.148	
   7.14175	0.00243978	    7.1594	 0.0024466	   7.16025	0.00243483	    7.1538	 0.0024404	    7.1538	   61.0101	
   7.08093	0.00243439	   7.09808	0.00244094	   7.09902	0.00242911	   7.09268	0.00243482	   7.09268	   60.8704	
   7.01991	0.00242886	   7.03658	0.00243524	   7.03762	0.00242333	   7.03137	0.00242915	   7.03137	   60.7286	
   6.95845	0.00242327	   6.97472	0.00242945	   6.97583	0.00241749	   6.96967	 0.0024234	   6.96967	   60.5851	
   6.89671	0.00241762	   6.91258	0.00242357	   6.91375	0.00241154	   6.90768	0.00241758	   6.90768	   60.4394	
   6.83481	0.00241185	    6.8503	0.00241763	   6.85148	0.00240553	   6.84553	0.00241167	   6.84553	   60.2917	
   6.77252	0.00240601	   6.78767	0.00241166	   6.78881	0.00239945	     6.783	 0.0024057	     6.783	   60.1426	
   6.71004	 0.0024001	   6.72482	0.00240552	   6.72594	0.00239324	   6.72026	0.00239962	   6.72026	   59.9906	
   6.64737	0.00239408	   6.66176	0.00239939	   6.66288	0.00238703	   6.65734	 0.0023935	   6.65734	   59.8375	
   6.58437	0.00238796	   6.59837	0.00239325	   6.59947	0.00238071	   6.59407	0.00238731	   6.59407	   59.6828	
   6.52119	 0.0023818	   6.53484	0.00238686	   6.53587	0.00237427	   6.53063	0.00238098	   6.53063	   59.5244	
   6.45759	0.00237548	   6.47097	0.00238049	   6.47195	0.00236784	   6.46684	 0.0023746	   6.46684	   59.3651	
   6.39373	 0.0023691	   6.40683	0.00237406	   6.40775	0.00236126	   6.40277	0.00236814	   6.40277	   59.2035	
   6.32964	0.00236269	    6.3426	 0.0023674	   6.34338	0.00235458	   6.33854	0.00236156	   6.33854	    59.039	
   6.26519	0.00235609	   6.27796	0.00236076	   6.27868	0.00234784	   6.27394	 0.0023549	   6.27394	   58.8724	
   6.20059	0.00234942	   6.21313	0.00235402	    6.2138	0.00234101	   6.20917	0.00234815	   6.20917	   58.7038	
   6.13578	0.00234276	   6.14806	0.00234705	   6.14873	0.00233406	   6.14419	0.00234129	   6.14419	   58.5322	
   6.07066	0.00233591	   6.08266	0.00234015	   6.08332	0.00232702	   6.07888	0.00233436	   6.07888	    58.359	
   6.00544	0.00232899	   6.01711	0.00233312	   6.01779	0.00231993	   6.01345	0.00232735	   6.01345	   58.1836	
   5.93987	0.00232204	   5.95127	 0.0023259	   5.95193	0.00231265	   5.94769	 0.0023202	   5.94769	   58.0049	
   5.87409	0.00231494	   5.88522	0.00231871	   5.88584	0.00230534	   5.88172	0.00231299	   5.88172	   57.8249	
   5.80815	0.00230778	   5.81905	0.00231141	    5.8196	0.00229792	    5.8156	 0.0023057	    5.8156	   57.6426	
   5.74187	0.00230059	   5.75254	0.00230394	   5.75301	0.00229034	   5.74914	0.00229829	   5.74914	   57.4573	
    5.6755	0.00229324	   5.68592	0.00229647	    5.6863	0.00228274	   5.68257	0.00229081	   5.68257	   57.2704	
   5.60885	0.00228581	   5.61906	0.00228889	   5.61941	0.00227504	   5.61577	0.00228325	   5.61577	   57.0812	
   5.54196	0.00227833	   5.55196	0.00228117	   5.55226	0.00226716	   5.54873	0.00227555	   5.54873	   56.8889	
   5.47497	 0.0022707	    5.4847	0.00227342	   5.48495	0.00225928	   5.48154	 0.0022678	   5.48154	    56.695	
   5.40761	0.00226299	   5.41717	0.00226555	   5.41725	0.00225134	   5.41401	0.00225996	   5.41401	    56.499	
   5.34011	0.00225519	   5.34938	0.00225758	    5.3494	 0.0022432	    5.3463	0.00225199	    5.3463	   56.2997	
   5.27239	 0.0022473	   5.28155	0.00224953	   5.28135	0.00223506	   5.27843	0.00224396	   5.27843	   56.0991	
   5.20442	0.00223932	   5.21352	0.00224139	   5.21303	0.00222692	   5.21032	0.00223588	   5.21032	   55.8969	
   5.13626	0.00223126	   5.14525	0.00223313	   5.14463	0.00221851	   5.14205	0.00222763	   5.14205	   55.6908	
   5.06776	0.00222312	   5.07672	0.00222477	   5.07591	0.00221011	   5.07346	0.00221933	   5.07346	   55.4833	
   4.99912	0.00221486	     5.008	0.00221628	   5.00707	0.00220171	   5.00473	0.00221095	   5.00473	   55.2737	
   4.93027	0.00220652	   4.93913	0.00220768	   4.93793	0.00219309	   4.93578	0.00220243	   4.93578	   55.0608	
   4.86117	 0.0021981	   4.87001	0.00219905	   4.86855	0.00218443	   4.86657	0.00219386	   4.86657	   54.8465	
   4.79197	0.00218954	   4.80085	0.00219031	   4.79907	0.00217576	   4.79729	0.00218521	   4.79729	   54.6301	
   4.72246	0.00218085	   4.73138	0.00218146	   4.72933	0.00216686	   4.72772	0.00217639	   4.72772	   54.4098	
   4.65284	0.00217209	   4.66177	0.00217251	   4.65949	0.00215788	   4.65803	0.00216749	   4.65803	   54.1873	
   4.58305	0.00216324	   4.59198	0.00216348	   4.58955	0.00214888	    4.5882	0.00215853	    4.5882	   53.9633	
   4.51303	0.00215425	   4.52193	0.00215432	   4.51936	0.00213968	   4.51811	0.00214942	   4.51811	   53.7354	
   4.44289	0.00214515	   4.45181	 0.0021451	   4.44911	0.00213039	   4.44794	0.00214022	   4.44794	   53.5054	
   4.37243	0.00213597	   4.38178	0.00213567	   4.37861	0.00212109	   4.37761	0.00213091	   4.37761	   53.2728	
    4.3019	0.00212667	    4.3113	0.00212619	   4.30801	0.00211163	   4.30707	 0.0021215	   4.30707	   53.0374	
   4.23118	0.00211728	   4.24069	0.00211665	   4.23725	0.00210196	   4.23637	0.00211196	   4.23637	   52.7991	
   4.16025	 0.0021077	   4.16995	0.00210684	   4.16626	0.00209231	   4.16549	0.00210228	   4.16549	   52.5571	
   4.08931	0.00209809	   4.09909	0.00209704	   4.09527	0.00208253	   4.09456	0.00209255	   4.09456	   52.3138	
   4.01813	0.00208829	   4.02791	0.00208713	     4.024	0.00207256	   4.02335	0.00208266	   4.02335	   52.0665	
   3.94688	0.00207839	   3.95663	0.00207699	   3.95266	0.00206258	   3.95205	0.00207265	   3.95205	   51.8163	
   3.87549	0.00206841	   3.88513	0.00206682	    3.8812	0.00205249	   3.88061	0.00206257	   3.88061	   51.5643	
   3.80392	0.00205813	   3.81342	0.00205656	   3.80953	0.00204222	   3.80896	 0.0020523	   3.80896	   51.3076	
   3.73227	0.00204798	   3.74158	0.00204605	   3.73784	0.00203189	   3.73723	0.00204197	   3.73723	   51.0493	
   3.66036	 0.0020375	   3.66943	0.00203551	   3.66585	0.00202147	   3.66521	0.00203149	   3.66521	   50.7873	
   3.58837	0.00202689	   3.59718	0.00202485	   3.59378	0.00201087	   3.59311	0.00202087	   3.59311	   50.5217	
   3.51622	0.00201628	   3.52476	  0.002014	   3.52144	0.00200017	   3.52081	0.00201015	   3.52081	   50.2537	
   3.44392	0.00200539	   3.45217	0.00200308	   3.44894	0.00198936	   3.44834	0.00199928	   3.44834	    49.982	
   3.37154	0.00199439	   3.37951	0.00199204	   3.37641	 0.0019784	   3.37582	0.00198828	   3.37582	   49.7069	
   3.29891	0.00198337	   3.30659	0.00198083	   3.30366	0.00196733	   3.30305	0.00197718	   3.30305	   49.4294	
   3.22628	0.00197214	   3.23365	0.00196954	   3.23086	0.00195616	   3.23027	0.00196595	   3.23027	   49.1486	
   3.15347	0.00196079	   3.16056	0.00195813	   3.15778	 0.0019448	   3.15727	0.00195457	   3.15727	   48.8643	
   3.08052	0.00194941	   3.08735	0.00194658	    3.0846	0.00193337	   3.08416	0.00194312	   3.08416	   48.5781	
   3.00749	0.00193777	   3.01409	0.00193496	   3.01133	0.00192181	   3.01097	0.00193151	   3.01097	   48.2878	
   2.93423	0.00192614	   2.94061	0.00192319	   2.93786	0.00191006	   2.93756	0.00191979	   2.93756	   47.9949	
     2.861	0.00191437	    2.8671	0.00191129	    2.8644	0.00189822	   2.86417	0.00190796	   2.86417	    47.699	
   2.78758	0.00190238	   2.79336	0.00189928	   2.79082	0.00188624	   2.79059	0.00189597	   2.79059	   47.3991	
    2.7141	0.00189033	   2.71951	0.00188714	   2.71718	0.00187421	   2.71693	0.00188389	   2.71693	   47.0973	
   2.64045	0.00187817	   2.64554	0.00187491	   2.64344	0.00186196	   2.64315	0.00187168	   2.64315	    46.792	
   2.56666	0.00186578	   2.57131	0.00186253	   2.56953	 0.0018496	   2.56917	0.00185931	   2.56917	   46.4826	
   2.49285	0.00185331	   2.49713	0.00184995	   2.49567	0.00183717	   2.49522	0.00184681	   2.49522	   46.1702	
   2.41877	0.00184073	   2.42299	0.00183728	   2.42163	0.00182452	   2.42113	0.00183418	   2.42113	   45.8544	
   2.34468	0.00182789	   2.34863	0.00182451	   2.34756	0.00181175	   2.34695	0.00182138	   2.34695	   45.5346	
   2.27047	0.00181495	   2.27416	0.00181157	   2.27334	0.00179886	   2.27266	0.00180846	   2.27266	   45.2115	
   2.19615	0.00180188	   2.19962	0.00179841	   2.19901	0.00178576	   2.19826	0.00179535	   2.19826	   44.8838	
   2.12184	0.00178868	   2.12493	0.00178522	   2.12464	0.00177253	   2.12381	0.00178214	   2.12381	   44.5536	
   2.04733	0.00177535	   2.05032	0.00177189	   2.05014	0.00175918	   2.04926	0.00176881	   2.04926	   44.2202	
   1.97283	0.00176185	   1.97542	0.00175836	   1.97559	0.00174564	   1.97461	0.00175528	   1.97461	   43.8821	
   1.89811	0.00174831	    1.9006	0.00174467	   1.90088	0.00173196	   1.89987	0.00174165	   1.89987	   43.5412	
   1.82335	0.00173461	   1.82573	0.00173097	   1.82612	0.00171818	   1.82507	0.00172792	   1.82507	   43.1979	
   1.74852	0.00172075	   1.75091	0.00171703	   1.75141	0.00170419	   1.75028	0.00171399	   1.75028	   42.8497	
   1.67353	0.00170676	   1.67596	0.00170289	   1.67652	0.00169006	   1.67533	 0.0016999	   1.67533	   42.4976	
   1.59857	0.00169257	   1.60109	 0.0016887	   1.60171	0.00167582	   1.60046	 0.0016857	   1.60046	   42.1425	
   1.52342	0.00167824	   1.52606	0.00167427	    1.5267	0.00166139	   1.52539	 0.0016713	   1.52539	   41.7825	
   1.44827	0.00166378	   1.45102	0.00165968	   1.45167	0.00164678	   1.45032	0.00165675	   1.45032	   41.4187	
   1.37307	0.00164915	   1.37598	0.00164508	    1.3766	0.00163204	   1.37522	0.00164209	   1.37522	   41.0522	
   1.29778	0.00163436	   1.30082	0.00163018	   1.30142	0.00161715	   1.30001	0.00162723	   1.30001	   40.6807	
   1.22251	0.00161945	   1.22565	0.00161514	   1.22626	0.00160205	    1.2248	0.00161221	    1.2248	   40.3053	
   1.14713	0.00160439	    1.1504	    0.0016	   1.15092	0.00158681	   1.14948	0.00159707	   1.14948	   39.9267	
    1.0719	0.00158913	    1.0752	0.00158463	    1.0756	0.00157144	   1.07423	0.00158173	   1.07423	   39.5433	
  0.996346	0.00157377	  0.999927	0.00156907	   1.00018	0.00155589	  0.998817	0.00156624	  0.998817	    39.156	
  0.920945	 0.0015582	  0.924576	0.00155343	  0.924807	 0.0015401	  0.923443	0.00155058	  0.923443	   38.7644	
  0.845485	0.00154251	  0.849249	 0.0015376	  0.849414	0.00152434	  0.848049	0.00153481	  0.848049	   38.3704	
   0.77003	0.00152668	  0.773829	0.00152159	  0.773907	0.00150828	  0.772589	0.00151885	  0.772589	   37.9712	
  0.694646	0.00151066	  0.698468	0.00150551	  0.698251	0.00149186	  0.697122	0.00150268	  0.697122	   37.5669	
  0.619187	 0.0014945	   0.62297	0.00148922	   0.62268	0.00147557	  0.621612	0.00148643	  0.621612	   37.1607	
  0.543733	0.00147816	  0.547471	0.00147275	   0.54704	0.00145889	  0.546081	0.00146994	  0.546081	   36.7484	
  0.468335	0.00146168	  0.471997	0.00145618	  0.471321	0.00144191	  0.470551	0.00145326	  0.470551	   36.3315	
  0.392922	0.00144507	  0.396403	0.00143945	  0.395505	0.00142493	  0.394943	0.00143648	  0.394943	   35.9121	
  0.317472	0.00142822	  0.320898	0.00142253	  0.319776	0.00140764	  0.319382	0.00141946	  0.319382	   35.4866	
   0.24194	 0.0014112	  0.245379	0.00140547	   0.24396	0.00139009	   0.24376	0.00140225	   0.24376	   35.0563	
  0.166434	0.00139411	  0.169774	0.00138826	  0.168214	 0.0013725	  0.168141	0.00138496	  0.168141	   34.6239	
 0.0909548	0.00137675	 0.0942188	0.00137082	 0.0924885	0.00135467	 0.0925541	0.00136741	 0.0925541	   34.1853	
 0.0154313	0.00135932	 0.0185924	0.00135329	 0.0167644	 0.0013366	 0.0169293	0.00134973	 0.0169293	   33.7434	
-0.0600335	0.00134176	-0.0569486	0.00133562	-0.0588841	0.00131845	-0.0586221	0.00133194	-0.0586221	   33.2986	
 -0.135586	0.00132397	 -0.132384	 0.0013177	 -0.134604	0.00130015	 -0.134191	0.00131394	 -0.134191	   32.8485	
 -0.211047	0.00130608	 -0.207768	0.00129966	 -0.210217	0.00128157	 -0.209678	0.00129577	 -0.209678	   32.3943	
 -0.286421	0.00128808	 -0.283106	0.00128149	 -0.285851	0.00126293	 -0.285126	 0.0012775	 -0.285126	   31.9375	
 -0.361785	0.00126983	 -0.358469	0.00126311	 -0.361502	0.00124405	 -0.360585	  0.001259	 -0.360585	    31.475	
 -0.437066	0.00125142	 -0.433807	0.00124455	 -0.437015	0.00122496	 -0.435963	0.00124031	 -0.435963	   31.0078	
 -0.512439	 0.0012329	  -0.50924	0.00122582	 -0.512571	 0.0012057	 -0.511417	0.00122147	 -0.511417	   30.5369	
 -0.587723	0.00121418	 -0.584587	0.00120695	 -0.588018	0.00118622	 -0.586776	0.00120245	 -0.586776	   30.0612	
  -0.66297	0.00119524	 -0.659997	0.00118795	 -0.663482	0.00116657	  -0.66215	0.00118326	  -0.66215	   29.5814	
 -0.738255	0.00117619	 -0.735414	0.00116875	 -0.738936	0.00114675	 -0.737535	 0.0011639	 -0.737535	   29.0975	
 -0.813572	0.00115694	 -0.810713	0.00114939	 -0.814303	0.00112674	 -0.812863	0.00114436	 -0.812863	   28.6089	
 -0.888938	0.00113754	 -0.886069	0.00112988	 -0.889759	0.00110656	 -0.888255	0.00112466	 -0.888255	   28.1165	
 -0.964156	0.00111799	 -0.961332	0.00111016	 -0.965025	0.00108618	 -0.963504	0.00110478	 -0.963504	   27.6194	
  -1.03933	0.00109821	   -1.0367	0.00109029	  -1.04029	0.00106572	  -1.03877	0.00108474	  -1.03877	   27.1185	
  -1.11451	0.00107823	  -1.11205	0.00107029	  -1.11556	0.00104512	  -1.11404	0.00106455	  -1.11404	   26.6137	
  -1.18975	0.00105814	  -1.18724	0.00105009	  -1.19064	0.00102423	  -1.18921	0.00104415	  -1.18921	   26.1038	
  -1.26481	0.00103784	  -1.26247	0.00102973	  -1.26564	0.00100322	  -1.26431	 0.0010236	  -1.26431	     25.59	
  -1.33989	0.00101736	  -1.33756	0.00100926	  -1.34069	0.00098216	  -1.33938	0.00100293	  -1.33938	   25.0732	
  -1.41492	0.000996764	  -1.41258	0.000988568	  -1.41563	0.000960851	  -1.41438	0.000982061	  -1.41438	   24.5515	
  -1.48992	0.000976009	  -1.48758	0.000967773	  -1.49059	0.000939434	  -1.48936	0.000961072	  -1.48936	   24.0268	
  -1.56471	0.000955007	   -1.5625	0.000946811	  -1.56553	0.00091793	  -1.56424	0.000939916	  -1.56424	   23.4979	
   -1.6394	0.000933837	  -1.63751	0.000925645	  -1.64047	0.000896189	  -1.63913	0.000918557	  -1.63913	   22.9639	
  -1.71397	0.000912548	  -1.71237	0.000904368	  -1.71528	0.000874318	  -1.71387	0.000897078	  -1.71387	   22.4269	
  -1.78846	0.00089105	  -1.78723	0.000882934	  -1.79006	0.000852385	  -1.78858	0.000875456	  -1.78858	   21.8864	
  -1.86286	0.00086939	  -1.86207	0.000861344	  -1.86482	0.000830233	  -1.86325	0.000853656	  -1.86325	   21.3414	
   -1.9371	0.000847619	  -1.93681	0.000839617	  -1.93938	0.00080795	  -1.93776	0.000831729	  -1.93776	   20.7932	
  -2.01135	0.000825638	  -2.01157	0.000817742	  -2.01392	0.000785539	  -2.01228	0.00080964	  -2.01228	    20.241	
  -2.08549	0.000803498	  -2.08621	0.00079575	  -2.08832	0.000762989	  -2.08667	0.000787412	  -2.08667	   19.6853	
  -2.15962	0.000781251	   -2.1608	0.000773604	   -2.1627	0.000740275	  -2.16104	0.000765043	  -2.16104	   19.1261	
  -2.23375	0.000758779	  -2.23533	0.000751314	  -2.23704	0.000717483	  -2.23537	0.000742526	  -2.23537	   18.5631	
  -2.30773	0.000736144	  -2.30978	0.000728905	  -2.31114	0.000694539	  -2.30955	0.000719863	  -2.30955	   17.9966	
  -2.38174	0.000713418	  -2.38423	0.000706352	  -2.38534	0.000671454	  -2.38377	0.000697074	  -2.38377	   17.4269	
  -2.45562	0.000690462	  -2.45855	0.000683647	  -2.45941	0.000648293	  -2.45786	0.000674134	  -2.45786	   16.8533	
  -2.52939	0.000667384	  -2.53277	0.000660823	  -2.53338	0.000624953	  -2.53185	0.000651053	  -2.53185	   16.2763	
  -2.60317	0.000644202	  -2.60694	0.000637862	  -2.60733	0.000601465	  -2.60581	0.000627843	  -2.60581	   15.6961	
  -2.67673	0.000620826	  -2.68087	0.00061475	   -2.6811	0.00057794	  -2.67957	0.000604505	  -2.67957	   15.1126	
  -2.75029	0.000597324	  -2.75474	0.00059152	  -2.75489	0.000554236	  -2.75331	0.000581027	  -2.75331	   14.5257	
  -2.82376	0.000573722	  -2.82847	0.000568156	  -2.82854	0.000530389	  -2.82692	0.000557422	  -2.82692	   13.9356	
  -2.89704	0.000549946	  -2.90211	0.000544655	  -2.90211	0.000506492	  -2.90042	0.000533697	  -2.90042	   13.3424	
   -2.9703	0.000526049	  -2.97573	0.000521045	  -2.97566	0.000482442	   -2.9739	0.000509845	   -2.9739	   12.7461	
   -3.0434	0.000502061	  -3.04913	0.000497305	  -3.04898	0.000458254	  -3.04717	0.000485873	  -3.04717	   12.1468	
  -3.11639	0.000477914	  -3.12253	0.000473441	  -3.12223	0.000433992	  -3.12038	0.000461782	  -3.12038	   11.5446	
  -3.18933	0.000453649	  -3.19582	0.000449468	  -3.19538	0.000409604	  -3.19351	0.000437573	  -3.19351	   10.9393	
  -3.26202	0.000429297	  -3.26887	0.000425377	  -3.26835	0.000385083	  -3.26641	0.000413252	  -3.26641	   10.3313	
  -3.33473	0.000404807	  -3.34191	0.000401165	  -3.34129	0.000360486	  -3.33931	0.00038882	  -3.33931	   9.72049	
  -3.40729	0.000380187	  -3.41474	0.000376867	  -3.41406	0.00033582	  -3.41203	0.000364291	  -3.41203	   9.10729	
  -3.47971	0.000355508	  -3.48737	0.000352444	  -3.48663	0.000310977	  -3.48457	0.000339643	  -3.48457	   8.49108	
  -3.55201	0.000330724	  -3.55994	0.000327931	  -3.55915	0.000286123	  -3.55703	0.000314926	  -3.55703	   7.87316	
  -3.62416	0.000305822	  -3.63228	0.000303354	  -3.63142	0.000261155	  -3.62929	0.00029011	  -3.62929	   7.25276	
  -3.69618	0.000280835	  -3.70454	0.000278627	  -3.70362	0.000236025	  -3.70145	0.000265162	  -3.70145	   6.62905	
  -3.76812	0.000255759	  -3.77667	0.00025388	  -3.77569	0.000210879	  -3.77349	0.000240173	  -3.77349	   6.00432	
  -3.83978	0.000230529	  -3.84857	0.000228908	  -3.84754	0.000185661	   -3.8453	0.000215033	   -3.8453	   5.37582	
  -3.91144	0.000205268	  -3.92043	0.000203827	  -3.91939	0.000160248	  -3.91708	0.000189781	  -3.91708	   4.74453	
  -3.98293	0.000179885	  -3.99208	0.000178734	  -3.99102	0.000134834	  -3.98868	0.000164485	  -3.98868	   4.11212	
  -4.05412	0.000154401	  -4.06358	0.000153484	  -4.06241	0.000109349	  -4.06004	0.000139078	  -4.06004	   3.47696	
  -4.12526	0.000128877	  -4.13494	0.000128084	  -4.13374	8.37216e-05	  -4.13131	0.000113561	  -4.13131	   2.83902	
  -4.19617	0.000103224	  -4.20601	0.000102646	  -4.20485	5.79781e-05	  -4.20234	8.79492e-05	  -4.20234	   2.19873	
  -4.26681	7.7538e-05	  -4.27691	7.70673e-05	  -4.27585	3.2206e-05	  -4.27319	6.22704e-05	  -4.27319	   1.55676	
  -4.33737	5.17989e-05	  -4.34769	5.13827e-05	   -4.3467	6.26607e-06	  -4.34392	3.64826e-05	  -4.34392	  0.912064	
  -4.40765	2.59487e-05	  -4.41822	2.56724e-05	  -4.41727	-1.96922e-05	  -4.41438	1.0643e-05	  -4.41438	  0.266074	
  -4.47775	4.99988e-08	  -4.48871	-1.48839e-07	  -4.48776	-4.56895e-05	  -4.48474	-1.52628e-05	  -4.48474	  -0.38157	
  -4.54774	-2.58791e-05	  -4.55906	-2.60467e-05	  -4.55808	-7.1836e-05	  -4.55496	-4.12539e-05	  -4.55496	  -1.03135	
  -4.61745	-5.19096e-05	  -4.62912	-5.192e-05	  -4.62812	-9.7967e-05	   -4.6249	-6.72655e-05	   -4.6249	  -1.68164	
  -4.68707	-7.79352e-05	   -4.6991	-7.79414e-05	  -4.69804	-0.000124114	  -4.69474	-9.33303e-05	  -4.69474	  -2.33326	
  -4.75656	-0.000104043	  -4.76889	-0.000103995	  -4.76774	-0.000150375	   -4.7644	-0.000119471	   -4.7644	  -2.98677	
  -4.82578	-0.000130194	  -4.83842	-0.00013009	  -4.83717	-0.000176612	  -4.83379	-0.000145632	  -4.83379	   -3.6408	
   -4.8949	-0.000156342	  -4.90787	-0.00015624	  -4.90648	-0.000202856	  -4.90308	-0.000171812	  -4.90308	  -4.29531	
  -4.96383	-0.000182549	  -4.97707	-0.000182458	  -4.97554	-0.000229177	  -4.97215	-0.000198061	  -4.97215	  -4.95154	
   -5.0325	-0.000208776	  -5.04599	-0.00020875	  -5.04436	-0.000255471	  -5.04095	-0.000224332	  -5.04095	  -5.60831	
   -5.1011	-0.000234982	   -5.1148	-0.000234986	  -5.11312	-0.000281748	  -5.10967	-0.000250572	  -5.10967	   -6.2643	
  -5.16948	-0.000261224	  -5.18331	-0.00026133	   -5.1816	-0.000308088	  -5.17813	-0.000276881	  -5.17813	  -6.92202	
   -5.2375	-0.000287486	  -5.25163	-0.000287737	  -5.24977	-0.000334443	   -5.2463	-0.000303222	   -5.2463	  -7.58055	
  -5.30542	-0.000313681	  -5.31986	-0.000314052	  -5.31784	-0.000360772	  -5.31437	-0.000329502	  -5.31437	  -8.23754	
  -5.37309	-0.000339913	  -5.38776	-0.000340441	   -5.3856	-0.000387105	  -5.38215	-0.00035582	  -5.38215	   -8.8955	
  -5.44051	-0.000366192	  -5.45546	-0.000366852	  -5.45315	-0.000413457	  -5.44971	-0.000382167	  -5.44971	  -9.55418	
  -5.50783	-0.000392366	  -5.52304	-0.000393193	  -5.52054	-0.000439735	  -5.51714	-0.000408432	  -5.51714	  -10.2108	
   -5.5749	-0.000418531	  -5.59029	-0.000419549	  -5.58765	-0.000465938	  -5.58428	-0.000434673	  -5.58428	  -10.8668	
  -5.64166	-0.000444704	  -5.65753	-0.000445907	  -5.65459	-0.000492235	  -5.65126	-0.000460949	  -5.65126	  -11.5237	
  -5.70834	-0.000470858	  -5.72461	-0.000472196	  -5.72138	-0.000518422	  -5.71811	-0.000487159	  -5.71811	   -12.179	
  -5.77474	-0.000496903	  -5.79135	-0.000498482	  -5.78783	-0.000544571	  -5.78464	-0.000513319	  -5.78464	   -12.833	
  -5.84077	-0.000522945	  -5.85789	-0.00052475	  -5.85416	-0.00057074	  -5.85094	-0.000539478	  -5.85094	   -13.487	
   -5.9067	-0.000548961	  -5.92427	-0.00055096	  -5.92037	-0.000596765	  -5.91711	-0.000565562	  -5.91711	   -14.139	
  -5.97239	-0.000574897	  -5.99029	-0.000577144	  -5.98629	-0.000622762	  -5.98299	-0.000591601	  -5.98299	    -14.79	
  -6.03777	-0.000600825	  -6.05583	-0.000603365	  -6.05194	-0.000648805	  -6.04851	-0.000617665	  -6.04851	  -15.4416	
  -6.10301	-0.000626711	  -6.12136	-0.000629362	  -6.11745	-0.000674701	  -6.11394	-0.000643591	  -6.11394	  -16.0898	
  -6.16801	-0.000652508	  -6.18646	-0.000655394	  -6.18263	-0.000700502	  -6.17904	-0.000669468	  -6.17904	  -16.7367	
  -6.23268	-0.0006783	  -6.25141	-0.000681447	  -6.24743	-0.000726299	  -6.24384	-0.000695349	  -6.24384	  -17.3837	
  -6.29719	-0.000703978	  -6.31615	-0.000707218	   -6.3121	-0.000751984	  -6.30848	-0.00072106	  -6.30848	  -18.0265	
  -6.36149	-0.000729596	  -6.38059	-0.000733037	  -6.37649	-0.000777579	  -6.37285	-0.000746737	  -6.37285	  -18.6684	
  -6.42547	-0.000755151	  -6.44465	-0.000758809	  -6.44054	-0.000803119	  -6.43689	-0.00077236	  -6.43689	   -19.309	
  -6.48934	-0.000780523	   -6.5086	-0.000784336	  -6.50446	-0.000828533	   -6.5008	-0.000797798	   -6.5008	  -19.9449	
  -6.55298	-0.000805873	  -6.57226	-0.0008099	  -6.56812	-0.00085387	  -6.56445	-0.000823214	  -6.56445	  -20.5804	
  -6.61628	-0.000831091	  -6.63558	-0.000835431	  -6.63145	-0.000879093	  -6.62777	-0.000848538	  -6.62777	  -21.2135	
  -6.67932	-0.000856243	  -6.69884	-0.000860739	  -6.69465	-0.000904188	  -6.69094	-0.000873723	  -6.69094	  -21.8431	
  -6.74217	-0.000881186	  -6.76185	-0.00088599	  -6.75763	-0.0009292	  -6.75388	-0.000898792	  -6.75388	  -22.4698	
   -6.8047	-0.000906111	  -6.82457	-0.000911161	  -6.82016	-0.000954076	  -6.81648	-0.000923783	  -6.81648	  -23.0946	
  -6.86689	-0.000930904	  -6.88719	-0.000936169	   -6.8825	-0.000978811	  -6.87886	-0.000948628	  -6.87886	  -23.7157	
  -6.92895	-0.000955505	  -6.94959	-0.000961043	  -6.94463	-0.00100343	  -6.94106	-0.000973326	  -6.94106	  -24.3332	
   -6.9907	-0.000980073	  -7.01159	-0.000985865	  -7.00641	-0.00102792	   -7.0029	-0.000997954	   -7.0029	  -24.9489	
  -7.05205	-0.00100452	   -7.0733	-0.00101045	  -7.06792	-0.00105223	  -7.06442	-0.0010224	  -7.06442	    -25.56	
  -7.11324	-0.00102877	   -7.1348	-0.00103491	  -7.12926	-0.00107654	  -7.12577	-0.00104674	  -7.12577	  -26.1685	
  -7.17418	-0.00105296	  -7.19595	-0.00105927	  -7.19029	-0.00110062	  -7.18681	-0.00107095	  -7.18681	  -26.7737	
  -7.23478	-0.00107706	  -7.25663	-0.00108345	  -7.25099	-0.00112448	  -7.24747	 -0.001095	  -7.24747	  -27.3749	
  -7.29512	-0.00110085	  -7.31699	-0.0011075	  -7.31153	-0.00114832	  -7.30788	-0.00111889	  -7.30788	  -27.9722	
  -7.35527	-0.00112466	   -7.3771	-0.00113141	  -7.37181	-0.00117194	  -7.36806	-0.00114267	  -7.36806	  -28.5668	
  -7.41506	-0.00114833	  -7.43681	-0.00115515	  -7.43167	-0.00119536	  -7.42785	-0.00116628	  -7.42785	  -29.1571	
  -7.47449	-0.00117174	   -7.4962	-0.00117874	  -7.49116	-0.00121872	  -7.48728	-0.00118974	  -7.48728	  -29.7434	
  -7.53374	-0.00119508	  -7.55536	-0.00120217	  -7.55048	-0.00124188	  -7.54653	-0.00121304	  -7.54653	  -30.3261	
  -7.59272	-0.00121826	  -7.61436	-0.00122544	  -7.60945	-0.00126486	  -7.60551	-0.00123619	  -7.60551	  -30.9047	
  -7.65128	-0.00124123	  -7.67297	-0.0012486	  -7.66799	-0.00128776	  -7.66408	-0.0012592	  -7.66408	  -31.4799	
  -7.70959	-0.00126407	   -7.7312	-0.00127159	  -7.72629	-0.00131047	  -7.72236	-0.00128204	  -7.72236	  -32.0511	
  -7.76772	-0.00128679	  -7.78901	-0.00129433	  -7.78434	-0.00133298	  -7.78036	-0.0013047	  -7.78036	  -32.6175	
  -7.82548	-0.00130928	  -7.84651	-0.00131692	  -7.84205	-0.00135537	  -7.83802	-0.00132719	  -7.83802	  -33.1797	
  -7.88278	-0.00133159	  -7.90374	-0.00133939	  -7.89939	-0.00137765	   -7.8953	-0.00134954	   -7.8953	  -33.7386	
  -7.93991	-0.00135375	  -7.96057	-0.00136164	  -7.95655	-0.00139962	  -7.95235	-0.00137167	  -7.95235	  -34.2918	
  -7.99681	-0.0013757	  -8.01699	-0.00138369	  -8.01341	-0.00142149	  -8.00907	-0.00139362	  -8.00907	  -34.8406	
   -8.0533	-0.00139749	  -8.07334	-0.00140556	  -8.06984	-0.00144322	  -8.06549	-0.00141542	  -8.06549	  -35.3855	
  -8.10932	-0.0014191	  -8.12922	-0.00142728	  -8.12597	-0.00146466	   -8.1215	-0.00143701	   -8.1215	  -35.9253	
  -8.16511	-0.00144051	  -8.18492	-0.00144874	  -8.18194	-0.00148601	  -8.17733	-0.00145842	  -8.17733	  -36.4606	
  -8.22063	-0.00146174	  -8.24028	-0.00147003	  -8.23756	-0.00150721	  -8.23282	-0.00147966	  -8.23282	  -36.9915	
  -8.27572	-0.00148278	  -8.29518	-0.00149115	  -8.29269	-0.00152812	  -8.28786	-0.00150068	  -8.28786	  -37.5171	
  -8.33037	-0.00150356	  -8.34972	-0.00151201	  -8.34758	-0.00154889	  -8.34256	-0.00152149	  -8.34256	  -38.0372	
  -8.38485	-0.00152422	  -8.40408	-0.00153268	  -8.40227	-0.0015695	  -8.39707	-0.00154213	  -8.39707	  -38.5533	
  -8.43904	-0.00154471	  -8.45808	-0.00155321	  -8.45658	-0.00158985	  -8.45124	-0.00156259	  -8.45124	  -39.0648	
  -8.49276	-0.00156495	  -8.51166	-0.00157346	  -8.51035	-0.00160994	  -8.50492	-0.00158278	  -8.50492	  -39.5696	
  -8.54609	 -0.001585	  -8.56484	-0.00159357	  -8.56388	-0.00162989	  -8.55827	-0.00160282	  -8.55827	  -40.0705	
  -8.59923	-0.00160485	  -8.61776	-0.0016135	  -8.61701	-0.00164975	  -8.61133	-0.0016227	  -8.61133	  -40.5675	
  -8.65207	-0.00162444	  -8.67034	-0.00163317	  -8.66965	-0.00166936	  -8.66402	-0.00164232	  -8.66402	   -41.058	
  -8.70422	-0.00164385	  -8.72245	-0.00165267	  -8.72214	-0.0016886	  -8.71627	-0.00166171	  -8.71627	  -41.5427	
  -8.75627	-0.00166314	  -8.77421	 -0.001672	   -8.7742	-0.00170789	  -8.76823	-0.00168101	  -8.76823	  -42.0252	
  -8.80798	-0.00168215	  -8.82579	-0.00169109	  -8.82591	-0.00172682	  -8.81989	-0.00170002	  -8.81989	  -42.5005	
  -8.85931	-0.0017009	  -8.87704	  -0.00171	  -8.87726	-0.00174543	   -8.8712	-0.00171878	   -8.8712	  -42.9694	
  -8.91031	-0.00171952	  -8.92784	-0.00172876	  -8.92821	-0.00176401	  -8.92212	-0.00173743	  -8.92212	  -43.4357	
  -8.96074	-0.00173792	  -8.97827	-0.00174727	  -8.97866	-0.00178224	  -8.97256	-0.00175581	  -8.97256	  -43.8953	
  -9.01113	-0.00175596	  -9.02851	-0.00176557	  -9.02888	-0.00180016	  -9.02284	-0.0017739	  -9.02284	  -44.3475	
  -9.06098	-0.0017739	  -9.07848	-0.0017837	  -9.07883	-0.00181796	  -9.07276	-0.00179185	  -9.07276	  -44.7963	
  -9.11053	-0.00179169	  -9.12801	-0.00180161	  -9.12835	-0.00183544	  -9.12229	-0.00180958	  -9.12229	  -45.2395	
  -9.15959	-0.00180909	  -9.17703	-0.00181934	  -9.17735	-0.00185268	  -9.17133	-0.00182704	  -9.17133	  -45.6759	
  -9.20826	-0.00182643	   -9.2258	-0.00183688	  -9.22608	-0.00186973	  -9.22005	-0.00184434	  -9.22005	  -46.1086	
  -9.25662	-0.00184355	  -9.27434	-0.00185421	  -9.27459	-0.00188646	  -9.26852	-0.00186141	  -9.26852	  -46.5353	
  -9.30471	-0.00186036	  -9.32255	-0.00187135	  -9.32271	 -0.001903	  -9.31666	-0.00187824	  -9.31666	   -46.956	
  -9.35238	-0.00187707	   -9.3703	-0.00188832	  -9.37035	-0.00191932	  -9.36434	-0.0018949	  -9.36434	  -47.3726	
  -9.39953	-0.00189355	  -9.41763	-0.00190499	  -9.41756	-0.00193536	  -9.41157	-0.0019113	  -9.41157	  -47.7825	
  -9.44629	-0.00190972	  -9.46462	-0.00192149	  -9.46449	-0.0019512	  -9.45847	-0.00192747	  -9.45847	  -48.1867	
  -9.49285	-0.00192574	  -9.51128	-0.00193788	  -9.51114	-0.0019668	  -9.50509	-0.00194347	  -9.50509	  -48.5868	
  -9.53908	-0.00194153	  -9.55757	-0.00195398	   -9.5574	-0.00198212	  -9.55135	-0.00195921	  -9.55135	  -48.9803	
  -9.58489	-0.00195704	  -9.60343	-0.00196988	  -9.60316	-0.00199723	  -9.59716	-0.00197472	  -9.59716	  -49.3679	
  -9.63021	-0.00197235	  -9.64893	-0.00198559	  -9.64851	-0.00201212	  -9.64255	-0.00199002	  -9.64255	  -49.7505	
  -9.67513	-0.00198742	  -9.69416	-0.00200105	  -9.69346	-0.00202673	  -9.68759	-0.00200507	  -9.68759	  -50.1267	
  -9.71983	-0.00200222	  -9.73913	-0.00201637	  -9.73805	-0.00204111	  -9.73233	-0.0020199	  -9.73233	  -50.4976	
  -9.76421	-0.00201684	  -9.78368	-0.0020315	  -9.78233	-0.0020552	  -9.77674	-0.00203451	  -9.77674	  -50.8628	
  -9.80817	-0.00203123	  -9.82775	-0.00204632	  -9.82625	-0.00206911	  -9.82073	-0.00204889	  -9.82073	  -51.2222	
  -9.85169	-0.00204537	  -9.87144	-0.00206098	  -9.86977	-0.0020828	   -9.8643	-0.00206305	   -9.8643	  -51.5762	
  -9.89488	-0.0020593	  -9.91487	-0.00207545	  -9.91279	-0.00209619	  -9.90751	-0.00207698	  -9.90751	  -51.9245	
  -9.93779	-0.00207296	  -9.95804	-0.00208964	  -9.95543	-0.0021094	  -9.95042	-0.00209067	  -9.95042	  -52.2667	
  -9.98017	-0.0020864	  -10.0008	-0.00210363	  -9.99778	-0.00212244	  -9.99293	-0.00210416	  -9.99293	  -52.6039	
  -10.0222	-0.00209968	  -10.0431	-0.00211746	  -10.0397	-0.00213519	   -10.035	-0.00211744	   -10.035	  -52.9361	
   -10.064	-0.00211272	  -10.0848	-0.00213101	  -10.0813	-0.00214776	  -10.0767	-0.0021305	  -10.0767	  -53.2624	
  -10.1052	-0.00212556	  -10.1261	-0.00214436	  -10.1225	-0.00216016	  -10.1179	-0.00214336	  -10.1179	   -53.584	
  -10.1459	-0.00213817	  -10.1671	-0.00215754	  -10.1634	-0.00217228	  -10.1588	 -0.002156	  -10.1588	  -53.8999	
  -10.1862	-0.00215053	  -10.2077	-0.00217044	  -10.2039	-0.00218431	  -10.1993	-0.00216842	  -10.1993	  -54.2106	
  -10.2261	-0.0021627	   -10.248	-0.00218314	  -10.2441	-0.00219612	  -10.2394	-0.00218066	  -10.2394	  -54.5164	
  -10.2656	-0.00217467	  -10.2878	-0.00219562	  -10.2838	-0.00220759	   -10.279	-0.00219263	   -10.279	  -54.8157	
  -10.3045	-0.00218634	   -10.327	-0.00220789	  -10.3229	-0.00221905	  -10.3181	-0.00220443	  -10.3181	  -55.1107	
  -10.3429	-0.00219781	  -10.3658	-0.00221996	  -10.3617	-0.0022303	  -10.3568	-0.00221602	  -10.3568	  -55.4006	
  -10.3807	-0.00220913	  -10.4043	-0.00223181	  -10.3999	-0.00224122	   -10.395	-0.00222739	   -10.395	  -55.6847	
  -10.4181	-0.00222019	  -10.4424	-0.00224346	  -10.4378	-0.00225208	  -10.4328	-0.00223858	  -10.4328	  -55.9644	
  -10.4551	-0.00223104	  -10.4802	-0.0022549	  -10.4751	-0.00226275	  -10.4702	-0.00224956	  -10.4702	  -56.2391	
  -10.4918	-0.0022418	  -10.5175	-0.00226617	  -10.5121	-0.00227314	  -10.5071	-0.00226037	  -10.5071	  -56.5092	
  -10.5281	-0.00225233	  -10.5542	-0.00227718	  -10.5485	-0.00228339	  -10.5436	-0.00227097	  -10.5436	  -56.7742	
   -10.564	-0.00226258	  -10.5904	-0.00228803	  -10.5844	-0.00229353	  -10.5796	-0.00228138	  -10.5796	  -57.0345	
  -10.5993	-0.00227278	  -10.6262	-0.00229869	  -10.6198	-0.00230337	  -10.6151	-0.00229161	  -10.6151	  -57.2903	
  -10.6343	-0.00228278	  -10.6617	-0.00230912	   -10.655	-0.00231308	  -10.6503	-0.00230166	  -10.6503	  -57.5415	
   -10.669	-0.00229252	   -10.697	-0.00231938	  -10.6899	-0.00232267	  -10.6853	-0.00231152	  -10.6853	  -57.7881	
  -10.7035	-0.00230217	  -10.7318	-0.00232947	  -10.7244	-0.00233201	  -10.7199	-0.00232121	  -10.7199	  -58.0303	
  -10.7376	-0.00231163	  -10.7662	-0.00233932	  -10.7585	-0.00234122	  -10.7541	-0.00233072	  -10.7541	  -58.2681	
  -10.7712	-0.00232086	     -10.8	-0.00234901	  -10.7921	-0.00235032	  -10.7878	-0.00234006	  -10.7878	  -58.5016	
  -10.8044	-0.00232998	  -10.8332	-0.00235852	  -10.8252	-0.00235919	  -10.8209	-0.00234923	  -10.8209	  -58.7308	
   -10.837	-0.00233893	   -10.866	-0.0023678	  -10.8578	-0.00236794	  -10.8536	-0.00235822	  -10.8536	  -58.9556	
  -10.8692	-0.00234765	  -10.8985	-0.00237691	    -10.89	-0.00237656	  -10.8859	-0.00236704	  -10.8859	  -59.1761	
  -10.9009	-0.00235627	  -10.9307	-0.00238583	  -10.9218	-0.00238497	  -10.9178	-0.00237569	  -10.9178	  -59.3923	
  -10.9324	-0.00236472	  -10.9625	-0.00239456	  -10.9534	-0.00239324	  -10.9494	-0.00238417	  -10.9494	  -59.6044	
  -10.9635	-0.00237298	   -10.994	-0.00240312	  -10.9846	-0.00240138	  -10.9807	-0.00239249	  -10.9807	  -59.8123	
  -10.9944	-0.00238109	  -11.0249	-0.0024115	  -11.0154	-0.00240933	  -11.0116	-0.00240064	  -11.0116	   -60.016	
  -11.0248	-0.00238908	  -11.0553	-0.00241969	  -11.0457	-0.00241716	  -11.0419	-0.00240864	  -11.0419	   -60.216	
  -11.0547	-0.0023969	  -11.0851	-0.00242772	  -11.0754	-0.00242485	  -11.0718	-0.00241649	  -11.0718	  -60.4123	
  -11.0841	-0.00240458	  -11.1143	-0.00243561	  -11.1047	-0.00243232	   -11.101	-0.00242417	   -11.101	  -60.6042	
  -11.1129	-0.00241215	  -11.1432	-0.00244329	  -11.1335	-0.00243962	  -11.1298	-0.00243169	  -11.1298	  -60.7922	
  -11.1413	-0.00241957	  -11.1715	-0.00245077	  -11.1619	-0.00244697	  -11.1582	-0.0024391	  -11.1582	  -60.9776	
  -11.1692	-0.00242684	  -11.1995	-0.00245811	  -11.1899	-0.00245406	  -11.1862	-0.00244634	  -11.1862	  -61.1584	
  -11.1968	 -0.002434	  -11.2272	-0.00246529	  -11.2177	-0.00246097	  -11.2139	-0.00245342	  -11.2139	  -61.3354	
  -11.2241	-0.00244101	  -11.2545	-0.00247227	  -11.2452	-0.0024679	  -11.2413	-0.00246039	  -11.2413	  -61.5098	
  -11.2511	-0.00244787	  -11.2815	-0.0024791	  -11.2723	-0.00247458	  -11.2683	-0.00246718	  -11.2683	  -61.6796	
  -11.2777	-0.00245456	  -11.3079	-0.00248578	  -11.2989	-0.00248113	  -11.2948	-0.00247383	  -11.2948	  -61.8457	
  -11.3038	-0.00246114	  -11.3338	-0.00249231	   -11.325	-0.00248768	  -11.3209	-0.00248038	  -11.3209	  -62.0094	
  -11.3295	-0.00246761	  -11.3592	-0.00249862	  -11.3506	-0.00249397	  -11.3464	-0.00248673	  -11.3464	  -62.1684	
  -11.3547	-0.00247392	   -11.384	-0.00250491	  -11.3756	-0.00250014	  -11.3714	-0.00249299	  -11.3714	  -62.3248	
  -11.3793	-0.00248016	  -11.4083	-0.00251101	  -11.3999	-0.0025062	  -11.3958	-0.00249912	  -11.3958	  -62.4781	
  -11.4033	-0.00248627	  -11.4321	-0.00251688	  -11.4237	-0.00251214	  -11.4197	-0.0025051	  -11.4197	  -62.6274	
  -11.4268	-0.00249228	  -11.4556	-0.00252273	  -11.4471	-0.00251782	  -11.4431	-0.00251095	  -11.4431	  -62.7737	
  -11.4497	-0.00249821	  -11.4786	-0.00252842	    -11.47	-0.00252347	  -11.4661	-0.0025167	  -11.4661	  -62.9174	
  -11.4723	 -0.002504	  -11.5014	-0.00253389	  -11.4926	-0.00252898	  -11.4888	-0.00252229	  -11.4888	  -63.0572	
  -11.4944	-0.0025097	  -11.5239	-0.00253932	   -11.515	-0.00253426	  -11.5111	-0.00252776	  -11.5111	   -63.194	
  -11.5163	-0.0025153	  -11.5461	-0.00254459	  -11.5371	-0.00253948	  -11.5332	-0.00253312	  -11.5332	  -63.3281	
  -11.5379	-0.00252078	  -11.5679	-0.00254968	  -11.5589	-0.00254456	  -11.5549	-0.00253834	  -11.5549	  -63.4585	
  -11.5592	-0.00252617	  -11.5893	-0.0025547	  -11.5802	-0.00254946	  -11.5762	-0.00254344	  -11.5762	  -63.5861	
  -11.5801	-0.00253148	  -11.6103	-0.00255959	  -11.6012	-0.00255427	  -11.5972	-0.00254844	  -11.5972	  -63.7111	
  -11.6006	-0.00253665	  -11.6307	-0.0025643	  -11.6217	-0.00255896	  -11.6177	-0.00255331	  -11.6177	  -63.8326	
  -11.6208	-0.00254175	  -11.6507	-0.00256894	  -11.6417	-0.0025635	  -11.6377	-0.00255806	  -11.6377	  -63.9516	
  -11.6404	-0.00254674	    -11.67	-0.00257352	  -11.6611	-0.00256795	  -11.6572	-0.00256274	  -11.6572	  -64.0684	
  -11.6596	-0.00255161	  -11.6889	-0.00257791	  -11.6801	-0.00257225	  -11.6762	-0.00256726	  -11.6762	  -64.1814	
  -11.6783	-0.00255648	  -11.7073	-0.00258225	  -11.6984	-0.00257642	  -11.6947	-0.00257172	  -11.6947	  -64.2929	
  -11.6964	-0.00256114	  -11.7252	-0.0025865	  -11.7162	-0.00258053	  -11.7126	-0.00257606	  -11.7126	  -64.4015	
   -11.714	-0.00256574	  -11.7427	-0.0025906	  -11.7333	-0.00258455	    -11.73	-0.0025803	    -11.73	  -64.5074	
   -11.731	-0.00257029	  -11.7597	-0.0025947	  -11.7499	-0.00258845	  -11.7469	-0.00258448	  -11.7469	   -64.612	
  -11.7475	-0.00257471	  -11.7762	-0.00259871	  -11.7659	-0.00259227	  -11.7632	-0.00258856	  -11.7632	  -64.7141	
  -11.7633	-0.00257901	   -11.792	-0.00260257	  -11.7813	 -0.002596	  -11.7789	-0.00259253	  -11.7789	  -64.8132	
  -11.7786	-0.00258325	  -11.8073	-0.00260644	  -11.7962	-0.0025996	   -11.794	-0.00259643	   -11.794	  -64.9107	
  -11.7932	-0.00258741	   -11.822	-0.00261024	  -11.8105	-0.00260313	  -11.8086	-0.00260026	  -11.8086	  -65.0066	
  -11.8073	-0.00259144	  -11.8361	-0.00261389	  -11.8242	-0.00260657	  -11.8225	-0.00260397	  -11.8225	  -65.0992	
  -11.8208	-0.00259534	  -11.8496	-0.00261754	  -11.8374	-0.00260987	  -11.8359	-0.00260759	  -11.8359	  -65.1896	
  -11.8337	-0.00259924	  -11.8627	-0.00262109	    -11.85	-0.00261312	  -11.8488	-0.00261115	  -11.8488	  -65.2787	
   -11.846	-0.00260299	  -11.8753	-0.00262453	  -11.8622	-0.00261626	  -11.8611	-0.0026146	  -11.8611	  -65.3649	
  -11.8578	-0.00260664	  -11.8874	-0.00262801	  -11.8739	-0.00261929	   -11.873	-0.00261798	   -11.873	  -65.4495	
   -11.869	-0.00261028	  -11.8991	-0.00263137	  -11.8852	-0.00262229	  -11.8844	-0.00262132	  -11.8844	  -65.5329	
  -11.8797	-0.0026138	  -11.9104	-0.00263465	   -11.896	-0.00262525	  -11.8953	-0.00262457	  -11.8953	  -65.6142	
  -11.8898	-0.00261719	  -11.9209	-0.00263789	  -11.9062	-0.00262806	  -11.9057	-0.00262771	  -11.9057	  -65.6928	
  -11.8994	-0.00262054	  -11.9313	-0.00264107	   -11.916	-0.00263081	  -11.9156	-0.00263081	  -11.9156	  -65.7702	
  -11.9084	-0.00262375	  -11.9412	-0.00264424	  -11.9253	-0.00263355	   -11.925	-0.00263385	   -11.925	  -65.8462	
   -11.917	-0.00262691	  -11.9506	-0.00264723	  -11.9342	-0.00263617	  -11.9339	-0.00263677	  -11.9339	  -65.9192	
   -11.925	-0.00262997	  -11.9595	-0.00265019	  -11.9428	-0.00263873	  -11.9424	-0.00263963	  -11.9424	  -65.9908	
  -11.9326	-0.00263291	   -11.968	-0.00265309	  -11.9508	-0.00264128	  -11.9505	-0.00264243	  -11.9505	  -66.0607	
  -11.9398	-0.00263584	   -11.976	-0.00265583	  -11.9584	-0.00264373	  -11.9581	-0.00264513	  -11.9581	  -66.1283	
  -11.9464	-0.00263862	  -11.9836	-0.00265859	  -11.9656	-0.00264611	  -11.9652	-0.00264777	  -11.9652	  -66.1943	
  -11.9526	-0.00264128	  -11.9906	-0.0026612	  -11.9723	-0.00264848	  -11.9718	-0.00265032	  -11.9718	   -66.258	
  -11.9583	-0.00264389	  -11.9971	-0.00266366	  -11.9786	-0.00265073	   -11.978	-0.00265276	   -11.978	   -66.319	
  -11.9637	-0.00264639	  -12.0031	-0.00266613	  -11.9843	-0.00265292	  -11.9837	-0.00265515	  -11.9837	  -66.3787	
  -11.9686	-0.00264879	  -12.0085	-0.00266851	  -11.9896	-0.0026551	  -11.9889	-0.00265747	  -11.9889	  -66.4367	
  -11.9731	-0.00265126	  -12.0135	-0.00267075	  -11.9944	-0.00265729	  -11.9937	-0.00265976	  -11.9937	  -66.4941	
  -11.9772	-0.00265341	  -12.0179	-0.00267294	  -11.9987	-0.00265928	  -11.9979	-0.00266188	  -11.9979	  -66.5469	
  -11.9809	-0.00265553	  -12.0219	-0.0026751	  -12.0025	-0.0026613	  -12.0018	-0.00266398	  -12.0018	  -66.5994	
  -11.9843	-0.00265769	  -12.0254	-0.0026771	  -12.0059	-0.0026633	  -12.0052	-0.00266603	  -12.0052	  -66.6508	
  -11.9873	-0.00265961	  -12.0283	-0.00267902	  -12.0089	-0.00266518	  -12.0082	-0.00266794	  -12.0082	  -66.6984	
    -11.99	-0.0026615	  -12.0309	-0.00268097	  -12.0115	-0.00266704	  -12.0108	-0.00266984	  -12.0108	  -66.7459	
  -11.9924	-0.00266333	   -12.033	-0.00268279	  -12.0137	-0.00266884	   -12.013	-0.00267165	   -12.013	  -66.7913	
  -11.9945	-0.00266505	  -12.0346	-0.00268456	  -12.0156	-0.00267058	  -12.0149	-0.0026734	  -12.0149	  -66.8349	
  -11.9963	-0.00266669	  -12.0359	-0.00268629	  -12.0172	-0.00267226	  -12.0165	-0.00267508	  -12.0165	   -66.877	
  -11.9979	-0.00266826	  -12.0369	-0.00268797	  -12.0184	-0.00267388	  -12.0177	-0.0026767	  -12.0177	  -66.9176	
  -11.9991	-0.00266973	  -12.0375	-0.00268959	  -12.0194	-0.00267547	  -12.0187	-0.00267826	  -12.0187	  -66.9565	
  -12.0001	-0.00267113	  -12.0378	-0.00269118	  -12.0201	-0.00267702	  -12.0193	-0.00267978	  -12.0193	  -66.9944	
  -12.0005	-0.00267247	  -12.0378	-0.00269273	  -12.0205	-0.00267847	  -12.0196	-0.00268122	  -12.0196	  -67.0306	
  -12.0006	-0.00267376	  -12.0374	-0.00269424	  -12.0206	-0.00267987	  -12.0195	-0.00268262	  -12.0195	  -67.0656	
  -12.0001	 -0.002675	  -12.0366	-0.00269566	  -12.0204	-0.00268123	   -12.019	-0.00268396	   -12.019	   -67.099	
  -11.9991	-0.00267614	  -12.0353	-0.00269702	  -12.0197	-0.0026825	  -12.0181	-0.00268522	  -12.0181	  -67.1306	
  -11.9976	-0.00267725	  -12.0336	-0.00269833	  -12.0185	-0.00268373	  -12.0166	-0.00268644	  -12.0166	  -67.1609	
  -11.9954	-0.00267833	  -12.0315	-0.00269963	  -12.0168	-0.0026849	  -12.0146	-0.00268762	  -12.0146	  -67.1906	
  -11.9927	-0.00267935	  -12.0288	-0.00270087	  -12.0145	-0.00268602	   -12.012	-0.00268875	   -12.012	  -67.2186	
  -11.9894	-0.00268028	  -12.0258	-0.00270203	  -12.0116	-0.00268708	  -12.0089	-0.0026898	  -12.0089	  -67.2449	
  -11.9857	-0.00268114	  -12.0221	-0.00270327	  -12.0081	-0.00268811	  -12.0053	-0.00269084	  -12.0053	   -67.271	
  -11.9817	-0.00268195	  -12.0181	-0.0027043	  -12.0041	-0.00268908	  -12.0013	-0.00269178	  -12.0013	  -67.2944	
  -11.9772	-0.0026827	  -12.0136	-0.00270533	  -11.9997	-0.00268999	  -11.9968	-0.00269267	  -11.9968	  -67.3168	
  -11.9724	-0.00268339	  -12.0086	-0.00270644	  -11.9949	-0.00269084	   -11.992	-0.00269356	   -11.992	  -67.3389	
  -11.9672	-0.00268401	  -12.0032	-0.00270731	  -11.9895	-0.00269164	  -11.9866	-0.00269432	  -11.9866	   -67.358	
  -11.9615	-0.00268463	  -11.9975	-0.00270819	  -11.9838	-0.00269235	  -11.9809	-0.00269506	  -11.9809	  -67.3765	
  -11.9553	-0.00268515	  -11.9912	-0.00270916	  -11.9776	-0.0026932	  -11.9747	-0.00269584	  -11.9747	  -67.3959	
  -11.9485	-0.00268561	  -11.9844	-0.00270988	   -11.971	-0.00269374	   -11.968	-0.00269641	   -11.968	  -67.4103	
  -11.9411	-0.00268599	   -11.977	-0.00271062	  -11.9637	-0.00269441	  -11.9606	-0.00269701	  -11.9606	  -67.4252	
  -11.9331	-0.00268637	   -11.969	-0.00271128	  -11.9561	-0.0026951	  -11.9527	-0.00269759	  -11.9527	  -67.4397	
  -11.9246	-0.00268672	  -11.9604	-0.00271187	  -11.9478	-0.00269561	  -11.9443	-0.00269807	  -11.9443	  -67.4516	
  -11.9157	 -0.002687	  -11.9513	-0.00271241	  -11.9392	-0.0026962	  -11.9354	-0.00269854	  -11.9354	  -67.4635	
  -11.9064	-0.00268722	  -11.9417	-0.00271291	  -11.9301	-0.00269676	   -11.926	-0.00269896	   -11.926	  -67.4741	
  -11.8963	-0.00268738	  -11.9317	-0.00271335	  -11.9205	-0.00269719	  -11.9162	-0.00269931	  -11.9162	  -67.4826	
   -11.886	-0.00268761	  -11.9213	-0.00271373	  -11.9106	-0.00269766	   -11.906	-0.00269966	   -11.906	  -67.4916	
  -11.8752	-0.00268775	  -11.9105	-0.00271409	  -11.9003	-0.00269808	  -11.8954	-0.00269997	  -11.8954	  -67.4993	
  -11.8641	-0.00268778	  -11.8994	-0.00271438	  -11.8895	-0.00269842	  -11.8843	-0.00270019	  -11.8843	  -67.5048	
  -11.8524	-0.00268788	  -11.8876	-0.0027146	  -11.8782	-0.00269877	  -11.8727	-0.00270042	  -11.8727	  -67.5105	
  -11.8402	-0.00268785	  -11.8753	-0.00271482	  -11.8663	-0.00269903	  -11.8606	-0.00270057	  -11.8606	  -67.5142	
  -11.8275	-0.00268769	  -11.8623	-0.00271497	  -11.8537	-0.00269922	  -11.8479	-0.00270063	  -11.8479	  -67.5157	
  -11.8144	-0.00268758	  -11.8489	-0.00271506	  -11.8407	-0.00269941	  -11.8347	-0.00270068	  -11.8347	   -67.517	
   -11.801	-0.00268738	  -11.8351	-0.00271515	  -11.8273	-0.00269952	  -11.8211	-0.00270068	  -11.8211	  -67.5171	
  -11.7871	-0.00268706	  -11.8209	-0.0027152	  -11.8135	-0.00269957	  -11.8071	-0.00270061	  -11.8071	  -67.5153	
  -11.7727	-0.0026868	  -11.8063	-0.00271516	  -11.7992	-0.0026996	  -11.7927	-0.00270052	  -11.7927	   -67.513	
  -11.7578	-0.00268646	  -11.7912	-0.00271512	  -11.7845	-0.00269959	  -11.7778	-0.00270039	  -11.7778	  -67.5097	
  -11.7422	-0.00268605	  -11.7756	 -0.002715	  -11.7692	-0.00269951	  -11.7623	-0.00270018	  -11.7623	  -67.5046	
  -11.7262	-0.00268567	  -11.7596	-0.00271487	  -11.7532	-0.0026994	  -11.7463	-0.00269998	  -11.7463	  -67.4994	
  -11.7097	-0.00268525	  -11.7429	-0.00271473	  -11.7367	-0.00269924	  -11.7298	-0.00269974	  -11.7298	  -67.4935	
   -11.693	-0.00268475	  -11.7258	-0.00271452	  -11.7198	-0.00269902	  -11.7129	-0.00269943	  -11.7129	  -67.4858	
  -11.6758	-0.00268428	  -11.7082	-0.00271425	  -11.7024	-0.00269874	  -11.6955	-0.00269909	  -11.6955	  -67.4772	
   -11.658	-0.00268377	  -11.6902	-0.00271395	  -11.6846	-0.00269832	  -11.6776	-0.00269868	  -11.6776	   -67.467	
  -11.6397	-0.00268318	  -11.6716	-0.0027136	  -11.6663	-0.00269797	  -11.6592	-0.00269825	  -11.6592	  -67.4563	
  -11.6209	-0.00268261	  -11.6524	-0.00271321	  -11.6475	-0.00269765	  -11.6402	-0.00269782	  -11.6402	  -67.4456	
  -11.6015	 -0.002682	  -11.6327	-0.00271281	  -11.6282	-0.00269716	  -11.6208	-0.00269732	  -11.6208	  -67.4331	
  -11.5819	-0.00268129	  -11.6126	-0.00271239	  -11.6084	-0.00269664	   -11.601	-0.00269677	   -11.601	  -67.4193	
  -11.5619	-0.00268059	  -11.5921	-0.00271189	  -11.5882	-0.00269613	  -11.5807	-0.0026962	  -11.5807	  -67.4051	
  -11.5412	-0.00267987	  -11.5713	-0.00271133	  -11.5675	-0.00269555	    -11.56	-0.00269559	    -11.56	  -67.3897	
  -11.5201	-0.0026791	    -11.55	-0.00271078	  -11.5464	-0.0026949	  -11.5388	-0.00269493	  -11.5388	  -67.3731	
  -11.4988	-0.00267836	  -11.5281	-0.00271018	  -11.5248	-0.00269428	  -11.5172	-0.00269427	  -11.5172	  -67.3569	
   -11.477	-0.00267759	  -11.5057	-0.00270952	  -11.5027	-0.00269362	  -11.4951	-0.00269358	  -11.4951	  -67.3394	
  -11.4546	-0.00267668	  -11.4829	-0.0027089	  -11.4803	-0.0026929	  -11.4726	-0.00269283	  -11.4726	  -67.3207	
  -11.4318	-0.00267581	  -11.4598	-0.00270818	  -11.4575	-0.00269218	  -11.4497	-0.00269206	  -11.4497	  -67.3014	
  -11.4084	-0.00267496	  -11.4364	-0.00270746	  -11.4344	-0.00269145	  -11.4264	-0.00269129	  -11.4264	  -67.2823	
  -11.3847	-0.00267398	  -11.4125	-0.00270673	  -11.4106	-0.00269067	  -11.4026	-0.00269046	  -11.4026	  -67.2614	
  -11.3606	-0.00267301	   -11.388	-0.00270591	  -11.3863	-0.00268983	  -11.3783	-0.00268958	  -11.3783	  -67.2396	
  -11.3359	-0.00267206	  -11.3631	-0.00270508	  -11.3615	-0.00268901	  -11.3535	-0.00268872	  -11.3535	  -67.2179	
  -11.3109	-0.00267101	  -11.3378	-0.00270422	  -11.3363	-0.00268813	  -11.3283	-0.00268779	  -11.3283	  -67.1947	
  -11.2853	-0.00267001	  -11.3122	-0.00270328	  -11.3108	-0.00268716	  -11.3028	-0.00268682	  -11.3028	  -67.1704	
  -11.2592	-0.00266899	  -11.2859	-0.00270234	  -11.2848	-0.00268619	  -11.2766	-0.00268584	  -11.2766	   -67.146	
  -11.2325	-0.00266792	  -11.2591	-0.00270136	  -11.2581	-0.00268518	  -11.2499	-0.00268482	  -11.2499	  -67.1205	
  -11.2056	-0.0026669	  -11.2319	-0.00270033	   -11.231	-0.00268409	  -11.2228	-0.00268377	  -11.2228	  -67.0943	
  -11.1782	-0.00266587	  -11.2043	-0.00269928	  -11.2036	-0.00268301	  -11.1954	-0.00268272	  -11.1954	   -67.068	
  -11.1504	-0.00266479	  -11.1764	-0.0026982	  -11.1758	-0.00268189	  -11.1675	-0.00268163	  -11.1675	  -67.0408	
  -11.1219	-0.00266376	   -11.148	-0.00269707	  -11.1475	-0.00268071	  -11.1391	-0.00268051	  -11.1391	  -67.0128	
  -11.0931	-0.00266268	   -11.119	-0.0026959	  -11.1186	-0.00267955	  -11.1102	-0.00267938	  -11.1102	  -66.9845	
  -11.0638	-0.00266157	  -11.0896	-0.0026947	  -11.0893	-0.00267836	  -11.0809	-0.00267821	  -11.0809	  -66.9553	
  -11.0343	-0.00266048	    -11.06	-0.00269344	  -11.0597	-0.0026771	  -11.0513	-0.00267701	  -11.0513	  -66.9252	
  -11.0043	-0.00265935	  -11.0299	-0.00269217	  -11.0296	-0.00267585	  -11.0213	-0.00267579	  -11.0213	  -66.8948	
  -10.9738	-0.00265822	  -10.9993	-0.00269082	  -10.9989	-0.00267457	  -10.9907	-0.00267453	  -10.9907	  -66.8634	
  -10.9428	-0.00265702	  -10.9681	-0.00268947	  -10.9678	-0.0026732	  -10.9596	-0.00267323	  -10.9596	  -66.8307	
  -10.9115	-0.00265583	  -10.9366	-0.00268806	  -10.9363	-0.00267183	  -10.9281	-0.00267191	  -10.9281	  -66.7977	
  -10.8799	-0.00265461	  -10.9048	-0.0026866	  -10.9044	-0.00267046	  -10.8964	-0.00267056	  -10.8964	  -66.7639	
  -10.8476	-0.00265335	  -10.8726	-0.00268513	  -10.8721	-0.00266898	  -10.8641	-0.00266915	  -10.8641	  -66.7288	
  -10.8149	-0.0026521	  -10.8399	-0.00268359	  -10.8392	-0.00266752	  -10.8314	-0.00266774	  -10.8314	  -66.6935	
  -10.7819	-0.00265082	  -10.8068	-0.00268203	   -10.806	-0.00266602	  -10.7982	-0.00266629	  -10.7982	  -66.6573	
  -10.7485	-0.00264951	  -10.7734	-0.00268046	  -10.7724	-0.00266445	  -10.7648	-0.00266481	  -10.7648	  -66.6202	
  -10.7145	-0.00264821	  -10.7396	-0.00267881	  -10.7385	-0.00266289	  -10.7308	-0.0026633	  -10.7308	  -66.5826	
  -10.6801	-0.00264688	  -10.7052	-0.00267711	  -10.7039	-0.00266135	  -10.6964	-0.00266178	  -10.6964	  -66.5445	
  -10.6453	-0.00264552	  -10.6703	-0.00267539	   -10.669	-0.00265967	  -10.6615	-0.0026602	  -10.6615	  -66.5049	
  -10.6101	-0.00264415	  -10.6352	-0.00267362	  -10.6337	-0.00265796	  -10.6263	-0.00265858	  -10.6263	  -66.4644	
  -10.5744	-0.00264275	  -10.5997	-0.00267179	   -10.598	-0.00265624	  -10.5907	-0.00265693	  -10.5907	  -66.4232	
  -10.5383	-0.00264131	  -10.5636	-0.00266993	  -10.5618	-0.00265443	  -10.5546	-0.00265522	  -10.5546	  -66.3806	
  -10.5018	-0.00263986	   -10.527	-0.00266803	  -10.5252	-0.0026526	   -10.518	-0.0026535	   -10.518	  -66.3374	
  -10.4651	-0.00263838	  -10.4902	-0.00266607	  -10.4883	-0.00265076	  -10.4812	-0.00265174	  -10.4812	  -66.2934	
  -10.4278	-0.00263683	   -10.453	-0.00266404	  -10.4509	-0.00264876	  -10.4439	-0.00264988	  -10.4439	   -66.247	
  -10.3901	-0.00263529	  -10.4152	-0.00266201	  -10.4129	-0.00264678	  -10.4061	-0.00264803	  -10.4061	  -66.2008	
   -10.352	-0.00263374	   -10.377	-0.00265992	  -10.3746	-0.00264479	  -10.3678	-0.00264615	  -10.3678	  -66.1537	
  -10.3136	-0.00263212	  -10.3385	-0.00265772	  -10.3359	-0.00264268	  -10.3293	-0.00264418	  -10.3293	  -66.1044	
  -10.2747	-0.00263051	  -10.2996	-0.00265552	  -10.2969	-0.00264057	  -10.2904	-0.0026422	  -10.2904	   -66.055	
  -10.2354	-0.00262881	  -10.2601	-0.00265329	  -10.2573	-0.00263844	  -10.2509	-0.00264018	  -10.2509	  -66.0045	
  -10.1957	-0.00262712	  -10.2203	-0.00265095	  -10.2173	-0.00263621	  -10.2111	-0.00263809	  -10.2111	  -65.9523	
  -10.1557	-0.00262539	  -10.1802	-0.00264862	  -10.1771	-0.00263396	   -10.171	-0.00263599	   -10.171	  -65.8997	
  -10.1151	-0.00262359	  -10.1396	-0.00264618	  -10.1364	-0.00263171	  -10.1304	-0.00263383	  -10.1304	  -65.8458	
  -10.0741	-0.0026218	  -10.0985	-0.00264376	  -10.0953	-0.00262928	  -10.0893	-0.00263162	  -10.0893	  -65.7904	
  -10.0329	-0.00261997	  -10.0571	-0.0026413	  -10.0538	-0.00262688	  -10.0479	-0.00262938	  -10.0479	  -65.7346	
  -9.99126	-0.00261811	  -10.0155	-0.00263873	   -10.012	-0.00262449	  -10.0062	-0.00262711	  -10.0062	  -65.6777	
  -9.94916	-0.00261619	  -9.97317	-0.00263618	   -9.9696	-0.00262194	  -9.96398	-0.00262477	  -9.96398	  -65.6193	
   -9.9067	-0.00261422	  -9.93046	-0.00263361	   -9.9268	-0.00261935	  -9.92132	-0.0026224	  -9.92132	  -65.5599	
  -9.86404	-0.0026122	  -9.88744	-0.00263093	  -9.88371	-0.00261682	  -9.87839	-0.00261999	  -9.87839	  -65.4997	
  -9.82087	-0.00261016	  -9.84404	-0.00262825	  -9.84015	-0.00261417	  -9.83502	-0.00261753	  -9.83502	  -65.4381	
  -9.77724	-0.00260808	  -9.80018	-0.00262554	  -9.79607	-0.00261145	  -9.79116	-0.00261502	  -9.79116	  -65.3755	
   -9.7333	-0.00260596	  -9.75598	-0.00262272	  -9.75169	-0.00260879	  -9.74699	-0.00261249	  -9.74699	  -65.3123	
  -9.68897	-0.00260377	  -9.71151	-0.00261993	  -9.70706	-0.00260603	  -9.70252	-0.00260991	  -9.70252	  -65.2478	
  -9.64413	-0.00260155	  -9.66654	-0.00261707	  -9.66195	-0.00260322	  -9.65754	-0.00260728	  -9.65754	  -65.1819	
  -9.59894	-0.0025993	  -9.62115	-0.00261412	  -9.61643	-0.00260046	  -9.61217	-0.00260463	  -9.61217	  -65.1157	
  -9.55349	-0.00259698	  -9.57545	-0.00261124	  -9.57067	-0.00259765	  -9.56654	-0.00260196	  -9.56654	  -65.0489	
  -9.50747	-0.00259463	  -9.52927	-0.0026083	  -9.52452	-0.00259475	  -9.52042	-0.00259923	  -9.52042	  -64.9807	
  -9.46103	-0.00259226	  -9.48263	-0.00260527	  -9.47792	-0.00259184	  -9.47386	-0.00259646	  -9.47386	  -64.9114	
   -9.4143	-0.00258982	   -9.4357	-0.00260229	  -9.43103	-0.00258888	  -9.42701	-0.00259366	  -9.42701	  -64.8415	
  -9.36709	-0.00258733	  -9.38844	-0.00259927	  -9.38382	-0.00258587	  -9.37978	-0.00259082	  -9.37978	  -64.7706	
   -9.3194	-0.00258481	  -9.34069	-0.00259613	  -9.33611	-0.00258284	  -9.33206	-0.00258793	  -9.33206	  -64.6982	
  -9.27142	-0.00258221	  -9.29259	-0.00259301	  -9.28806	-0.00257975	  -9.28403	-0.00258499	  -9.28403	  -64.6248	
  -9.22315	-0.00257956	  -9.24427	-0.00258984	  -9.23968	-0.00257656	   -9.2357	-0.00258198	   -9.2357	  -64.5496	
  -9.17439	-0.00257691	  -9.19544	-0.00258662	  -9.19085	-0.00257339	  -9.18689	-0.00257898	  -9.18689	  -64.4744	
  -9.12531	-0.00257415	  -9.14623	-0.00258336	  -9.14165	-0.00257015	  -9.13773	-0.00257589	  -9.13773	  -64.3971	
  -9.07596	-0.0025713	  -9.09682	-0.00258005	  -9.09222	-0.00256681	  -9.08833	-0.00257272	  -9.08833	   -64.318	
  -9.02609	-0.00256843	  -9.04698	-0.00257668	  -9.04233	-0.00256349	  -9.03847	-0.00256953	  -9.03847	  -64.2383	
   -8.9759	-0.00256548	  -8.99671	-0.00257327	  -8.99205	-0.00256006	  -8.98822	-0.00256627	  -8.98822	  -64.1567	
  -8.92546	-0.00256246	  -8.94619	-0.00256983	  -8.94155	-0.00255661	  -8.93774	-0.00256296	  -8.93774	  -64.0741	
  -8.87451	-0.00255933	  -8.89532	-0.00256638	  -8.89063	-0.00255313	  -8.88682	-0.00255961	  -8.88682	  -63.9903	
  -8.82319	-0.00255613	  -8.84401	-0.00256282	   -8.8393	-0.00254954	   -8.8355	-0.00255616	   -8.8355	  -63.9041	
  -8.77165	-0.00255285	   -8.7924	-0.00255922	  -8.78774	-0.00254591	  -8.78393	-0.00255266	  -8.78393	  -63.8164	
  -8.71967	-0.00254951	  -8.74022	-0.00255558	  -8.73583	-0.00254224	   -8.7319	-0.00254911	   -8.7319	  -63.7278	
  -8.66731	-0.00254611	  -8.68794	-0.00255181	  -8.68349	-0.00253848	  -8.67958	-0.00254547	  -8.67958	  -63.6366	
  -8.61472	-0.00254267	  -8.63518	-0.00254812	  -8.63094	-0.0025347	  -8.62694	-0.00254183	  -8.62694	  -63.5458	
  -8.56171	-0.00253906	  -8.58212	-0.0025443	  -8.57806	-0.00253085	  -8.57396	-0.00253807	  -8.57396	  -63.4518	
  -8.50831	-0.00253551	  -8.52867	-0.00254037	  -8.52476	-0.00252695	  -8.52058	-0.00253428	  -8.52058	  -63.3569	
  -8.45469	-0.00253192	  -8.47497	-0.00253646	  -8.47123	-0.00252301	  -8.46696	-0.00253046	  -8.46696	  -63.2616	
  -8.40073	-0.00252817	  -8.42098	-0.00253246	  -8.41737	-0.00251894	  -8.41303	-0.00252652	  -8.41303	  -63.1631	
  -8.34639	-0.00252443	  -8.36654	-0.00252836	  -8.36308	-0.0025148	  -8.35867	-0.00252253	  -8.35867	  -63.0632	
  -8.29188	-0.00252064	  -8.31188	-0.00252425	  -8.30855	-0.00251071	   -8.3041	-0.00251853	   -8.3041	  -62.9633	
  -8.23701	-0.0025167	  -8.25685	-0.00252011	  -8.25369	-0.00250645	  -8.24919	-0.00251442	  -8.24919	  -62.8606	
  -8.18177	-0.00251274	  -8.20144	-0.00251582	  -8.19845	-0.00250215	  -8.19389	-0.00251024	  -8.19389	  -62.7559	
  -8.12636	-0.00250873	  -8.14578	-0.00251157	  -8.14295	-0.00249792	  -8.13836	-0.00250607	  -8.13836	  -62.6518	
  -8.07056	-0.00250459	  -8.08977	-0.00250725	  -8.08705	-0.0024935	  -8.08246	-0.00250178	  -8.08246	  -62.5445	
  -8.01441	-0.00250044	  -8.03337	-0.00250283	  -8.03074	-0.00248904	  -8.02617	-0.00249744	  -8.02617	  -62.4359	
  -7.95808	-0.00249619	  -7.97675	-0.00249833	  -7.97423	-0.00248458	  -7.96969	-0.00249303	  -7.96969	  -62.3259	
  -7.90137	-0.00249186	  -7.91983	-0.00249388	   -7.9174	-0.00247998	  -7.91287	-0.00248857	  -7.91287	  -62.2143	
  -7.84434	-0.0024875	  -7.86253	-0.00248933	  -7.86019	-0.00247533	  -7.85569	-0.00248405	  -7.85569	  -62.1014	
  -7.78718	-0.00248318	  -7.80507	-0.00248471	  -7.80278	-0.00247066	  -7.79834	-0.00247951	  -7.79834	  -61.9879	
  -7.72957	-0.00247862	  -7.74724	-0.00248008	  -7.74497	-0.00246587	  -7.74059	-0.00247486	  -7.74059	  -61.8714	
  -7.67163	-0.00247414	  -7.68908	-0.0024754	  -7.68683	-0.00246102	  -7.68251	-0.00247019	  -7.68251	  -61.7546	
  -7.61354	-0.0024696	  -7.63071	-0.00247058	  -7.62843	-0.00245616	  -7.62423	-0.00246545	  -7.62423	  -61.6362	
  -7.55498	-0.00246489	  -7.57198	-0.0024658	  -7.56963	-0.00245122	  -7.56553	-0.00246064	  -7.56553	  -61.5159	
  -7.49613	-0.00246022	  -7.51295	-0.00246093	  -7.51055	-0.00244623	  -7.50654	-0.00245579	  -7.50654	  -61.3948	
    -7.437	-0.00245551	   -7.4537	-0.00245595	  -7.45129	-0.00244121	  -7.44733	-0.00245089	  -7.44733	  -61.2723	
  -7.37747	-0.00245062	  -7.39404	-0.00245096	  -7.39162	-0.00243613	  -7.38771	-0.0024459	  -7.38771	  -61.1475	
  -7.31768	-0.00244573	  -7.33412	-0.00244588	  -7.33173	-0.00243098	  -7.32784	-0.00244086	  -7.32784	  -61.0216	
  -7.25766	-0.0024408	  -7.27399	-0.00244069	  -7.27156	-0.00242582	  -7.26774	-0.00243577	  -7.26774	  -60.8942	
   -7.1973	-0.00243576	  -7.21357	-0.0024355	  -7.21103	-0.00242058	   -7.2073	-0.00243061	   -7.2073	  -60.7653	
  -7.13676	-0.0024307	  -7.15292	-0.00243028	  -7.15031	-0.00241524	  -7.14666	-0.00242541	  -7.14666	  -60.6351	
  -7.07585	-0.00242557	  -7.09198	 -0.002425	  -7.08941	-0.00240987	  -7.08575	-0.00242015	  -7.08575	  -60.5037	
  -7.01464	-0.00242029	  -7.03052	-0.00241961	  -7.02807	-0.00240435	  -7.02441	-0.00241475	  -7.02441	  -60.3687	
  -6.95329	-0.00241499	  -6.96908	-0.00241415	  -6.96671	-0.00239868	  -6.96303	-0.00240927	  -6.96303	  -60.2318	
  -6.89153	-0.00240962	  -6.90721	-0.00240874	  -6.90488	-0.00239309	  -6.90121	-0.00240382	  -6.90121	  -60.0955	
  -6.82955	-0.00240412	   -6.8451	-0.00240318	   -6.8428	-0.00238739	  -6.83915	-0.00239823	  -6.83915	  -59.9558	
  -6.76737	-0.00239858	  -6.78269	-0.00239753	   -6.7805	-0.00238155	  -6.77685	-0.00239255	  -6.77685	  -59.8138	
   -6.7048	-0.00239296	  -6.71992	-0.00239183	  -6.71749	-0.00237579	  -6.71407	-0.00238686	  -6.71407	  -59.6716	
  -6.64204	-0.00238724	  -6.65695	-0.0023861	  -6.65466	-0.00236983	  -6.65121	-0.00238106	  -6.65121	  -59.5265	
  -6.57902	-0.00238144	   -6.5936	-0.00238032	  -6.59144	-0.00236386	  -6.58802	-0.0023752	  -6.58802	  -59.3801	
   -6.5157	-0.00237555	  -6.52993	-0.00237439	    -6.528	-0.00235787	  -6.52455	-0.00236927	  -6.52455	  -59.2318	
  -6.45223	-0.00236948	  -6.46608	-0.00236849	   -6.4643	-0.00235174	  -6.46087	-0.00236324	  -6.46087	   -59.081	
  -6.38834	-0.00236337	  -6.40191	-0.0023624	  -6.40033	-0.00234554	  -6.39686	-0.0023571	  -6.39686	  -58.9276	
  -6.32421	-0.00235732	   -6.3375	-0.00235624	   -6.3361	-0.00233936	  -6.33261	-0.00235097	  -6.33261	  -58.7743	
  -6.25993	-0.00235104	  -6.27291	-0.00235005	  -6.27173	-0.00233306	  -6.26819	-0.00234471	  -6.26819	  -58.6179	
  -6.19539	-0.00234464	  -6.20798	-0.00234371	  -6.20707	-0.00232663	  -6.20348	-0.00233832	  -6.20348	  -58.4581	
  -6.13033	-0.0023383	  -6.14291	-0.00233727	  -6.14226	-0.00232021	   -6.1385	-0.00233193	   -6.1385	  -58.2982	
  -6.06532	-0.00233176	   -6.0776	-0.00233076	  -6.07721	-0.00231367	  -6.07338	-0.0023254	  -6.07338	   -58.135	
  -6.00009	-0.00232515	  -6.01202	-0.00232413	  -6.01185	-0.00230698	  -6.00799	-0.00231875	  -6.00799	  -57.9688	
  -5.93457	-0.00231848	  -5.94637	-0.00231741	  -5.94634	-0.00230028	  -5.94243	-0.00231206	  -5.94243	  -57.8014	
  -5.86884	-0.00231168	  -5.88039	-0.00231064	  -5.88047	-0.00229346	  -5.87657	-0.00230526	  -5.87657	  -57.6315	
  -5.80289	-0.0023048	  -5.81423	-0.00230372	  -5.81441	-0.00228651	  -5.81051	-0.00229834	  -5.81051	  -57.4586	
  -5.73664	-0.00229786	  -5.74793	-0.00229672	  -5.74815	-0.00227952	  -5.74424	-0.00229137	  -5.74424	  -57.2842	
  -5.67009	-0.00229078	  -5.68132	-0.00228965	  -5.68158	-0.00227243	  -5.67766	-0.00228429	  -5.67766	  -57.1071	
  -5.60345	-0.0022836	  -5.61461	-0.00228243	   -5.6149	-0.00226521	  -5.61099	-0.00227708	  -5.61099	   -56.927	
   -5.5365	-0.00227635	  -5.54771	-0.0022751	  -5.54798	-0.00225794	  -5.54406	-0.0022698	  -5.54406	   -56.745	
  -5.46936	-0.00226897	  -5.48059	-0.00226772	  -5.48083	-0.00225063	  -5.47692	-0.00226244	  -5.47692	   -56.561	
  -5.40202	-0.0022615	  -5.41339	-0.00226024	  -5.41351	-0.00224317	  -5.40964	-0.00225497	  -5.40964	  -56.3742	
  -5.33439	-0.00225394	  -5.34585	-0.00225268	  -5.34597	-0.00223557	  -5.34207	-0.0022474	  -5.34207	  -56.1849	
  -5.26671	-0.00224625	  -5.27807	-0.00224499	  -5.27812	-0.00222796	   -5.2743	-0.00223973	   -5.2743	  -55.9933	
  -5.19873	-0.00223845	  -5.21006	-0.0022372	  -5.21007	-0.00222022	  -5.20629	-0.00223196	  -5.20629	   -55.799	
  -5.13056	-0.0022306	  -5.14185	-0.00222934	  -5.14191	-0.0022123	  -5.13811	-0.00222408	  -5.13811	   -55.602	
  -5.06226	-0.00222261	   -5.0734	-0.00222136	  -5.07357	-0.00220429	  -5.06974	-0.00221609	  -5.06974	  -55.4022	
  -4.99365	-0.00221451	  -5.00471	-0.00221325	  -5.00495	-0.00219619	   -5.0011	-0.00220798	   -5.0011	  -55.1996	
  -4.92492	-0.00220635	  -4.93593	-0.00220509	  -4.93635	-0.00218797	   -4.9324	-0.0021998	   -4.9324	  -54.9951	
    -4.856	-0.00219807	  -4.86693	-0.00219683	  -4.86754	-0.00217967	  -4.86349	-0.00219152	  -4.86349	  -54.7881	
  -4.78688	-0.00218969	   -4.7977	-0.0021884	  -4.79848	-0.00217124	  -4.79435	-0.00218311	  -4.79435	  -54.5777	
  -4.71775	-0.00218123	  -4.72838	-0.00217992	  -4.72922	-0.00216267	  -4.72511	-0.0021746	  -4.72511	  -54.3651	
   -4.6483	-0.00217273	  -4.65876	-0.00217132	  -4.65975	-0.00215399	   -4.6556	-0.00216601	   -4.6556	  -54.1504	
  -4.57861	 -0.002164	  -4.58903	-0.0021626	  -4.59009	-0.00214525	  -4.58591	-0.00215729	  -4.58591	  -53.9322	
  -4.50878	-0.00215515	   -4.5191	-0.00215376	  -4.52025	-0.00213633	  -4.51604	-0.00214841	  -4.51604	  -53.7103	
  -4.43871	-0.00214629	  -4.44897	-0.00214481	  -4.45017	-0.0021273	  -4.44595	-0.00213947	  -4.44595	  -53.4867	
  -4.36858	-0.00213724	  -4.37881	-0.00213576	  -4.38001	-0.00211818	   -4.3758	-0.00213039	   -4.3758	  -53.2598	
  -4.29827	-0.00212807	  -4.30839	-0.00212657	  -4.30956	-0.00210887	  -4.30541	-0.00212117	  -4.30541	  -53.0293	
  -4.22786	-0.00211887	  -4.23784	-0.0021173	    -4.239	-0.00209949	   -4.2349	-0.00211189	   -4.2349	  -52.7972	
  -4.15714	-0.00210953	  -4.16713	-0.00210791	  -4.16819	  -0.00209	  -4.16416	-0.00210248	  -4.16416	   -52.562	
  -4.08629	-0.00210005	  -4.09623	-0.00209839	  -4.09719	-0.00208036	  -4.09324	-0.00209293	  -4.09324	  -52.3233	
  -4.01533	-0.0020905	  -4.02522	-0.00208877	   -4.0261	-0.00207064	  -4.02222	-0.0020833	  -4.02222	  -52.0826	
  -3.94425	-0.00208086	  -3.95393	-0.00207905	  -3.95488	-0.0020608	  -3.95102	-0.00207357	  -3.95102	  -51.8393	
  -3.87301	-0.00207108	  -3.88251	-0.0020692	  -3.88342	-0.00205082	  -3.87965	-0.0020637	  -3.87965	  -51.5925	
  -3.80155	-0.00206122	  -3.81089	-0.00205924	  -3.81183	-0.00204072	  -3.80809	-0.00205373	  -3.80809	  -51.3432	
  -3.72994	-0.00205124	  -3.73911	-0.00204917	  -3.74009	-0.00203053	  -3.73638	-0.00204365	  -3.73638	  -51.0912	
  -3.65822	-0.0020411	  -3.66718	-0.00203897	  -3.66822	-0.00202021	  -3.66454	-0.00203343	  -3.66454	  -50.8357	
  -3.58625	-0.00203084	  -3.59504	-0.00202865	  -3.59618	-0.00200974	  -3.59249	-0.00202308	  -3.59249	   -50.577	
  -3.51424	-0.00202046	  -3.52285	-0.00201822	   -3.5241	-0.00199915	   -3.5204	-0.00201261	   -3.5204	  -50.3152	
  -3.44193	-0.00200989	  -3.45047	-0.00200766	  -3.45179	-0.00198839	  -3.44806	-0.00200198	  -3.44806	  -50.0495	
  -3.36949	-0.00199922	  -3.37796	-0.00199696	  -3.37935	-0.00197754	   -3.3756	-0.00199124	   -3.3756	   -49.781	
  -3.29698	-0.00198843	  -3.30541	-0.00198616	  -3.30682	-0.00196654	  -3.30307	-0.00198037	  -3.30307	  -49.5094	
  -3.22426	-0.00197746	  -3.23265	-0.00197522	  -3.23406	-0.00195533	  -3.23032	-0.00196934	  -3.23032	  -49.2334	
  -3.15149	-0.00196639	  -3.15988	-0.00196416	   -3.1613	-0.00194403	  -3.15756	-0.00195819	  -3.15756	  -48.9548	
  -3.07852	-0.00195517	  -3.08686	-0.00195298	  -3.08831	-0.00193261	  -3.08456	-0.00194692	  -3.08456	   -48.673	
  -3.00552	-0.00194379	  -3.01376	-0.00194169	  -3.01524	-0.00192098	  -3.01151	-0.00193549	  -3.01151	  -48.3872	
  -2.93237	-0.0019323	  -2.94058	-0.00193026	   -2.9421	-0.00190925	  -2.93835	-0.00192394	  -2.93835	  -48.0984	
  -2.85907	-0.00192065	  -2.86723	-0.00191868	  -2.86877	-0.0018974	  -2.86502	-0.00191224	  -2.86502	  -47.8061	
  -2.78577	-0.00190885	  -2.79385	 -0.001907	  -2.79541	-0.0018854	  -2.79168	-0.00190042	  -2.79168	  -47.5104	
  -2.71223	-0.00189692	  -2.72023	-0.00189519	  -2.72177	-0.00187328	  -2.71808	-0.00188846	  -2.71808	  -47.2116	
  -2.63867	-0.00188482	  -2.64657	-0.00188324	   -2.6481	-0.00186098	  -2.64445	-0.00187635	  -2.64445	  -46.9086	
  -2.56492	-0.00187262	  -2.57279	-0.00187116	   -2.5743	-0.0018486	  -2.57067	-0.00186413	  -2.57067	  -46.6032	
  -2.49107	-0.00186024	  -2.49887	-0.00185898	  -2.50039	-0.0018361	  -2.49678	-0.00185177	  -2.49678	  -46.2943	
  -2.41724	-0.00184769	  -2.42487	-0.00184657	  -2.42643	-0.00182339	  -2.42285	-0.00183922	  -2.42285	  -45.9804	
  -2.34321	-0.00183505	  -2.35067	-0.00183406	  -2.35226	-0.0018106	  -2.34871	-0.00182657	  -2.34871	  -45.6642	
  -2.26919	-0.00182224	  -2.27645	-0.00182143	  -2.27801	-0.00179768	  -2.27455	-0.00181378	  -2.27455	  -45.3445	
  -2.19498	-0.00180925	  -2.20212	-0.00180858	  -2.20364	-0.00178456	  -2.20024	-0.0018008	  -2.20024	  -45.0199	
   -2.1207	-0.00179613	  -2.12768	-0.00179562	   -2.1292	-0.00177133	  -2.12586	-0.00178769	  -2.12586	  -44.6923	
  -2.04635	-0.00178287	   -2.0532	-0.00178252	  -2.05468	-0.00175797	  -2.05141	-0.00177445	  -2.05141	  -44.3613	
  -1.97183	-0.00176944	  -1.97855	-0.00176924	  -1.97998	-0.00174445	  -1.97679	-0.00176104	  -1.97679	  -44.0261	
  -1.89733	-0.00175587	  -1.90392	-0.00175582	  -1.90531	-0.0017308	  -1.90219	-0.00174749	  -1.90219	  -43.6873	
  -1.82265	-0.00174218	  -1.82915	-0.00174227	  -1.83044	-0.00171702	  -1.82741	-0.00173382	  -1.82741	  -43.3456	
  -1.74796	-0.00172827	  -1.75436	-0.0017286	  -1.75555	-0.00170311	  -1.75262	-0.00171999	  -1.75262	  -42.9999	
