# User: ACHyster
# File name: C:/ACHYSTER/ACHyster SENS/SHAMS/CoFe2O4-1gl-water-15 Glycerol- Sens-07-03-2023/CoFe2O4-1gl-water-15 Glycerol- 10_100F- 12kAm -Sens-07-03-20230005#1.txt
# Saved at: ma. mar. 7 15:08:01 2023
# Hyster Loop (3 iterations). Intensity: 12.0 kA/m; Tuned frequency: 59.9 kHz
# Units x axis: (kA/m)
# Units y axis: "Repeats y" & "Average y" (10^(-3)Am^2); "Mass avg y" (Am^2/kg)
# Magnetic mass: 4e-05 g
# Parameter      	Repeat   1	Repeat   2	Repeat   3	Average   	Sigma     
# H_C (kA/m)     	      10.6	      10.6	      10.6	      10.6	       0.0
# M_R (Am^2/kg)  	      35.1	      35.1	      35.3	      35.2	       0.1
# M_max (Am^2/kg)	      19.0	      19.4	      19.4	      19.3	       0.2
# Area (mJ/kg)   	    1652.1	    1652.1	    1658.8	    1654.3	       3.2
# SAR (W/g)      	      99.0	      99.0	      99.4	      99.1	       0.2
#Repeat 1 x	Repeat 1 y	Repeat 2 x	Repeat 2 y	Repeat 3 x	Repeat 3 y	Average x 	Average y 	Mass avg x 	Mass avg y 
  -1.76057	-0.0014839	  -1.76363	-0.00148814	  -1.75302	-0.00149602	  -1.75907	-0.00148936	  -1.75907	  -37.2339	
  -1.68596	 -0.001481	  -1.68874	-0.00148526	   -1.6784	-0.0014931	  -1.68437	-0.00148645	  -1.68437	  -37.1613	
   -1.6114	-0.00147804	  -1.61379	-0.00148225	  -1.60372	-0.00149013	  -1.60963	-0.00148347	  -1.60963	  -37.0868	
  -1.53663	-0.00147502	  -1.53867	-0.00147914	  -1.52902	-0.00148713	  -1.53478	-0.00148043	  -1.53478	  -37.0108	
   -1.4618	-0.00147192	  -1.46354	-0.00147597	   -1.4543	-0.00148412	  -1.45988	-0.00147734	  -1.45988	  -36.9334	
    -1.387	-0.00146876	  -1.38816	-0.00147276	   -1.3795	-0.0014811	  -1.38489	-0.00147421	  -1.38489	  -36.8551	
  -1.31201	-0.00146552	  -1.31266	-0.00146955	  -1.30455	-0.00147805	  -1.30974	-0.00147104	  -1.30974	   -36.776	
   -1.2371	-0.00146224	   -1.2373	-0.00146632	  -1.22956	-0.00147494	  -1.23465	-0.00146784	  -1.23465	  -36.6959	
  -1.16203	-0.00145892	  -1.16168	-0.00146308	  -1.15447	-0.00147176	  -1.15939	-0.00146459	  -1.15939	  -36.6146	
  -1.08691	-0.00145557	  -1.08608	-0.00145978	  -1.07939	-0.00146848	  -1.08413	-0.00146128	  -1.08413	  -36.5319	
  -1.01153	-0.00145219	   -1.0106	-0.00145642	   -1.0044	-0.0014651	  -1.00884	-0.0014579	  -1.00884	  -36.4476	
 -0.936005	-0.00144877	 -0.935002	-0.00145295	 -0.929275	-0.00146165	 -0.933427	-0.00145446	 -0.933427	  -36.3614	
 -0.860439	-0.00144529	 -0.859396	-0.00144939	 -0.854281	-0.00145814	 -0.858038	-0.00145094	 -0.858038	  -36.2735	
 -0.784931	-0.00144174	 -0.783722	-0.00144574	 -0.779027	-0.00145459	  -0.78256	-0.00144735	  -0.78256	  -36.1838	
 -0.709415	-0.00143811	 -0.708079	-0.00144202	 -0.703785	 -0.001451	 -0.707093	-0.00144371	 -0.707093	  -36.0927	
 -0.633672	-0.0014344	 -0.632403	-0.00143826	 -0.628649	-0.00144738	 -0.631574	-0.00144001	 -0.631574	  -36.0003	
 -0.557815	-0.00143063	 -0.556633	-0.00143447	 -0.553388	-0.00144371	 -0.555946	-0.00143627	 -0.555946	  -35.9068	
 -0.482107	-0.00142681	 -0.480875	-0.00143066	 -0.478108	-0.00143998	 -0.480363	-0.00143249	 -0.480363	  -35.8122	
 -0.406317	-0.00142297	 -0.404907	-0.00142683	 -0.402748	-0.00143617	 -0.404657	-0.00142866	 -0.404657	  -35.7164	
 -0.330547	-0.00141909	    -0.329	-0.00142294	 -0.327406	-0.00143228	 -0.328984	-0.00142477	 -0.328984	  -35.6193	
 -0.254797	-0.00141519	 -0.253027	-0.00141899	 -0.252209	-0.00142831	 -0.253344	-0.00142083	 -0.253344	  -35.5207	
 -0.178943	-0.00141124	 -0.177153	-0.00141495	 -0.176893	-0.00142425	 -0.177663	-0.00141682	 -0.177663	  -35.4204	
 -0.103246	-0.00140725	 -0.101309	-0.00141083	 -0.101719	-0.00142013	 -0.102092	-0.00141274	 -0.102092	  -35.3185	
-0.0274762	-0.00140319	-0.0254333	-0.00140664	-0.0262985	-0.00141597	-0.0264027	-0.0014086	-0.0264027	  -35.2149	
 0.0482672	-0.00139904	 0.0503786	-0.00140238	 0.0490973	-0.00141176	 0.0492477	-0.0014044	 0.0492477	  -35.1099	
   0.12389	-0.00139481	  0.126035	-0.00139809	  0.124219	-0.00140751	  0.124715	-0.00140014	  0.124715	  -35.0035	
  0.199495	-0.00139049	  0.201768	-0.00139377	  0.199467	-0.00140322	  0.200244	-0.00139583	  0.200244	  -34.8957	
  0.274958	-0.00138608	   0.27732	-0.00138943	  0.274581	-0.00139887	   0.27562	-0.00139146	   0.27562	  -34.7865	
  0.350509	-0.00138161	  0.352922	-0.00138505	  0.349632	-0.00139444	  0.351021	-0.00138703	  0.351021	  -34.6758	
  0.426048	-0.0013771	  0.428477	-0.00138062	  0.424534	-0.00138992	  0.426353	-0.00138255	  0.426353	  -34.5637	
   0.50148	-0.00137257	  0.503894	-0.00137611	  0.499363	-0.00138531	  0.501579	 -0.001378	  0.501579	    -34.45	
  0.577031	-0.00136804	  0.579401	-0.00137151	  0.574346	-0.00138063	  0.576926	-0.00137339	  0.576926	  -34.3348	
  0.652441	-0.0013635	  0.654741	-0.00136681	   0.64922	-0.00137588	  0.652134	-0.00136873	  0.652134	  -34.2183	
  0.728097	-0.00135894	  0.729987	-0.00136203	  0.724372	-0.00137109	  0.727485	-0.00136402	  0.727485	  -34.1005	
  0.803728	-0.00135431	  0.805213	-0.0013572	  0.799529	-0.00136627	  0.802823	-0.00135926	  0.802823	  -33.9814	
  0.879239	-0.00134959	  0.880325	-0.00135233	  0.874597	-0.00136141	  0.878054	-0.00135444	  0.878054	  -33.8611	
   0.95486	-0.00134478	  0.955555	-0.00134743	  0.949645	-0.00135652	  0.953353	-0.00134958	  0.953353	  -33.7394	
   1.03033	-0.00133985	   1.03064	-0.00134252	   1.02458	-0.00135157	   1.02852	-0.00134464	   1.02852	  -33.6161	
   1.10557	-0.00133482	   1.10566	-0.00133758	    1.0998	-0.00134654	   1.10368	-0.00133965	   1.10368	  -33.4912	
   1.18081	-0.00132973	   1.18068	-0.00133258	   1.17502	-0.00134144	   1.17884	-0.00133458	   1.17884	  -33.3646	
   1.25597	-0.00132461	   1.25561	-0.00132752	      1.25	-0.00133625	   1.25386	-0.00132946	   1.25386	  -33.2365	
   1.33126	-0.00131949	   1.33051	-0.00132238	   1.32513	-0.00133099	   1.32897	-0.00132429	   1.32897	  -33.1072	
   1.40643	-0.00131438	   1.40531	-0.00131716	   1.40014	-0.00132569	   1.40396	-0.00131907	   1.40396	  -32.9769	
   1.48149	-0.00130927	      1.48	-0.00131187	   1.47505	-0.00132034	   1.47884	-0.00131382	   1.47884	  -32.8456	
   1.55656	-0.00130412	   1.55472	-0.00130653	   1.54999	-0.00131495	   1.55376	-0.00130853	   1.55376	  -32.7133	
   1.63141	-0.00129889	   1.62923	-0.00130116	   1.62471	-0.00130953	   1.62845	-0.00130319	   1.62845	  -32.5798	
   1.70626	-0.00129355	   1.70376	-0.00129577	   1.69945	-0.00130405	   1.70316	-0.00129779	   1.70316	  -32.4448	
   1.78103	-0.0012881	   1.77822	-0.00129034	   1.77412	-0.00129851	   1.77779	-0.00129231	   1.77779	  -32.3079	
   1.85548	-0.00128254	   1.85237	-0.00128484	   1.84863	-0.00129289	   1.85216	-0.00128676	   1.85216	   -32.169	
   1.92988	-0.00127693	   1.92648	-0.00127924	   1.92308	-0.00128721	   1.92648	-0.00128113	   1.92648	  -32.0282	
   2.00412	-0.0012713	   2.00045	-0.00127354	   1.99738	-0.00128145	   2.00065	-0.00127543	   2.00065	  -31.8857	
   2.07812	-0.00126566	   2.07449	-0.00126774	   2.07158	-0.00127563	   2.07473	-0.00126968	   2.07473	  -31.7419	
   2.15212	  -0.00126	   2.14853	-0.00126186	   2.14576	-0.00126977	   2.14881	-0.00126388	   2.14881	  -31.5969	
   2.22604	-0.0012543	   2.22231	-0.00125595	   2.21969	-0.00126387	   2.22268	-0.00125804	   2.22268	   -31.451	
   2.29993	-0.00124851	   2.29607	-0.00125006	    2.2936	-0.00125792	   2.29654	-0.00125216	   2.29654	  -31.3041	
   2.37373	-0.00124263	   2.36974	-0.00124419	    2.3674	-0.00125193	   2.37029	-0.00124625	   2.37029	  -31.1563	
   2.44766	-0.00123667	   2.44338	-0.00123836	   2.44087	-0.00124588	   2.44397	-0.0012403	   2.44397	  -31.0076	
   2.52161	-0.00123067	   2.51707	-0.00123251	   2.51424	-0.00123977	   2.51764	-0.00123432	   2.51764	  -30.8579	
   2.59567	-0.00122468	   2.59056	-0.0012266	   2.58745	-0.00123359	   2.59122	-0.00122829	   2.59122	  -30.7072	
   2.66988	-0.00121871	   2.66377	-0.00122058	   2.66073	-0.00122733	   2.66479	-0.00122221	   2.66479	  -30.5552	
   2.74399	-0.00121276	   2.73696	-0.0012144	   2.73399	 -0.001221	   2.73831	-0.00121605	   2.73831	  -30.4013	
   2.81775	-0.00120676	   2.80988	-0.00120805	    2.8073	-0.00121462	   2.81164	-0.00120981	   2.81164	  -30.2453	
   2.89111	-0.00120066	   2.88294	-0.00120156	   2.88056	-0.0012082	   2.88487	-0.00120347	   2.88487	  -30.0868	
    2.9637	-0.0011944	   2.95589	-0.00119502	   2.95371	-0.00120175	   2.95777	-0.00119705	   2.95777	  -29.9264	
   3.03566	-0.00118799	   3.02848	-0.00118847	   3.02649	-0.00119526	   3.03021	-0.00119057	   3.03021	  -29.7643	
    3.1071	-0.00118145	   3.10114	 -0.001182	   3.09933	-0.00118873	   3.10252	-0.00118406	   3.10252	  -29.6015	
   3.17808	-0.00117487	   3.17362	-0.00117558	   3.17198	-0.00118215	   3.17456	-0.00117753	   3.17456	  -29.4383	
   3.24909	-0.00116831	     3.246	-0.0011692	   3.24452	-0.0011755	   3.24654	 -0.001171	   3.24654	   -29.275	
   3.32022	-0.00116182	   3.31836	-0.00116277	   3.31704	-0.00116877	   3.31854	-0.00116445	   3.31854	  -29.1113	
   3.39151	-0.0011554	   3.39047	-0.00115624	   3.38929	-0.00116198	   3.39043	-0.00115787	   3.39043	  -28.9468	
   3.46305	-0.00114899	   3.46274	-0.00114955	   3.46154	-0.00115513	   3.46244	-0.00115123	   3.46244	  -28.7806	
   3.53457	-0.00114253	    3.5349	-0.00114272	   3.53368	-0.00114825	   3.53439	-0.0011445	   3.53439	  -28.6125	
   3.60608	-0.00113592	   3.60674	-0.00113577	   3.60575	-0.00114134	   3.60619	-0.00113768	   3.60619	   -28.442	
   3.67757	-0.00112914	   3.67865	-0.00112878	   3.67758	-0.00113441	   3.67793	-0.00113078	   3.67793	  -28.2695	
   3.74895	-0.00112221	    3.7504	-0.00112178	   3.74925	-0.00112745	   3.74953	-0.00112381	   3.74953	  -28.0954	
      3.82	-0.00111517	   3.82192	-0.00111483	   3.82069	-0.00112045	   3.82087	-0.00111682	   3.82087	  -27.9204	
   3.89097	-0.0011081	   3.89345	-0.00110789	     3.892	-0.00111338	   3.89214	-0.00110979	   3.89214	  -27.7448	
    3.9618	-0.00110108	   3.96476	-0.00110094	   3.96312	-0.00110624	   3.96323	-0.00110275	   3.96323	  -27.5688	
   4.03226	-0.00109411	   4.03588	-0.00109391	   4.03394	-0.00109904	   4.03403	-0.00109569	   4.03403	  -27.3921	
   4.10278	-0.00108719	   4.10697	-0.00108677	   4.10475	-0.00109177	   4.10483	-0.00108857	   4.10483	  -27.2144	
    4.1731	-0.00108025	   4.17778	-0.00107951	   4.17533	-0.00108446	    4.1754	-0.00108141	    4.1754	  -27.0351	
   4.24334	-0.00107322	   4.24827	-0.00107217	    4.2456	-0.00107711	   4.24574	-0.00107417	   4.24574	  -26.8542	
   4.31357	-0.00106606	    4.3187	-0.00106479	   4.31568	-0.00106974	   4.31599	-0.00106686	   4.31599	  -26.6715	
   4.38357	-0.00105873	   4.38884	-0.00105744	   4.38551	-0.00106234	   4.38597	-0.0010595	   4.38597	  -26.4876	
   4.45342	-0.00105127	   4.45878	-0.00105014	    4.4555	-0.00105491	    4.4559	-0.00105211	    4.4559	  -26.3026	
   4.52323	-0.00104373	   4.52863	-0.00104287	   4.52539	-0.00104742	   4.52575	-0.00104467	   4.52575	  -26.1168	
   4.59292	-0.00103618	   4.59816	-0.00103557	   4.59498	-0.00103987	   4.59535	-0.00103721	   4.59535	  -25.9301	
   4.66227	-0.00102866	   4.66733	-0.00102817	   4.66436	-0.00103225	   4.66465	-0.00102969	   4.66465	  -25.7424	
   4.73154	-0.0010212	   4.73639	-0.00102065	   4.73363	-0.00102456	   4.73386	-0.00102213	   4.73386	  -25.5533	
   4.80064	-0.00101375	   4.80526	-0.00101298	    4.8027	-0.0010168	   4.80287	-0.00101451	   4.80287	  -25.3628	
   4.86986	-0.00100627	   4.87407	-0.0010052	    4.8717	-0.00100902	   4.87187	-0.00100683	   4.87187	  -25.1707	
   4.93894	-0.000998692	   4.94275	-0.000997378	   4.94056	-0.0010012	   4.94075	-0.00099909	   4.94075	  -24.9773	
   5.00784	-0.000990984	   5.01139	-0.00098957	   5.00906	-0.000993366	   5.00943	-0.000991307	   5.00943	  -24.7827	
   5.07665	-0.000983149	   5.08008	-0.000981797	   5.07748	-0.000985506	   5.07807	-0.000983484	   5.07807	  -24.5871	
    5.1453	-0.000975222	   5.14844	-0.000974057	   5.14575	-0.000977605	    5.1465	-0.000975628	    5.1465	  -24.3907	
   5.21358	-0.000967258	   5.21655	-0.000966315	   5.21366	-0.000969649	   5.21459	-0.00096774	   5.21459	  -24.1935	
   5.28192	-0.000959301	   5.28469	-0.000958515	   5.28163	-0.000961625	   5.28275	-0.000959814	   5.28275	  -23.9953	
   5.35008	-0.000951365	   5.35264	-0.000950618	   5.34944	-0.000953533	   5.35072	-0.000951839	   5.35072	   -23.796	
   5.41786	-0.000943427	    5.4202	-0.000942602	   5.41686	-0.00094538	   5.41831	-0.000943803	   5.41831	  -23.5951	
   5.48552	-0.000935446	   5.48747	-0.000934489	   5.48419	-0.00093718	   5.48573	-0.000935705	   5.48573	  -23.3926	
   5.55302	-0.000927384	   5.55457	-0.000926313	   5.55135	-0.000928946	   5.55298	-0.000927547	   5.55298	  -23.1887	
   5.62013	-0.000919223	    5.6213	-0.000918118	   5.61814	-0.000920686	   5.61986	-0.000919342	   5.61986	  -22.9836	
   5.68714	-0.000910977	   5.68809	-0.000909923	   5.68453	-0.000912405	   5.68659	-0.000911102	   5.68659	  -22.7775	
   5.75399	-0.000902682	   5.75455	-0.000901737	   5.75079	-0.000904096	   5.75311	-0.000902838	   5.75311	   -22.571	
   5.82047	-0.000894378	   5.82065	-0.000893539	   5.81672	-0.000895746	   5.81928	-0.000894554	   5.81928	  -22.3639	
    5.8867	-0.000886092	   5.88619	-0.0008853	   5.88243	-0.000887346	   5.88511	-0.000886246	   5.88511	  -22.1561	
   5.95279	-0.000877825	   5.95164	-0.000876984	   5.94805	-0.000878886	   5.95083	-0.000877898	   5.95083	  -21.9475	
    6.0187	-0.00086955	   6.01678	-0.000868577	   6.01335	-0.000870368	   6.01628	-0.000869498	   6.01628	  -21.7375	
   6.08437	-0.000861221	   6.08173	-0.000860083	   6.07815	-0.000861802	   6.08142	-0.000861036	   6.08142	  -21.5259	
   6.14993	-0.000852801	    6.1466	-0.000851526	    6.1429	-0.000853201	   6.14648	-0.000852509	   6.14648	  -21.3127	
   6.21515	-0.000844265	   6.21119	-0.00084293	   6.20738	-0.000844575	   6.21124	-0.000843923	   6.21124	  -21.0981	
   6.28016	-0.000835617	   6.27546	-0.000834323	   6.27141	-0.000835933	   6.27568	-0.000835291	   6.27568	  -20.8823	
   6.34496	-0.000826886	   6.33944	-0.000825729	    6.3353	-0.000827271	    6.3399	-0.000826629	    6.3399	  -20.6657	
   6.40946	-0.000818124	   6.40319	-0.000817152	   6.39899	-0.00081858	   6.40388	-0.000817952	   6.40388	  -20.4488	
   6.47364	-0.000809376	   6.46651	-0.000808581	   6.46228	-0.000809844	   6.46748	-0.000809267	   6.46748	  -20.2317	
   6.53762	-0.000800672	   6.52971	-0.000799992	   6.52561	-0.000801055	   6.53098	-0.000800573	   6.53098	  -20.0143	
   6.60136	-0.00079201	   6.59274	-0.000791349	   6.58877	-0.000792214	   6.59429	-0.000791858	   6.59429	  -19.7964	
   6.66467	-0.000783352	   6.65541	-0.000782627	   6.65157	-0.000783365	   6.65722	-0.000783115	   6.65722	  -19.5779	
   6.72762	-0.000774649	    6.7179	-0.000773818	   6.71408	-0.000774502	   6.71987	-0.000774323	   6.71987	  -19.3581	
   6.79042	-0.000765841	   6.78028	-0.000764934	   6.77632	-0.000765617	   6.78234	-0.000765464	   6.78234	  -19.1366	
   6.85286	-0.000756901	   6.84235	-0.000756003	   6.83828	-0.000756668	    6.8445	-0.000756524	    6.8445	  -18.9131	
   6.91492	-0.000747836	   6.90409	-0.000747062	   6.89977	-0.000747632	   6.90626	-0.00074751	   6.90626	  -18.6877	
   6.97689	-0.000738697	   6.96578	-0.000738135	   6.96125	-0.000738485	   6.96797	-0.000738439	   6.96797	   -18.461	
   7.03858	-0.000729535	   7.02723	-0.000729226	   7.02252	-0.000729238	   7.02944	-0.000729333	   7.02944	  -18.2333	
    7.0998	-0.000720419	   7.08824	-0.000720315	   7.08338	-0.000719904	   7.09047	-0.000720213	   7.09047	  -18.0053	
   7.16055	-0.000711365	   7.14912	-0.000711358	    7.1443	-0.000710552	   7.15132	-0.000711092	   7.15132	  -17.7773	
   7.22113	-0.000702357	   7.20984	-0.000702325	   7.20507	-0.00070123	   7.21201	-0.000701971	   7.21201	  -17.5493	
   7.28135	-0.000693337	   7.27021	-0.000693191	   7.26549	-0.000691973	   7.27235	-0.000692834	   7.27235	  -17.3208	
   7.34105	-0.000684253	   7.33005	-0.000683972	   7.32541	-0.000682781	   7.33217	-0.000683668	   7.33217	  -17.0917	
   7.40052	-0.00067505	   7.38968	-0.0006747	   7.38496	-0.000673616	   7.39172	-0.000674455	   7.39172	  -16.8614	
   7.45977	-0.000665732	   7.44907	-0.000665424	    7.4443	-0.000664412	   7.45105	-0.000665189	   7.45105	  -16.6297	
   7.51875	-0.000656327	   7.50821	-0.00065617	   7.50325	-0.000655111	   7.51007	-0.000655869	   7.51007	  -16.3967	
    7.5773	-0.000646893	   7.56723	-0.000646943	   7.56164	-0.000645675	   7.56872	-0.000646504	   7.56872	  -16.1626	
   7.63573	-0.000637478	   7.62594	-0.000637713	   7.61979	-0.000636107	   7.62715	-0.000637099	   7.62715	  -15.9275	
   7.69385	-0.000628117	   7.68433	-0.000628445	   7.67768	-0.000626451	   7.68529	-0.000627671	   7.68529	  -15.6918	
    7.7515	-0.000618802	   7.74223	-0.000619095	   7.73515	-0.00061677	   7.74296	-0.000618222	   7.74296	  -15.4556	
   7.80898	-0.000609504	    7.7998	-0.00060965	   7.79235	-0.00060712	   7.80038	-0.000608758	   7.80038	  -15.2189	
   7.86629	-0.000600165	   7.85719	-0.000600121	   7.84943	-0.000597528	   7.85764	-0.000599271	   7.85764	  -14.9818	
   7.92323	-0.000590745	   7.91423	-0.000590544	    7.9062	-0.000587987	   7.91455	-0.000589759	   7.91455	   -14.744	
   7.97966	-0.000581221	   7.97075	-0.000580958	   7.96266	-0.00057846	   7.97102	-0.000580213	   7.97102	  -14.5053	
   8.03574	-0.000571609	   8.02707	-0.000571398	   8.01864	-0.000568897	   8.02715	-0.000570635	   8.02715	  -14.2659	
   8.09162	-0.000561938	   8.08319	-0.000561871	   8.07446	-0.000559253	   8.08309	-0.000561021	   8.08309	  -14.0255	
   8.14714	-0.000552261	   8.13892	-0.00055236	   8.12997	-0.000549506	   8.13868	-0.000551375	   8.13868	  -13.7844	
   8.20214	-0.000542612	   8.19413	-0.000542824	   8.18499	-0.000539669	   8.19375	-0.000541701	   8.19375	  -13.5425	
   8.25694	-0.000533007	   8.24913	-0.000533232	      8.24	-0.000529783	   8.24869	-0.000532008	   8.24869	  -13.3002	
   8.31155	-0.000523428	   8.30392	-0.000523557	   8.29468	-0.000519894	   8.30338	-0.000522293	   8.30338	  -13.0573	
   8.36579	-0.000513841	   8.35833	-0.000513803	   8.34902	-0.000510037	   8.35771	-0.00051256	   8.35771	   -12.814	
   8.41952	-0.000504199	   8.41222	-0.000503987	   8.40287	-0.000500232	   8.41153	-0.000502806	   8.41153	  -12.5702	
   8.47306	-0.000494475	    8.4659	-0.000494139	   8.45624	-0.000490461	   8.46507	-0.000493025	   8.46507	  -12.3256	
   8.52641	-0.000484661	   8.51939	-0.000484294	   8.50947	-0.000480684	   8.51843	-0.000483213	   8.51843	  -12.0803	
   8.57941	-0.000474785	   8.57252	-0.000474465	    8.5624	-0.000470858	   8.57144	-0.000473369	   8.57144	  -11.8342	
   8.63191	-0.00046488	   8.62514	-0.000464659	   8.61486	-0.00046095	   8.62397	-0.000463496	   8.62397	  -11.5874	
   8.68393	-0.000454986	   8.67728	-0.000454857	   8.66689	-0.000450955	   8.67603	-0.0004536	   8.67603	    -11.34	
   8.73582	-0.000445122	   8.72926	-0.000445031	   8.71868	-0.0004409	   8.72792	-0.000443684	   8.72792	  -11.0921	
    8.7874	-0.000435286	   8.78093	-0.000435154	   8.77021	-0.000430824	   8.77951	-0.000433755	   8.77951	  -10.8439	
   8.83852	-0.000425453	   8.83214	-0.00042522	   8.82133	-0.000420768	   8.83066	-0.000423814	   8.83066	  -10.5953	
   8.88923	-0.000415591	   8.88292	-0.00041523	    8.8719	-0.000410756	   8.88135	-0.000413859	   8.88135	  -10.3465	
   8.93968	-0.000405672	   8.93344	-0.000405193	   8.92211	-0.000400781	   8.93174	-0.000403882	   8.93174	  -10.0971	
   8.98989	-0.000395685	   8.98371	-0.000395131	   8.97213	-0.000390812	   8.98191	-0.000393876	   8.98191	   -9.8469	
   9.03972	-0.000385638	   9.03359	-0.000385051	   9.02183	-0.000380814	   9.03171	-0.000383834	   9.03171	  -9.59586	
   9.08902	-0.000375559	   9.08295	-0.000374965	   9.07104	-0.000370755	   9.08101	-0.000373759	   9.08101	  -9.34398	
   9.13816	-0.000365478	   9.13181	-0.000364874	   9.11982	-0.000360623	   9.12993	-0.000363658	   9.12993	  -9.09146	
   9.18697	-0.000355416	   9.18037	-0.000354777	   9.16835	-0.000350436	   9.17856	-0.000353543	   9.17856	  -8.83858	
   9.23548	-0.000345378	   9.22866	-0.000344663	   9.21663	-0.000340225	   9.22692	-0.000343422	   9.22692	  -8.58555	
   9.28355	-0.000335353	   9.27652	-0.000334528	   9.26454	-0.000330022	   9.27487	-0.000333301	   9.27487	  -8.33253	
   9.33106	-0.000325315	   9.32399	-0.000324361	   9.31194	-0.00031985	   9.32233	-0.000323176	   9.32233	  -8.07939	
   9.37837	-0.000315237	   9.37111	-0.000314151	   9.35871	-0.000309708	    9.3694	-0.000313032	    9.3694	  -7.82581	
   9.42533	-0.000305105	   9.41806	-0.00030391	   9.40523	-0.000299577	   9.41621	-0.000302864	   9.41621	   -7.5716	
   9.47197	-0.00029492	    9.4647	-0.000293643	   9.45151	-0.000289426	   9.46273	-0.000292663	   9.46273	  -7.31658	
   9.51817	-0.000284699	   9.51089	-0.000283375	   9.49742	-0.000279228	   9.50883	-0.000282434	   9.50883	  -7.06085	
   9.56381	-0.000274469	   9.55652	-0.000273114	   9.54296	-0.000268969	   9.55443	-0.000272184	   9.55443	   -6.8046	
   9.60909	-0.000264256	    9.6018	-0.000262874	   9.58789	-0.000258659	   9.59959	-0.00026193	   9.59959	  -6.54824	
    9.6542	-0.000254066	   9.64692	-0.000252638	   9.63257	-0.00024832	   9.64456	-0.000251674	   9.64456	  -6.29186	
   9.69901	-0.000243893	   9.69173	-0.000242387	   9.67704	-0.00023798	   9.68926	-0.00024142	   9.68926	  -6.03551	
    9.7434	-0.000233715	   9.73612	-0.000232094	   9.72115	-0.000227665	   9.73356	-0.000231158	   9.73356	  -5.77895	
   9.78724	-0.000223508	   9.77997	-0.000221742	   9.76481	-0.000217378	   9.77734	-0.000220876	   9.77734	   -5.5219	
   9.83069	-0.000213253	   9.82343	-0.000211334	   9.80801	-0.000207108	   9.82071	-0.000210565	   9.82071	  -5.26413	
   9.87386	-0.000202948	   9.86661	-0.000200892	     9.851	-0.000196831	   9.86382	-0.000200224	   9.86382	  -5.00559	
   9.91678	-0.000192607	   9.90938	-0.000190445	   9.89381	-0.000186524	   9.90666	-0.000189859	   9.90666	  -4.74647	
   9.95933	-0.000182253	    9.9518	-0.000180022	   9.93631	-0.000176171	   9.94915	-0.000179482	   9.94915	  -4.48705	
   10.0014	-0.000171908	   9.99375	-0.000169637	   9.97839	-0.000165773	   9.99118	-0.000169106	   9.99118	  -4.22765	
   10.0429	-0.000161585	   10.0351	-0.000159284	   10.0199	-0.00015534	   10.0326	-0.000158737	   10.0326	  -3.96842	
    10.084	-0.000151283	   10.0762	-0.00014894	    10.061	-0.000144895	   10.0737	-0.000148372	   10.0737	  -3.70931	
    10.125	-0.00014098	   10.1167	-0.000138573	   10.1015	-0.000134459	   10.1144	-0.000138004	   10.1144	   -3.4501	
   10.1657	-0.000130658	   10.1571	-0.000128159	   10.1417	-0.000124042	   10.1548	-0.00012762	   10.1548	  -3.19049	
    10.206	-0.000120295	    10.197	-0.000117694	   10.1816	-0.000113641	   10.1949	-0.00011721	   10.1949	  -2.93024	
   10.2458	-0.000109884	   10.2366	-0.000107191	   10.2211	-0.000103246	   10.2345	-0.000106774	   10.2345	  -2.66934	
    10.285	-9.94416e-05	   10.2755	-9.66754e-05	   10.2601	-9.28386e-05	   10.2735	-9.63185e-05	   10.2735	  -2.40796	
   10.3239	-8.8993e-05	   10.3139	-8.61816e-05	   10.2984	-8.24054e-05	   10.3121	-8.586e-05	   10.3121	   -2.1465	
   10.3625	-7.85682e-05	    10.352	-7.57255e-05	   10.3366	-7.19417e-05	   10.3504	-7.54118e-05	   10.3504	   -1.8853	
   10.4006	-6.8184e-05	   10.3895	-6.53123e-05	   10.3745	-6.14508e-05	   10.3882	-6.49824e-05	   10.3882	  -1.62456	
   10.4385	-5.78327e-05	   10.4268	-5.49245e-05	   10.4122	-5.09435e-05	   10.4258	-5.45669e-05	   10.4258	  -1.36417	
   10.4757	-4.7493e-05	   10.4638	-4.45241e-05	   10.4495	-4.0435e-05	    10.463	-4.41507e-05	    10.463	  -1.10377	
   10.5124	-3.71267e-05	   10.5002	-3.40712e-05	   10.4863	-2.99348e-05	   10.4996	-3.37109e-05	   10.4996	 -0.842773	
   10.5487	-2.6711e-05	   10.5361	-2.35432e-05	   10.5226	-1.94464e-05	   10.5358	-2.32335e-05	   10.5358	 -0.580838	
   10.5843	-1.62372e-05	   10.5716	-1.29423e-05	   10.5583	-8.9662e-06	   10.5714	-1.27152e-05	   10.5714	 -0.317881	
   10.6196	-5.73028e-06	   10.6066	-2.30785e-06	   10.5937	1.5137e-06	   10.6067	-2.17481e-06	   10.6067	-0.0543703	
   10.6545	4.78109e-06	   10.6415	8.30329e-06	   10.6287	1.20079e-05	   10.6415	8.3641e-06	   10.6415	  0.209102	
    10.689	1.52583e-05	   10.6761	1.88397e-05	   10.6635	2.25243e-05	   10.6762	1.88741e-05	   10.6762	  0.471853	
   10.7231	2.56841e-05	   10.7103	2.92708e-05	   10.6979	3.30645e-05	   10.7104	2.93398e-05	   10.7104	  0.733495	
   10.7568	3.60562e-05	   10.7441	3.96064e-05	   10.7319	4.36202e-05	   10.7443	3.97609e-05	   10.7443	  0.994023	
     10.79	4.64067e-05	   10.7774	4.98982e-05	   10.7654	5.41724e-05	   10.7776	5.01591e-05	   10.7776	   1.25398	
   10.8225	5.67596e-05	     10.81	6.0211e-05	   10.7983	6.47053e-05	   10.8103	6.05586e-05	   10.8103	   1.51397	
   10.8549	6.71567e-05	   10.8422	7.06074e-05	   10.8308	7.5208e-05	   10.8426	7.09907e-05	   10.8426	   1.77477	
   10.8867	7.76023e-05	   10.8738	8.11076e-05	   10.8625	8.5681e-05	   10.8744	8.14636e-05	   10.8744	   2.03659	
   10.9184	8.80896e-05	   10.9051	9.16907e-05	   10.8941	9.61385e-05	   10.9059	9.19729e-05	   10.9059	   2.29932	
   10.9495	9.85867e-05	   10.9362	0.000102299	   10.9255	0.000106603	   10.9371	0.000102496	   10.9371	   2.56241	
   10.9799	0.000109058	   10.9669	0.000112864	   10.9567	0.000117088	   10.9678	0.000113004	   10.9678	   2.82509	
   11.0099	0.000119471	   10.9973	0.000123334	   10.9874	0.000127601	   10.9982	0.000123469	   10.9982	   3.08673	
   11.0395	0.000129817	   11.0272	0.000133697	   11.0176	0.000138134	   11.0281	0.000133883	   11.0281	   3.34707	
   11.0686	0.000140105	   11.0565	0.000143983	   11.0474	0.000148666	   11.0575	0.000144251	   11.0575	   3.60628	
   11.0972	0.000150372	   11.0853	0.000154245	   11.0765	0.000159174	   11.0864	0.000154597	   11.0864	   3.86492	
   11.1257	0.000160655	   11.1135	0.000164552	   11.1052	0.000169647	   11.1148	0.000164951	   11.1148	   4.12378	
   11.1541	0.000171011	    11.141	0.000174938	   11.1334	0.000180083	   11.1429	0.000175344	   11.1429	    4.3836	
   11.1824	0.000181451	   11.1681	0.000185402	    11.161	0.000190494	   11.1705	0.000185782	   11.1705	   4.64456	
   11.2099	0.00019196	    11.195	0.000195908	   11.1883	 0.0002009	   11.1977	0.000196256	   11.1977	    4.9064	
   11.2371	0.000202488	   11.2213	0.000206402	   11.2152	0.000211318	   11.2246	0.000206736	   11.2246	    5.1684	
   11.2635	0.000212975	   11.2474	0.000216832	   11.2419	0.000221755	    11.251	0.000217187	    11.251	   5.42968	
   11.2893	0.000223361	   11.2732	0.000227181	   11.2682	0.000232208	   11.2769	0.000227583	   11.2769	   5.68958	
   11.3147	0.000233622	   11.2987	0.000237461	   11.2941	0.000242656	   11.3025	0.000237913	   11.3025	   5.94783	
   11.3394	0.000243792	   11.3236	 0.0002477	   11.3196	0.00025308	   11.3276	0.000248191	   11.3276	   6.20477	
   11.3644	0.000253918	   11.3482	0.000257934	   11.3445	0.000263461	   11.3524	0.000258438	   11.3524	   6.46094	
   11.3885	0.000264073	   11.3721	0.000268187	   11.3689	0.000273795	   11.3765	0.000268685	   11.3765	   6.71713	
   11.4127	0.000274316	   11.3956	0.00027847	   11.3928	0.00028409	   11.4003	0.000278959	   11.4003	   6.97396	
   11.4363	0.000284658	   11.4184	0.000288776	    11.416	0.000294354	   11.4236	0.000289262	   11.4236	   7.23156	
   11.4591	0.00029506	   11.4408	0.00029908	   11.4385	0.000304583	   11.4461	0.000299574	   11.4461	   7.48935	
   11.4816	0.000305455	   11.4626	0.000309348	   11.4607	0.000314793	   11.4683	0.000309865	   11.4683	   7.74663	
   11.5033	0.000315767	   11.4841	0.000319556	   11.4824	0.000325002	   11.4899	0.000320108	   11.4899	    8.0027	
   11.5248	0.000325951	   11.5053	0.000329696	   11.5037	0.00033522	   11.5113	0.000330289	   11.5113	   8.25722	
   11.5455	0.00033601	   11.5261	0.000339776	   11.5245	0.000345455	    11.532	0.000340413	    11.532	   8.51034	
   11.5662	0.000345987	   11.5466	0.000349835	   11.5445	0.000355709	   11.5525	0.00035051	   11.5525	   8.76276	
   11.5862	0.000355956	   11.5668	0.000359903	   11.5644	0.000365962	   11.5725	0.000360607	   11.5725	   9.01518	
   11.6056	0.000365982	   11.5866	0.000370003	   11.5838	0.000376199	    11.592	0.000370728	    11.592	   9.26819	
   11.6246	0.000376094	   11.6062	0.000380137	   11.6029	0.00038639	   11.6112	0.000380874	   11.6112	   9.52184	
   11.6429	0.000386282	   11.6254	0.000390286	   11.6215	0.000396514	   11.6299	0.000391027	   11.6299	   9.77569	
   11.6609	0.000396494	   11.6442	0.000400424	   11.6398	0.000406567	   11.6483	0.000401162	   11.6483	    10.029	
   11.6783	0.000406657	   11.6626	0.000410511	   11.6577	0.000416555	   11.6662	0.000411241	   11.6662	    10.281	
   11.6954	0.000416714	   11.6806	0.000420528	   11.6753	0.000426504	   11.6837	0.000421249	   11.6837	   10.5312	
    11.712	0.000426644	   11.6981	0.000430469	   11.6924	0.000436444	   11.7008	0.000431186	   11.7008	   10.7796	
   11.7282	0.000436467	   11.7151	0.000440346	   11.7091	0.000446398	   11.7174	0.00044107	   11.7174	   11.0268	
   11.7439	0.000446237	   11.7316	0.000450193	   11.7253	0.000456374	   11.7336	0.000450935	   11.7336	   11.2734	
   11.7591	0.000456019	   11.7476	0.000460038	   11.7411	0.000466363	   11.7493	0.000460807	   11.7493	   11.5202	
   11.7739	0.000465855	    11.763	0.000469905	   11.7563	0.000476342	   11.7644	0.000470701	   11.7644	   11.7675	
   11.7881	0.000475755	   11.7779	0.000479781	   11.7711	0.000486286	   11.7791	0.000480607	   11.7791	   12.0152	
   11.8019	0.00048569	   11.7923	0.000489655	   11.7854	0.000496176	   11.7932	0.000490507	   11.7932	   12.2627	
   11.8152	0.000495611	   11.8061	0.000499496	   11.7991	  0.000506	   11.8068	0.000500369	   11.8068	   12.5092	
   11.8279	0.00050546	   11.8194	0.000509288	   11.8123	0.00051577	   11.8199	0.000510173	   11.8199	   12.7543	
   11.8401	0.000515208	   11.8321	0.000519018	    11.825	0.000525496	   11.8324	0.000519908	   11.8324	   12.9977	
   11.8519	0.000524847	   11.8443	0.000528694	   11.8372	0.000535203	   11.8444	0.000529582	   11.8444	   13.2395	
   11.8631	0.00053441	   11.8559	0.000538325	   11.8489	0.000544903	    11.856	0.000539213	    11.856	   13.4803	
   11.8738	0.000543941	    11.867	0.000547935	     11.86	0.000554604	   11.8669	0.000548827	   11.8669	   13.7207	
    11.884	0.000553488	   11.8776	0.000557532	   11.8706	0.000564297	   11.8774	0.000558439	   11.8774	    13.961	
   11.8937	0.000563076	   11.8876	0.000567124	   11.8808	0.000573966	   11.8874	0.000568056	   11.8874	   14.2014	
    11.903	0.000572698	   11.8972	0.000576705	   11.8904	0.000583591	   11.8969	0.000577665	   11.8969	   14.4416	
   11.9117	0.000582319	   11.9062	0.000586264	   11.8996	0.000593158	   11.9058	0.000587247	   11.9058	   14.6812	
     11.92	0.000591894	   11.9148	0.000595781	   11.9082	0.000602667	   11.9143	0.000596781	   11.9143	   14.9195	
   11.9279	0.000601386	   11.9228	0.000605247	   11.9164	0.000612123	   11.9224	0.000606252	   11.9224	   15.1563	
   11.9353	0.000610784	   11.9304	0.000614655	   11.9242	0.000621547	   11.9299	0.000615662	   11.9299	   15.3915	
   11.9422	0.000620099	   11.9376	0.000624005	   11.9315	0.000630953	   11.9371	0.000625019	   11.9371	   15.6255	
   11.9488	0.000629364	   11.9443	0.000633312	   11.9383	0.000640354	   11.9438	0.000634343	   11.9438	   15.8586	
   11.9549	0.000638607	   11.9505	0.00064259	   11.9448	0.000649753	   11.9501	0.00064365	   11.9501	   16.0913	
   11.9606	0.000647854	   11.9564	0.000651851	   11.9508	0.000659138	   11.9559	0.000652948	   11.9559	   16.3237	
   11.9659	0.000657111	   11.9618	0.000661104	   11.9564	0.000668492	   11.9614	0.000662236	   11.9614	   16.5559	
   11.9708	0.000666364	   11.9669	0.000670346	   11.9617	0.000677799	   11.9665	0.000671503	   11.9665	   16.7876	
   11.9753	0.000675595	   11.9716	0.000679564	   11.9666	0.000687042	   11.9712	0.000680733	   11.9712	   17.0183	
   11.9795	0.000684781	   11.9758	0.000688742	   11.9711	0.000696223	   11.9755	0.000689915	   11.9755	   17.2479	
   11.9834	0.000693905	   11.9795	0.000697866	   11.9751	0.000705357	   11.9793	0.000699043	   11.9793	   17.4761	
   11.9869	0.000702956	   11.9829	0.00070693	   11.9788	0.000714455	   11.9829	0.000708114	   11.9829	   17.7028	
   11.9902	0.00071195	   11.9859	0.000715937	   11.9821	0.000723535	   11.9861	0.000717141	   11.9861	   17.9285	
    11.993	0.000720882	   11.9886	0.000724902	    11.985	0.000732604	   11.9889	0.000726129	   11.9889	   18.1532	
   11.9956	0.000729781	   11.9909	0.000733836	   11.9873	0.00074166	   11.9913	0.000735092	   11.9913	   18.3773	
   11.9977	0.000738662	   11.9927	0.000742751	    11.989	0.000750688	   11.9931	0.000744034	   11.9931	   18.6008	
   11.9992	0.000747543	    11.994	0.000751647	   11.9902	0.000759679	   11.9944	0.000752956	   11.9944	   18.8239	
   12.0002	0.000756411	   11.9946	0.000760517	   11.9905	0.000768616	   11.9951	0.000761848	   11.9951	   19.0462	
   12.0005	0.00076526	   11.9948	0.000769348	   11.9903	0.000777502	   11.9952	0.000770703	   11.9952	   19.2676	
   12.0002	0.000774054	   11.9943	0.00077813	   11.9895	0.000786357	   11.9946	0.000779514	   11.9946	   19.4878	
   11.9993	0.000782781	   11.9931	0.000786861	    11.988	0.00079518	   11.9935	0.000788274	   11.9935	   19.7069	
   11.9978	0.000791431	   11.9914	0.000795551	    11.986	0.000803963	   11.9917	0.000796981	   11.9917	   19.9245	
   11.9957	0.000800016	   11.9891	0.000804214	   11.9836	0.000812691	   11.9895	0.00080564	   11.9895	    20.141	
   11.9932	0.000808551	   11.9864	0.000812865	   11.9807	0.000821346	   11.9867	0.000814254	   11.9867	   20.3564	
   11.9902	0.000817061	   11.9832	0.000821508	   11.9774	0.000829934	   11.9836	0.000822834	   11.9836	   20.5709	
   11.9868	0.000825552	   11.9797	0.000830122	   11.9737	0.000838467	   11.9801	0.00083138	   11.9801	   20.7845	
   11.9831	0.000834022	   11.9758	0.000838679	   11.9698	0.000846969	   11.9762	0.00083989	   11.9762	   20.9973	
    11.979	0.000842455	   11.9716	0.000847142	   11.9654	0.000855465	    11.972	0.000848354	    11.972	   21.2088	
   11.9744	0.000850837	   11.9672	0.000855485	   11.9606	0.000863967	   11.9674	0.000856763	   11.9674	   21.4191	
   11.9694	0.000859149	   11.9625	0.000863706	   11.9553	0.000872472	   11.9624	0.000865109	   11.9624	   21.6277	
    11.964	0.000867394	   11.9577	0.000871841	   11.9492	0.000880944	   11.9569	0.000873393	   11.9569	   21.8348	
   11.9581	0.000875576	   11.9525	0.000879944	   11.9425	0.000889368	    11.951	0.000881629	    11.951	   22.0407	
   11.9517	0.00088371	   11.9467	0.000888082	   11.9352	0.00089772	   11.9445	0.000889838	   11.9445	   22.2459	
   11.9447	0.000891811	   11.9402	0.000896297	   11.9274	0.000906011	   11.9374	0.00089804	   11.9374	    22.451	
   11.9371	0.00089989	   11.9324	0.000904586	   11.9191	0.000914255	   11.9295	0.000906244	   11.9295	   22.6561	
   11.9291	0.000907948	   11.9237	0.000912905	   11.9105	0.00092248	   11.9211	0.000914444	   11.9211	   22.8611	
   11.9206	0.000915982	   11.9142	0.000921177	   11.9015	0.000930701	   11.9121	0.00092262	   11.9121	   23.0655	
   11.9118	0.000923979	   11.9042	0.000929329	   11.8923	0.000938917	   11.9028	0.000930742	   11.9028	   23.2685	
   11.9028	0.000931929	   11.8939	0.000937318	   11.8828	0.000947097	   11.8932	0.000938781	   11.8932	   23.4695	
   11.8933	0.000939821	   11.8834	0.000945146	   11.8731	0.000955207	   11.8833	0.000946725	   11.8833	   23.6681	
   11.8832	0.000947658	   11.8728	0.000952866	   11.8627	0.000963235	   11.8729	0.000954586	   11.8729	   23.8647	
   11.8725	0.000955445	    11.862	0.000960551	   11.8518	0.000971182	   11.8621	0.000962393	   11.8621	   24.0598	
   11.8611	0.000963196	   11.8511	0.000968274	   11.8402	0.000979056	   11.8508	0.000970175	   11.8508	   24.2544	
   11.8492	0.000970919	   11.8396	0.000976067	   11.8282	0.000986893	    11.839	0.00097796	    11.839	    24.449	
   11.8369	0.000978621	   11.8277	0.000983912	   11.8158	0.000994716	   11.8268	0.00098575	   11.8268	   24.6437	
   11.8242	0.000986305	   11.8153	0.000991753	    11.803	0.00100253	   11.8142	0.000993529	   11.8142	   24.8382	
   11.8112	0.00099396	   11.8023	0.000999522	     11.79	0.00101033	   11.8012	0.00100127	   11.8012	   25.0318	
   11.7978	0.00100157	   11.7885	0.00100716	   11.7767	0.00101811	   11.7876	0.00100895	   11.7876	   25.2237	
   11.7839	0.00100914	   11.7743	0.00101465	   11.7627	0.00102582	   11.7736	0.00101654	   11.7736	   25.4134	
   11.7694	0.00101665	   11.7595	0.00102202	   11.7482	0.00103345	    11.759	0.00102404	    11.759	   25.6011	
   11.7544	 0.0010241	    11.744	0.00102933	    11.733	0.00104101	   11.7438	0.00103148	   11.7438	   25.7871	
   11.7388	0.00103151	   11.7282	0.00103663	   11.7174	0.00104851	   11.7281	0.00103888	   11.7281	   25.9721	
   11.7229	0.00103887	   11.7119	0.00104398	   11.7015	0.00105594	   11.7121	0.00104626	   11.7121	   26.1566	
   11.7066	 0.0010462	   11.6953	0.00105138	   11.6851	0.00106334	   11.6957	0.00105364	   11.6957	    26.341	
   11.6901	 0.0010535	   11.6784	 0.0010588	   11.6682	0.00107071	   11.6789	  0.001061	   11.6789	   26.5251	
    11.673	0.00106077	   11.6611	0.00106618	   11.6508	0.00107806	   11.6616	0.00106833	   11.6616	   26.7084	
   11.6556	  0.001068	    11.643	0.00107346	   11.6327	0.00108537	   11.6438	0.00107561	   11.6438	   26.8903	
   11.6377	0.00107519	   11.6245	 0.0010806	   11.6141	0.00109263	   11.6254	0.00108281	   11.6254	   27.0702	
   11.6193	0.00108232	   11.6054	0.00108761	   11.5951	0.00109982	   11.6066	0.00108992	   11.6066	    27.248	
   11.6005	0.00108939	   11.5859	0.00109451	   11.5758	0.00110694	   11.5874	0.00109695	   11.5874	   27.4237	
   11.5811	0.00109639	    11.566	0.00110137	   11.5563	0.00111398	   11.5678	0.00110392	   11.5678	   27.5979	
   11.5615	0.00110334	   11.5459	0.00110824	   11.5362	0.00112097	   11.5479	0.00111085	   11.5479	   27.7713	
   11.5412	0.00111025	   11.5252	0.00111514	   11.5158	 0.0011279	   11.5274	0.00111777	   11.5274	   27.9441	
   11.5204	0.00111712	    11.504	0.00112207	   11.4948	0.00113481	   11.5064	0.00112467	   11.5064	   28.1167	
    11.499	0.00112397	   11.4823	0.00112899	   11.4733	0.00114169	   11.4849	0.00113155	   11.4849	   28.2887	
   11.4773	0.00113078	   11.4603	0.00113584	   11.4516	0.00114854	    11.463	0.00113838	    11.463	   28.4596	
   11.4552	0.00113754	    11.438	0.00114258	   11.4296	0.00115535	   11.4409	0.00114515	   11.4409	   28.6288	
   11.4326	0.00114424	   11.4152	0.00114918	    11.407	0.00116209	   11.4183	0.00115184	   11.4183	    28.796	
   11.4095	0.00115087	   11.3916	0.00115568	   11.3839	0.00116877	    11.395	0.00115844	    11.395	   28.9609	
   11.3859	0.00115743	   11.3676	 0.0011621	   11.3603	0.00117536	   11.3713	0.00116496	   11.3713	    29.124	
   11.3619	0.00116392	   11.3432	 0.0011685	   11.3363	0.00118187	   11.3471	0.00117143	   11.3471	   29.2858	
   11.3373	0.00117037	   11.3183	0.00117492	    11.312	0.00118833	   11.3225	0.00117787	   11.3225	   29.4468	
   11.3126	0.00117678	    11.293	0.00118135	    11.287	0.00119474	   11.2975	0.00118429	   11.2975	   29.6073	
   11.2872	0.00118316	   11.2672	0.00118777	   11.2614	0.00120112	   11.2719	0.00119069	   11.2719	   29.7671	
   11.2613	0.00118952	   11.2408	0.00119414	   11.2352	0.00120747	   11.2458	0.00119704	   11.2458	    29.926	
   11.2351	0.00119583	    11.214	 0.0012004	   11.2087	0.00121379	   11.2193	0.00120334	   11.2193	   30.0835	
   11.2081	0.00120208	    11.187	0.00120653	   11.1818	0.00122009	   11.1923	0.00120957	   11.1923	   30.2392	
   11.1811	0.00120827	   11.1596	0.00121254	   11.1546	0.00122634	   11.1651	0.00121572	   11.1651	   30.3929	
   11.1533	0.00121439	   11.1317	0.00121846	   11.1269	0.00123254	   11.1373	 0.0012218	   11.1373	   30.5449	
   11.1252	0.00122044	   11.1032	0.00122433	   11.0987	0.00123867	    11.109	0.00122781	    11.109	   30.6953	
   11.0969	0.00122643	   11.0743	0.00123021	     11.07	0.00124468	   11.0804	0.00123377	   11.0804	   30.8443	
   11.0679	0.00123232	   11.0452	0.00123613	   11.0411	0.00125057	   11.0514	0.00123967	   11.0514	   30.9918	
   11.0391	0.00123815	   11.0158	0.00124209	    11.012	0.00125633	   11.0223	0.00124552	   11.0223	   31.1381	
   11.0091	0.00124394	   10.9858	0.00124806	   10.9829	0.00126201	   10.9926	0.00125134	   10.9926	   31.2835	
   10.9791	0.00124973	   10.9555	0.00125399	   10.9535	0.00126767	   10.9627	0.00125713	   10.9627	   31.4282	
   10.9484	0.00125554	   10.9248	 0.0012598	   10.9238	0.00127335	   10.9323	 0.0012629	   10.9323	   31.5725	
   10.9174	0.00126139	   10.8939	0.00126546	   10.8938	 0.0012791	   10.9017	0.00126865	   10.9017	   31.7163	
    10.886	0.00126724	   10.8625	0.00127096	    10.863	0.00128491	   10.8705	0.00127437	   10.8705	   31.8593	
   10.8539	0.00127307	   10.8309	0.00127633	   10.8311	0.00129072	   10.8386	0.00128004	   10.8386	    32.001	
   10.8217	0.00127879	   10.7987	0.00128162	   10.7981	0.00129646	   10.8062	0.00128562	   10.8062	   32.1406	
   10.7887	0.00128437	   10.7663	 0.0012869	   10.7643	0.00130206	   10.7731	0.00129111	   10.7731	   32.2777	
   10.7555	0.00128977	   10.7336	0.00129223	   10.7298	0.00130747	   10.7396	0.00129649	   10.7396	   32.4122	
   10.7217	0.00129502	   10.7003	0.00129761	    10.695	0.00131269	   10.7056	0.00130177	   10.7056	   32.5444	
   10.6875	0.00130016	   10.6665	0.00130304	   10.6597	0.00131778	   10.6712	0.00130699	   10.6712	   32.6748	
   10.6532	0.00130532	   10.6323	0.00130843	   10.6243	0.00132282	   10.6366	0.00131219	   10.6366	   32.8048	
   10.6181	0.00131054	   10.5978	0.00131373	   10.5888	0.00132789	   10.6016	0.00131739	   10.6016	   32.9347	
   10.5829	0.00131584	   10.5631	 0.0013189	   10.5532	0.00133302	   10.5664	0.00132259	   10.5664	   33.0647	
   10.5473	0.00132116	   10.5277	 0.0013239	   10.5172	0.00133822	   10.5307	0.00132776	   10.5307	    33.194	
   10.5112	0.00132641	    10.492	0.00132878	   10.4809	0.00134343	   10.4947	0.00133287	   10.4947	   33.3218	
    10.475	0.00133147	   10.4558	 0.0013336	    10.444	0.00134856	   10.4583	0.00133788	   10.4583	   33.4469	
   10.4391	0.00133631	   10.4191	0.00133842	   10.4065	0.00135357	   10.4216	0.00134277	   10.4216	   33.5692	
   10.4028	0.00134095	   10.3819	0.00134328	   10.3685	 0.0013584	   10.3844	0.00134754	   10.3844	   33.6886	
   10.3666	0.00134547	   10.3442	0.00134819	   10.3302	0.00136309	    10.347	0.00135225	    10.347	   33.8062	
   10.3296	0.00135001	   10.3063	0.00135309	   10.2918	0.00136768	   10.3092	0.00135693	   10.3092	   33.9232	
   10.2917	0.00135466	   10.2679	0.00135794	   10.2529	0.00137225	   10.2708	0.00136162	   10.2708	   34.0404	
   10.2532	0.00135949	   10.2289	0.00136266	   10.2136	0.00137684	   10.2319	0.00136633	   10.2319	   34.1582	
   10.2133	0.00136444	   10.1895	0.00136723	   10.1739	0.00138148	   10.1922	0.00137105	   10.1922	   34.2762	
   10.1725	0.00136942	   10.1499	0.00137166	   10.1338	0.00138614	   10.1521	0.00137574	   10.1521	   34.3934	
    10.131	0.00137428	   10.1097	0.00137599	   10.0933	0.00139077	   10.1114	0.00138035	   10.1114	   34.5087	
   10.0893	0.00137894	    10.069	 0.0013803	   10.0524	0.00139531	   10.0703	0.00138485	   10.0703	   34.6212	
   10.0472	0.00138333	    10.028	0.00138464	   10.0113	 0.0013997	   10.0288	0.00138922	   10.0288	   34.7305	
    10.005	0.00138749	   9.98677	0.00138903	   9.96982	0.00140394	    9.9872	0.00139349	    9.9872	   34.8371	
   9.96263	0.00139152	   9.94504	0.00139345	   9.92779	0.00140807	   9.94515	0.00139768	   9.94515	    34.942	
   9.92012	0.00139555	   9.90283	0.00139785	   9.88536	0.00141213	   9.90277	0.00140184	   9.90277	    35.046	
   9.87745	0.00139966	   9.86031	0.00140214	    9.8427	0.00141618	   9.86015	  0.001406	   9.86015	   35.1499	
   9.83415	 0.0014039	   9.81735	0.00140628	   9.79982	0.00142027	   9.81711	0.00141015	   9.81711	   35.2537	
   9.79064	0.00140822	   9.77381	0.00141025	   9.75641	0.00142438	   9.77362	0.00141428	   9.77362	   35.3571	
    9.7467	0.00141254	   9.72987	0.00141406	   9.71266	0.00142849	   9.72975	0.00141837	   9.72975	   35.4591	
   9.70236	0.00141674	   9.68573	 0.0014178	   9.66858	0.00143255	   9.68556	0.00142237	   9.68556	   35.5591	
   9.65764	0.00142076	   9.64122	0.00142153	   9.62435	0.00143651	   9.64107	0.00142627	   9.64107	   35.6567	
   9.61241	0.00142457	   9.59622	0.00142532	   9.57965	0.00144035	   9.59609	0.00143008	   9.59609	    35.752	
   9.56686	 0.0014282	   9.55091	0.00142919	   9.53467	0.00144406	   9.55081	0.00143381	   9.55081	   35.8454	
   9.52116	0.00143174	   9.50531	 0.0014331	   9.48928	0.00144767	   9.50525	0.00143751	   9.50525	   35.9376	
   9.47502	0.00143529	   9.45929	0.00143699	   9.44335	0.00145125	   9.45922	0.00144117	   9.45922	   36.0293	
   9.42847	 0.0014389	   9.41287	0.00144077	   9.39706	0.00145482	    9.4128	0.00144483	    9.4128	   36.1207	
   9.38169	0.00144258	   9.36625	 0.0014444	   9.35046	 0.0014584	   9.36613	0.00144846	   9.36613	   36.2115	
   9.33439	 0.0014463	   9.31928	0.00144786	   9.30355	  0.001462	   9.31907	0.00145206	   9.31907	   36.3014	
   9.28674	0.00144996	   9.27183	0.00145119	   9.25622	0.00146559	   9.27159	0.00145558	   9.27159	   36.3895	
   9.23879	 0.0014535	   9.22411	0.00145445	   9.20848	0.00146911	   9.22379	0.00145902	   9.22379	   36.4755	
   9.19027	0.00145686	   9.17596	0.00145771	   9.16055	0.00147252	   9.17559	0.00146236	   9.17559	   36.5591	
   9.14122	0.00146006	   9.12729	0.00146101	   9.11211	0.00147579	   9.12688	0.00146562	   9.12688	   36.6405	
   9.09185	0.00146314	   9.07829	0.00146438	   9.06339	0.00147893	   9.07784	0.00146882	   9.07784	   36.7204	
   9.04219	0.00146617	   9.02916	0.00146775	   9.01439	0.00148199	   9.02858	0.00147197	   9.02858	   36.7993	
   8.99197	0.00146922	   8.97944	0.00147108	   8.96496	0.00148503	   8.97879	0.00147511	   8.97879	   36.8777	
   8.94139	0.00147232	   8.92934	0.00147429	   8.91519	 0.0014881	   8.92864	0.00147824	   8.92864	   36.9559	
    8.8905	0.00147547	    8.8789	0.00147734	   8.86525	0.00149121	   8.87822	0.00148134	   8.87822	   37.0335	
   8.83949	0.00147865	   8.82786	0.00148024	   8.81472	0.00149432	   8.82735	 0.0014844	   8.82735	     37.11	
   8.78807	0.00148178	   8.77643	0.00148302	   8.76379	0.00149738	    8.7761	0.00148739	    8.7761	   37.1848	
   8.73645	0.00148481	   8.72465	0.00148576	   8.71268	0.00150033	   8.72459	 0.0014903	   8.72459	   37.2575	
   8.68456	0.00148771	   8.67264	0.00148852	   8.66119	0.00150315	    8.6728	0.00149312	    8.6728	   37.3281	
   8.63222	0.00149048	   8.62021	0.00149131	   8.60928	0.00150583	   8.62057	0.00149587	   8.62057	   37.3968	
   8.57965	0.00149315	   8.56757	0.00149413	   8.55715	0.00150843	   8.56812	0.00149857	   8.56812	   37.4643	
   8.52657	0.00149576	   8.51459	0.00149695	   8.50468	0.00151099	   8.51528	0.00150123	   8.51528	   37.5308	
   8.47303	0.00149834	   8.46117	0.00149969	   8.45176	0.00151357	   8.46198	0.00150386	   8.46198	   37.5966	
   8.41925	0.00150091	   8.40739	 0.0015023	   8.39859	0.00151622	   8.40841	0.00150648	   8.40841	   37.6619	
   8.36497	0.00150348	   8.35328	0.00150477	   8.34492	0.00151892	   8.35439	0.00150906	   8.35439	   37.7264	
   8.31024	0.00150604	   8.29889	 0.0015071	    8.2908	0.00152161	   8.29998	0.00151158	   8.29998	   37.7895	
   8.25529	0.00150855	   8.24426	0.00150934	   8.23644	 0.0015242	   8.24533	0.00151403	   8.24533	   37.8508	
   8.20001	0.00151099	   8.18928	0.00151157	    8.1819	0.00152662	   8.19039	0.00151639	   8.19039	   37.9098	
   8.14444	0.00151335	   8.13385	0.00151383	   8.12768	0.00152882	   8.13532	0.00151867	   8.13532	   37.9666	
   8.08864	0.00151563	   8.07819	0.00151613	    8.0739	0.00153082	   8.08024	0.00152086	   8.08024	   38.0215	
   8.03235	0.00151784	   8.02204	0.00151843	   8.01949	 0.0015327	   8.02463	0.00152299	   8.02463	   38.0747	
   7.97563	   0.00152	   7.96547	0.00152069	   7.96561	0.00153454	    7.9689	0.00152508	    7.9689	   38.1269	
   7.91871	0.00152214	   7.90869	0.00152285	   7.91053	0.00153644	   7.91265	0.00152714	   7.91265	   38.1786	
   7.86148	0.00152425	   7.85129	0.00152487	     7.855	0.00153845	   7.85592	0.00152919	   7.85592	   38.2298	
   7.80384	0.00152633	   7.79398	0.00152676	   7.79923	0.00154057	   7.79902	0.00153122	   7.79902	   38.2805	
   7.74603	0.00152836	   7.73622	0.00152856	   7.74199	0.00154272	   7.74141	0.00153321	   7.74141	   38.3304	
   7.68808	0.00153032	   7.67834	0.00153031	   7.68409	0.00154482	    7.6835	0.00153515	    7.6835	   38.3787	
   7.62973	 0.0015322	   7.62006	0.00153206	   7.62516	0.00154676	   7.62498	0.00153701	   7.62498	   38.4252	
   7.57121	  0.001534	   7.56161	0.00153384	   7.56625	 0.0015485	   7.56636	0.00153878	   7.56636	   38.4695	
   7.51226	0.00153574	   7.50305	0.00153564	   7.50709	0.00155004	   7.50747	0.00154047	   7.50747	   38.5119	
   7.45295	0.00153744	   7.44411	0.00153742	   7.44759	0.00155145	   7.44822	 0.0015421	   7.44822	   38.5526	
   7.39352	0.00153911	   7.38502	0.00153913	   7.38797	0.00155283	   7.38883	0.00154369	   7.38883	   38.5923	
   7.33385	0.00154077	   7.32535	0.00154072	   7.32828	0.00155425	   7.32916	0.00154525	   7.32916	   38.6312	
   7.27384	0.00154239	   7.26537	 0.0015422	   7.26857	0.00155575	   7.26926	0.00154678	   7.26926	   38.6695	
   7.21374	0.00154396	   7.20512	0.00154356	   7.20826	 0.0015573	   7.20904	0.00154827	   7.20904	   38.7068	
   7.15358	0.00154546	   7.14437	0.00154485	    7.1479	0.00155884	   7.14862	0.00154972	   7.14862	   38.7429	
    7.0931	0.00154689	   7.08348	0.00154611	   7.08724	0.00156028	   7.08794	0.00155109	   7.08794	   38.7773	
   7.03253	0.00154823	   7.02223	0.00154738	   7.02634	0.00156157	   7.02703	0.00155239	   7.02703	   38.8098	
   6.97145	 0.0015495	   6.96085	0.00154865	   6.96527	 0.0015627	   6.96586	0.00155362	   6.96586	   38.8405	
   6.91011	0.00155072	   6.89925	0.00154993	   6.90362	 0.0015637	   6.90433	0.00155478	   6.90433	   38.8696	
   6.84857	 0.0015519	   6.83748	0.00155116	   6.84196	0.00156464	   6.84267	 0.0015559	   6.84267	   38.8975	
   6.78659	0.00155304	   6.77562	0.00155232	   6.78002	0.00156559	   6.78074	0.00155698	   6.78074	   38.9245	
   6.72441	0.00155414	   6.71343	0.00155336	   6.71787	0.00156657	   6.71857	0.00155803	   6.71857	   38.9506	
   6.66163	0.00155519	   6.65113	 0.0015543	   6.65543	0.00156758	   6.65606	0.00155902	   6.65606	   38.9756	
    6.5985	0.00155618	   6.58845	0.00155515	   6.59262	0.00156857	   6.59319	0.00155996	   6.59319	   38.9991	
   6.53526	0.00155709	   6.52548	0.00155593	   6.52966	0.00156948	   6.53014	0.00156084	   6.53014	   39.0209	
   6.47151	0.00155794	   6.46214	 0.0015567	   6.46648	0.00157028	   6.46671	0.00156164	   6.46671	    39.041	
   6.40749	0.00155872	   6.39851	0.00155745	   6.40298	0.00157095	     6.403	0.00156238	     6.403	   39.0594	
   6.34332	0.00155946	   6.33471	0.00155821	   6.33916	0.00157152	   6.33906	0.00156307	   6.33906	   39.0767	
   6.27888	0.00156017	   6.27045	0.00155894	   6.27487	0.00157205	   6.27473	0.00156372	   6.27473	    39.093	
   6.21425	0.00156084	     6.206	0.00155963	   6.21037	0.00157256	    6.2102	0.00156434	    6.2102	   39.1086	
   6.14965	0.00156145	   6.14126	0.00156023	   6.14557	0.00157311	   6.14549	0.00156493	   6.14549	   39.1233	
   6.08469	  0.001562	   6.07616	0.00156073	   6.08041	0.00157366	   6.08042	0.00156547	   6.08042	   39.1367	
   6.01959	0.00156248	   6.01096	0.00156113	   6.01512	0.00157419	   6.01522	0.00156593	   6.01522	   39.1483	
    5.9541	 0.0015629	   5.94549	0.00156142	   5.94945	0.00157463	   5.94968	0.00156632	   5.94968	   39.1579	
   5.88832	0.00156327	   5.87975	0.00156166	    5.8835	0.00157494	   5.88386	0.00156662	   5.88386	   39.1656	
    5.8222	 0.0015636	   5.81398	0.00156187	   5.81721	0.00157513	   5.81779	0.00156687	   5.81779	   39.1716	
   5.75582	0.00156391	   5.74777	0.00156209	   5.75067	 0.0015752	   5.75142	0.00156707	   5.75142	   39.1767	
   5.68926	0.00156419	   5.68138	0.00156234	   5.68397	0.00157522	   5.68487	0.00156725	   5.68487	   39.1813	
   5.62252	0.00156443	   5.61454	 0.0015626	   5.61709	0.00157522	   5.61805	0.00156742	   5.61805	   39.1854	
   5.55546	0.00156459	   5.54738	0.00156282	   5.54988	0.00157524	   5.55091	0.00156755	   5.55091	   39.1888	
   5.48832	0.00156465	   5.48001	0.00156295	   5.48261	0.00157525	   5.48365	0.00156762	   5.48365	   39.1904	
   5.42117	0.00156462	    5.4125	0.00156294	   5.41519	0.00157521	   5.41629	0.00156759	   5.41629	   39.1898	
   5.35378	0.00156449	   5.34494	0.00156278	   5.34754	0.00157509	   5.34875	0.00156745	   5.34875	   39.1864	
   5.28638	 0.0015643	    5.2774	0.00156252	    5.2799	0.00157488	   5.28123	0.00156723	   5.28123	   39.1808	
    5.2187	0.00156406	   5.20997	0.00156221	   5.21188	0.00157457	   5.21352	0.00156694	   5.21352	   39.1736	
   5.15087	 0.0015638	   5.14205	 0.0015619	   5.14373	0.00157418	   5.14555	0.00156663	   5.14555	   39.1657	
    5.0828	0.00156354	   5.07407	0.00156162	   5.07537	0.00157376	   5.07741	0.00156631	   5.07741	   39.1577	
   5.01443	0.00156325	   5.00595	0.00156137	   5.00674	0.00157333	   5.00904	0.00156599	   5.00904	   39.1497	
   4.94601	0.00156292	    4.9376	0.00156108	   4.93792	 0.0015729	   4.94051	0.00156563	   4.94051	   39.1408	
   4.87747	0.00156254	   4.86897	0.00156071	   4.86886	0.00157244	   4.87176	0.00156523	   4.87176	   39.1307	
   4.80871	0.00156208	   4.80027	0.00156019	   4.79963	0.00157192	   4.80287	0.00156473	   4.80287	   39.1182	
   4.73984	0.00156155	   4.73145	0.00155953	   4.73018	 0.0015713	   4.73382	0.00156413	   4.73382	   39.1032	
   4.67062	0.00156094	   4.66229	0.00155876	   4.66044	0.00157057	   4.66445	0.00156342	   4.66445	   39.0856	
   4.60132	0.00156028	   4.59351	0.00155793	   4.59067	0.00156973	   4.59517	0.00156265	   4.59517	   39.0662	
   4.53154	0.00155956	   4.52374	0.00155706	   4.52047	0.00156882	   4.52525	0.00156181	   4.52525	   39.0454	
   4.46155	0.00155878	    4.4544	0.00155621	   4.45012	0.00156786	   4.45536	0.00156095	   4.45536	   39.0237	
   4.39136	0.00155794	   4.38442	0.00155533	    4.3796	0.00156687	   4.38513	0.00156005	   4.38513	   39.0012	
   4.32084	0.00155703	   4.31472	0.00155441	   4.30895	0.00156588	   4.31484	0.00155911	   4.31484	   38.9777	
   4.25008	0.00155606	   4.24441	0.00155341	   4.23826	0.00156486	   4.24425	0.00155811	   4.24425	   38.9527	
   4.17919	0.00155503	   4.17409	 0.0015523	   4.16713	0.00156379	   4.17347	0.00155704	   4.17347	    38.926	
   4.10811	0.00155396	   4.10383	 0.0015511	   4.09585	0.00156265	    4.1026	0.00155591	    4.1026	   38.8976	
   4.03696	0.00155288	   4.03342	0.00154983	   4.02452	0.00156144	   4.03163	0.00155472	   4.03163	   38.8679	
   3.96547	0.00155177	   3.96293	0.00154852	   3.95291	0.00156017	   3.96044	0.00155349	   3.96044	   38.8372	
   3.89393	0.00155063	   3.89213	0.00154721	   3.88126	0.00155886	    3.8891	0.00155223	    3.8891	   38.8058	
   3.82225	0.00154944	   3.82127	0.00154587	   3.80951	0.00155755	   3.81767	0.00155095	   3.81767	   38.7738	
   3.75038	0.00154818	   3.75028	0.00154451	   3.73758	0.00155621	   3.74608	0.00154963	   3.74608	   38.7408	
   3.67856	0.00154682	   3.67926	0.00154308	   3.66558	0.00155484	   3.67447	0.00154824	   3.67447	   38.7061	
   3.60654	0.00154536	   3.60819	0.00154156	   3.59328	0.00155337	   3.60267	0.00154676	   3.60267	    38.669	
   3.53444	0.00154382	   3.53693	0.00153992	   3.52095	0.00155176	   3.53077	0.00154517	   3.53077	   38.6292	
   3.46203	0.00154223	   3.46528	0.00153819	   3.44851	0.00155002	   3.45861	0.00154348	   3.45861	    38.587	
   3.38943	0.00154061	   3.39334	0.00153637	   3.37591	0.00154817	   3.38623	0.00154172	   3.38623	   38.5429	
    3.3169	0.00153896	   3.32137	 0.0015345	   3.30339	0.00154628	   3.31389	0.00153991	   3.31389	   38.4978	
   3.24404	0.00153729	   3.24915	0.00153262	   3.23057	0.00154438	   3.24125	0.00153809	   3.24125	   38.4524	
   3.17113	0.00153556	   3.17679	0.00153073	   3.15771	0.00154251	   3.16854	0.00153627	   3.16854	   38.4067	
   3.09778	0.00153376	    3.1039	0.00152884	   3.08475	0.00154066	   3.09548	0.00153442	   3.09548	   38.3605	
   3.02428	0.00153187	   3.03078	0.00152693	   3.01178	0.00153879	   3.02228	0.00153253	   3.02228	   38.3132	
   2.95087	0.00152988	   2.95769	0.00152499	   2.93872	0.00153684	    2.9491	0.00153057	    2.9491	   38.2642	
   2.87718	0.00152779	   2.88423	0.00152298	   2.86568	0.00153476	    2.8757	0.00152851	    2.8757	   38.2128	
   2.80347	0.00152563	    2.8107	0.00152089	   2.79243	0.00153255	    2.8022	0.00152636	    2.8022	   38.1589	
   2.72961	0.00152342	   2.73694	 0.0015187	   2.71924	0.00153022	    2.7286	0.00152411	    2.7286	   38.1029	
    2.6556	 0.0015212	   2.66299	 0.0015164	   2.64588	0.00152784	   2.65482	0.00152181	   2.65482	   38.0453	
   2.58155	0.00151898	   2.58895	  0.001514	   2.57258	0.00152546	   2.58103	0.00151948	   2.58103	    37.987	
   2.50756	0.00151675	    2.5146	0.00151153	   2.49898	0.00152313	   2.50704	0.00151714	   2.50704	   37.9284	
   2.43355	 0.0015145	   2.44022	0.00150902	   2.42532	0.00152082	   2.43303	0.00151478	   2.43303	   37.8695	
    2.3596	 0.0015122	   2.36589	0.00150649	   2.35172	0.00151851	   2.35907	 0.0015124	   2.35907	     37.81	
   2.28551	0.00150982	   2.29139	0.00150397	   2.27794	0.00151613	   2.28495	0.00150997	   2.28495	   37.7493	
   2.21151	0.00150733	   2.21683	0.00150145	   2.20423	0.00151363	   2.21086	0.00150747	   2.21086	   37.6868	
   2.13739	0.00150473	   2.14199	 0.0014989	   2.13037	  0.001511	   2.13658	0.00150487	   2.13658	   37.6219	
   2.06323	0.00150202	   2.06714	0.00149628	   2.05646	0.00150825	   2.06228	0.00150218	   2.06228	   37.5546	
   1.98898	0.00149925	   1.99222	0.00149356	   1.98228	0.00150542	   1.98783	0.00149941	   1.98783	   37.4852	
   1.91458	0.00149643	   1.91716	0.00149073	   1.90795	0.00150259	   1.91323	0.00149658	   1.91323	   37.4146	
   1.84013	 0.0014936	   1.84193	0.00148782	   1.83324	0.00149977	   1.83843	0.00149373	   1.83843	   37.3432	
   1.76541	0.00149074	   1.76646	0.00148484	   1.75829	0.00149697	   1.76339	0.00149085	   1.76339	   37.2713	
    1.6907	0.00148785	   1.69103	0.00148184	   1.68337	0.00149416	   1.68837	0.00148795	   1.68837	   37.1987	
   1.61624	0.00148487	   1.61574	0.00147885	   1.60856	0.00149129	   1.61351	  0.001485	   1.61351	   37.1251	
   1.54164	0.00148182	   1.54035	0.00147585	   1.53379	0.00148832	   1.53859	  0.001482	   1.53859	     37.05	
   1.46702	0.00147869	   1.46512	0.00147284	   1.45941	0.00148522	   1.46385	0.00147892	   1.46385	   36.9729	
   1.39246	0.00147552	   1.38982	0.00146977	   1.38475	0.00148201	   1.38901	0.00147577	   1.38901	   36.8941	
   1.31789	0.00147234	   1.31455	 0.0014666	   1.31008	0.00147872	   1.31417	0.00147255	   1.31417	   36.8138	
   1.24354	0.00146917	   1.23924	0.00146333	   1.23519	0.00147539	   1.23932	0.00146929	   1.23932	   36.7324	
   1.16902	0.00146597	   1.16384	0.00145995	   1.16049	0.00147203	   1.16445	0.00146598	   1.16445	   36.6496	
   1.09445	0.00146268	    1.0886	 0.0014565	    1.0856	0.00146867	   1.08955	0.00146262	   1.08955	   36.5654	
   1.01984	0.00145923	   1.01325	  0.001453	   1.01083	0.00146529	   1.01464	0.00145917	   1.01464	   36.4793	
  0.944894	0.00145564	  0.937785	0.00144948	  0.936064	0.00146186	  0.939581	0.00145566	  0.939581	   36.3915	
  0.869882	0.00145193	   0.86214	0.00144595	   0.86091	0.00145835	  0.864311	0.00145208	  0.864311	   36.3019	
  0.794749	0.00144819	  0.786428	 0.0014424	  0.786436	0.00145475	  0.789204	0.00144844	  0.789204	   36.2111	
  0.719442	0.00144446	   0.71075	0.00143881	  0.711112	0.00145104	  0.713768	0.00144477	  0.713768	   36.1192	
  0.643597	0.00144078	  0.634885	0.00143515	  0.636355	0.00144726	  0.638279	0.00144106	  0.638279	   36.0266	
  0.567825	0.00143708	  0.559101	0.00143141	  0.561081	0.00144344	  0.562669	0.00143731	  0.562669	   35.9327	
  0.491902	0.00143334	  0.483331	0.00142757	  0.486401	0.00143959	  0.487211	 0.0014335	  0.487211	   35.8375	
  0.416095	0.00142946	  0.407511	0.00142365	  0.411414	0.00143571	  0.411673	0.00142961	  0.411673	   35.7402	
  0.340801	0.00142544	  0.331897	0.00141966	  0.336397	0.00143181	  0.336365	0.00142564	  0.336365	   35.6409	
  0.265288	0.00142129	  0.256097	0.00141563	  0.261601	0.00142783	  0.260995	0.00142159	  0.260995	   35.5396	
  0.190203	0.00141708	  0.180379	0.00141158	  0.186661	0.00142374	  0.185748	0.00141747	  0.185748	   35.4367	
  0.114915	0.00141286	  0.104675	0.00140751	  0.111808	0.00141952	  0.110466	 0.0014133	  0.110466	   35.3325	
 0.0395329	0.00140867	 0.0289243	0.00140341	 0.0368137	0.00141518	 0.0350903	0.00140909	 0.0350903	   35.2271	
-0.0361518	0.00140446	-0.0466176	0.00139926	-0.0380599	0.00141075	-0.0402764	0.00140482	-0.0402764	   35.1205	
 -0.111707	0.00140018	 -0.122028	0.00139503	 -0.112886	0.00140628	  -0.11554	 0.0014005	  -0.11554	   35.0125	
 -0.186422	0.00139577	 -0.197383	0.00139071	 -0.187734	0.00140183	 -0.190513	0.00139611	 -0.190513	   34.9026	
 -0.261652	0.00139121	 -0.272559	 0.0013863	 -0.262478	0.00139742	 -0.265563	0.00139164	 -0.265563	   34.7911	
 -0.336039	0.00138651	 -0.347825	0.00138181	 -0.337379	0.00139302	 -0.340414	0.00138711	 -0.340414	   34.6778	
 -0.411286	0.00138175	 -0.422921	0.00137725	 -0.412334	0.00138859	 -0.415514	0.00138253	 -0.415514	   34.5633	
 -0.486444	0.00137696	  -0.49824	0.00137267	 -0.487557	0.00138407	 -0.490747	 0.0013779	 -0.490747	   34.4475	
 -0.561271	0.00137219	 -0.573512	0.00136807	 -0.562778	0.00137941	 -0.565854	0.00137322	 -0.565854	   34.3306	
 -0.637269	0.00136742	 -0.648647	0.00136346	 -0.637902	0.00137459	 -0.641273	0.00136849	 -0.641273	   34.2123	
 -0.712677	0.00136262	 -0.723875	0.00135884	 -0.713029	0.00136962	 -0.716527	 0.0013637	 -0.716527	   34.0924	
  -0.78886	0.00135774	 -0.799093	0.00135418	 -0.788035	0.00136457	 -0.791996	0.00135883	 -0.791996	   33.9708	
 -0.863621	0.00135277	 -0.874209	0.00134945	 -0.863149	0.00135949	 -0.866993	 0.0013539	 -0.866993	   33.8475	
 -0.939178	0.00134772	 -0.949296	 0.0013446	 -0.938271	0.00135444	 -0.942248	0.00134892	 -0.942248	   33.7231	
  -1.01474	0.00134263	  -1.02426	0.00133965	  -1.01331	0.00134945	  -1.01744	0.00134391	  -1.01744	   33.5977	
  -1.09007	0.00133753	  -1.09934	 0.0013346	  -1.08848	 0.0013445	  -1.09263	0.00133888	  -1.09263	   33.4719	
  -1.16573	0.00133244	  -1.17439	 0.0013295	  -1.16354	0.00133952	  -1.16789	0.00133382	  -1.16789	   33.3455	
  -1.24111	0.00132736	  -1.24936	0.00132438	  -1.23855	0.00133446	  -1.24301	0.00132873	  -1.24301	   33.2183	
  -1.31692	0.00132224	  -1.32432	0.00131926	  -1.31358	0.00132925	  -1.31827	0.00132358	  -1.31827	   33.0895	
   -1.3924	0.00131703	  -1.39917	 0.0013141	  -1.38838	0.00132387	  -1.39332	0.00131833	  -1.39332	   32.9583	
   -1.4678	 0.0013117	  -1.47415	0.00130887	  -1.46319	0.00131833	  -1.46838	0.00131297	  -1.46838	   32.8242	
  -1.54328	0.00130626	  -1.54899	0.00130357	  -1.53792	0.00131269	  -1.54339	 0.0013075	  -1.54339	   32.6876	
  -1.61848	 0.0013007	  -1.62393	0.00129817	  -1.61263	0.00130703	  -1.61834	0.00130197	  -1.61834	   32.5492	
  -1.69397	0.00129508	  -1.69886	0.00129273	  -1.68739	0.00130141	  -1.69341	0.00129641	  -1.69341	   32.4102	
  -1.76915	0.00128945	  -1.77354	0.00128727	  -1.76195	0.00129585	  -1.76821	0.00129086	  -1.76821	   32.2714	
  -1.84427	0.00128383	  -1.84821	0.00128185	  -1.83655	0.00129032	  -1.84301	0.00128533	  -1.84301	   32.1333	
  -1.91925	0.00127823	  -1.92277	0.00127646	  -1.91109	0.00128479	  -1.91771	0.00127982	  -1.91771	   31.9956	
  -1.99409	0.00127262	  -1.99725	 0.0012711	  -1.98546	0.00127916	  -1.99227	0.00127429	  -1.99227	   31.8573	
  -2.06893	0.00126699	  -2.07146	0.00126568	  -2.05992	 0.0012734	  -2.06677	0.00126869	  -2.06677	   31.7173	
  -2.14353	0.00126129	  -2.14564	0.00126016	  -2.13422	0.00126748	  -2.14113	0.00126298	  -2.14113	   31.5744	
  -2.21828	0.00125548	  -2.22002	0.00125446	  -2.20844	0.00126146	  -2.21558	0.00125713	  -2.21558	   31.4283	
  -2.29292	0.00124955	  -2.29372	0.00124859	  -2.28265	0.00125538	  -2.28976	0.00125117	  -2.28976	   31.2793	
  -2.36737	0.00124353	  -2.36779	0.00124257	  -2.35675	0.00124929	  -2.36397	0.00124513	  -2.36397	   31.1283	
  -2.44186	0.00123745	  -2.44158	 0.0012365	  -2.43086	0.00124323	   -2.4381	0.00123906	   -2.4381	   30.9764	
  -2.51615	0.00123134	  -2.51555	0.00123042	  -2.50486	0.00123717	  -2.51219	0.00123298	  -2.51219	   30.8244	
  -2.59047	0.00122524	  -2.58977	 0.0012244	  -2.57866	0.00123109	   -2.5863	0.00122691	   -2.5863	   30.6728	
  -2.66473	0.00121917	  -2.66318	0.00121846	   -2.6525	0.00122492	  -2.66014	0.00122085	  -2.66014	   30.5213	
  -2.73869	0.00121309	  -2.73716	0.00121257	  -2.72614	0.00121863	    -2.734	0.00121476	    -2.734	   30.3691	
   -2.8126	0.00120695	  -2.81033	0.00120666	  -2.79998	 0.0012122	  -2.80764	 0.0012086	  -2.80764	   30.2151	
  -2.88637	0.00120071	  -2.88371	0.00120068	  -2.87375	0.00120566	  -2.88127	0.00120235	  -2.88127	   30.0587	
  -2.96023	0.00119433	  -2.95677	0.00119457	  -2.94752	0.00119903	  -2.95484	0.00119598	  -2.95484	   29.8994	
  -3.03379	0.00118782	  -3.02946	0.00118833	  -3.02121	0.00119238	  -3.02815	0.00118951	  -3.02815	   29.7377	
  -3.10712	0.00118125	   -3.1025	0.00118196	  -3.09473	0.00118574	  -3.10145	0.00118298	  -3.10145	   29.5745	
  -3.18016	0.00117466	  -3.17485	0.00117551	  -3.16801	0.00117916	  -3.17434	0.00117644	  -3.17434	    29.411	
  -3.25317	 0.0011681	  -3.24751	0.00116903	  -3.24117	0.00117262	  -3.24728	0.00116992	  -3.24728	   29.2479	
  -3.32589	0.00116158	  -3.31948	0.00116256	  -3.31442	 0.0011661	  -3.31993	0.00116342	  -3.31993	   29.0854	
  -3.39812	0.00115504	  -3.39169	0.00115613	  -3.38781	0.00115954	  -3.39254	 0.0011569	  -3.39254	   28.9226	
  -3.47028	0.00114845	  -3.46388	 0.0011497	  -3.46172	0.00115286	  -3.46529	0.00115034	  -3.46529	   28.7584	
  -3.54213	0.00114172	   -3.5358	0.00114324	  -3.53524	0.00114602	  -3.53772	0.00114366	  -3.53772	   28.5915	
  -3.61394	0.00113486	  -3.60802	0.00113671	  -3.60861	  0.001139	  -3.61019	0.00113686	  -3.61019	   28.4214	
  -3.68561	0.00112786	  -3.67975	0.00113005	  -3.68139	0.00113183	  -3.68225	0.00112992	  -3.68225	   28.2479	
  -3.75709	0.00112081	  -3.75178	0.00112327	  -3.75376	0.00112457	  -3.75421	0.00112289	  -3.75421	   28.0721	
  -3.82862	0.00111376	  -3.82339	 0.0011164	  -3.82614	0.00111732	  -3.82605	0.00111583	  -3.82605	   27.8956	
  -3.89995	0.00110677	    -3.895	0.00110946	  -3.89767	0.00111012	  -3.89754	0.00110878	  -3.89754	   27.7196	
  -3.97134	0.00109984	  -3.96667	 0.0011025	  -3.96926	  0.001103	  -3.96909	0.00110178	  -3.96909	   27.5445	
  -4.04238	0.00109295	  -4.03786	0.00109554	  -4.04067	0.00109591	   -4.0403	 0.0010948	   -4.0403	     27.37	
  -4.11318	0.00108602	   -4.1092	 0.0010886	  -4.11209	0.00108878	  -4.11149	 0.0010878	  -4.11149	    27.195	
  -4.18384	0.00107899	  -4.18009	0.00108163	  -4.18257	0.00108152	  -4.18216	0.00108071	  -4.18216	   27.0178	
  -4.25445	0.00107182	   -4.2511	0.00107461	  -4.25271	0.00107409	  -4.25275	0.00107351	  -4.25275	   26.8376	
  -4.32477	0.00106451	  -4.32182	0.00106749	   -4.3228	 0.0010665	  -4.32313	0.00106616	  -4.32313	   26.6541	
  -4.39508	0.00105708	  -4.39221	0.00106026	  -4.39197	0.00105881	  -4.39309	0.00105872	  -4.39309	   26.4679	
  -4.46512	0.00104961	  -4.46253	0.00105293	  -4.46211	0.00105113	  -4.46325	0.00105122	  -4.46325	   26.2805	
  -4.53486	0.00104214	  -4.53254	0.00104552	  -4.53121	0.00104349	  -4.53287	0.00104372	  -4.53287	   26.0929	
  -4.60455	 0.0010347	  -4.60251	0.00103807	  -4.60144	0.00103594	  -4.60284	0.00103624	  -4.60284	    25.906	
  -4.67412	 0.0010273	  -4.67237	0.00103062	  -4.67092	0.00102842	  -4.67247	0.00102878	  -4.67247	   25.7195	
   -4.7435	0.00101989	   -4.7419	0.00102317	  -4.74025	0.00102088	  -4.74188	0.00102132	  -4.74188	   25.5329	
  -4.81263	0.00101242	   -4.8115	0.00101571	  -4.80953	0.00101325	  -4.81122	0.00101379	  -4.81122	   25.3448	
  -4.88163	0.00100485	  -4.88083	0.00100821	  -4.87781	0.00100547	  -4.88009	0.00100618	  -4.88009	   25.1544	
  -4.95027	0.000997144	  -4.95011	0.00100065	  -4.94677	0.000997541	  -4.94905	0.000998445	  -4.94905	   24.9611	
  -5.01882	0.000989321	  -5.01911	0.000992994	   -5.0147	0.000989501	  -5.01754	0.000990606	  -5.01754	   24.7651	
  -5.08721	0.000981417	  -5.08795	0.000985242	  -5.08304	0.000981414	  -5.08607	0.000982691	  -5.08607	   24.5673	
  -5.15524	0.000973487	   -5.1564	0.000977407	   -5.1509	0.00097333	  -5.15418	0.000974741	  -5.15418	   24.3685	
  -5.22318	0.000965567	  -5.22428	0.00096952	  -5.21871	0.00096529	  -5.22205	0.000966792	  -5.22205	   24.1698	
  -5.29096	0.000957667	  -5.29189	0.000961615	  -5.28641	0.00095728	  -5.28975	0.000958854	  -5.28975	   23.9714	
  -5.35837	0.000949773	  -5.35917	0.00095371	  -5.35347	0.000949284	    -5.357	0.000950922	    -5.357	   23.7731	
  -5.42569	0.000941842	  -5.42623	0.000945805	  -5.42066	0.000941238	   -5.4242	0.000942962	   -5.4242	    23.574	
  -5.49286	0.000933826	  -5.49318	0.000937878	  -5.48729	0.000933104	  -5.49111	0.000934936	  -5.49111	   23.3734	
  -5.55966	0.000925696	   -5.5598	0.000929907	  -5.55394	0.000924841	   -5.5578	0.000926815	   -5.5578	   23.1704	
  -5.62621	0.000917454	  -5.62653	0.000921859	   -5.6204	0.000916457	  -5.62438	0.00091859	  -5.62438	   22.9648	
  -5.69264	0.000909126	  -5.69314	0.000913724	  -5.68653	0.000907971	  -5.69077	0.000910274	  -5.69077	   22.7568	
  -5.75872	0.000900755	  -5.75956	0.000905509	   -5.7527	0.000899455	  -5.75699	0.000901906	  -5.75699	   22.5477	
  -5.82474	0.000892381	   -5.8256	0.000897237	  -5.81852	0.000890973	  -5.82295	0.00089353	  -5.82295	   22.3383	
  -5.89063	0.000884023	  -5.89154	0.00088894	  -5.88428	0.000882581	  -5.88882	0.000885181	  -5.88882	   22.1295	
   -5.9562	0.000875674	  -5.95715	0.000880641	  -5.94977	0.000874276	  -5.95437	0.000876864	  -5.95437	   21.9216	
   -6.0214	0.000867304	  -6.02242	0.000872345	  -6.01494	0.000866012	  -6.01959	0.000868554	  -6.01959	   21.7138	
  -6.08651	0.000858889	  -6.08762	0.000864034	  -6.08008	0.000857684	  -6.08474	0.000860202	  -6.08474	   21.5051	
  -6.15134	0.000850397	  -6.15254	0.00085568	  -6.14496	0.000849212	  -6.14961	0.000851763	  -6.14961	   21.2941	
  -6.21568	0.000841809	  -6.21714	0.000847254	  -6.20956	0.000840537	  -6.21413	 0.0008432	  -6.21413	     21.08	
  -6.27999	0.000833131	  -6.28155	0.000838739	  -6.27367	0.000831671	  -6.27841	0.000834514	  -6.27841	   20.8628	
  -6.34405	0.000824377	  -6.34573	0.000830133	   -6.3376	0.000822687	  -6.34246	0.000825732	  -6.34246	   20.6433	
   -6.4078	0.000815578	  -6.40947	0.000821458	  -6.40115	0.000813703	  -6.40614	0.000816913	  -6.40614	   20.4228	
  -6.47155	0.000806768	  -6.47323	0.000812744	   -6.4646	0.000804814	  -6.46979	0.000808109	  -6.46979	   20.2027	
  -6.53509	0.000797967	  -6.53679	0.000804017	  -6.52791	0.000796065	  -6.53327	0.00079935	  -6.53327	   19.9837	
  -6.59822	0.00078918	  -6.59997	0.000795281	  -6.59089	0.000787425	  -6.59636	0.000790629	  -6.59636	   19.7657	
  -6.66125	0.000780391	  -6.66273	0.000786529	  -6.65349	0.000778824	  -6.65916	0.000781914	  -6.65916	   19.5479	
  -6.72412	0.000771552	  -6.72538	0.000777736	  -6.71603	0.000770148	  -6.72184	0.000773145	  -6.72184	   19.3286	
  -6.78663	0.000762633	  -6.78771	0.000768878	  -6.77828	0.00076132	  -6.78421	0.000764277	  -6.78421	   19.1069	
  -6.84862	0.000753625	  -6.84955	0.00075994	  -6.84024	0.000752298	  -6.84613	0.000755288	  -6.84613	   18.8822	
  -6.91054	0.000744535	  -6.91134	0.000750933	  -6.90187	0.000743124	  -6.90792	0.000746197	  -6.90792	   18.6549	
  -6.97219	0.000735415	   -6.9729	0.000741878	   -6.9633	0.000733866	  -6.96946	0.000737053	  -6.96946	   18.4263	
  -7.03339	0.000726298	  -7.03404	0.000732797	  -7.02436	0.000724623	  -7.03059	0.000727906	  -7.03059	   18.1977	
  -7.09428	0.000717216	  -7.09474	0.00072371	  -7.08486	0.00071546	  -7.09129	0.000718795	  -7.09129	   17.9699	
    -7.155	0.000708155	  -7.15531	0.000714613	  -7.14527	0.000706402	  -7.15186	0.000709723	  -7.15186	   17.7431	
  -7.21537	0.000699093	  -7.21555	0.000705488	  -7.20541	0.000697414	  -7.21211	0.000700665	  -7.21211	   17.5166	
  -7.27536	0.000689969	  -7.27544	0.000696315	  -7.26509	0.000688434	  -7.27196	0.000691573	  -7.27196	   17.2893	
  -7.33512	0.00068075	  -7.33499	0.000687088	  -7.32462	0.000679385	  -7.33157	0.000682408	  -7.33157	   17.0602	
  -7.39462	0.000671422	  -7.39431	0.000677806	  -7.38397	0.000670233	  -7.39097	0.000673154	  -7.39097	   16.8288	
  -7.45386	0.000662018	  -7.45325	0.00066849	  -7.44297	0.000660952	  -7.45002	0.00066382	  -7.45002	   16.5955	
  -7.51286	0.000652569	  -7.51188	0.000659144	  -7.50156	0.00065156	  -7.50876	0.000654425	  -7.50876	   16.3606	
  -7.57171	0.00064313	   -7.5704	0.000649782	  -7.56009	0.000642087	   -7.5674	  0.000645	   -7.5674	    16.125	
  -7.63022	0.000633708	  -7.62865	0.000640388	  -7.61837	0.000632569	  -7.62574	0.000635555	  -7.62574	   15.8889	
  -7.68822	0.000624304	  -7.68659	0.000630959	  -7.67622	0.000623047	  -7.68368	0.000626103	  -7.68368	   15.6526	
  -7.74588	0.00061488	  -7.74422	0.000621483	  -7.73365	0.000613537	  -7.74125	0.000616633	  -7.74125	   15.4158	
  -7.80334	0.000605406	  -7.80152	0.000611963	   -7.7908	0.00060404	  -7.79856	0.000607136	  -7.79856	   15.1784	
  -7.86044	0.000595856	   -7.8585	0.000602411	  -7.84768	0.000594561	  -7.85554	0.000597609	  -7.85554	   14.9402	
  -7.91731	0.000586238	  -7.91514	0.000592845	  -7.90411	0.000585088	  -7.91219	0.000588057	  -7.91219	   14.7014	
  -7.97411	0.000576575	   -7.9716	0.000583274	  -7.96057	0.000575604	  -7.96876	0.000578484	  -7.96876	   14.4621	
  -8.03066	0.000566906	  -8.02786	0.000573689	   -8.0167	0.000566087	  -8.02507	0.000568894	  -8.02507	   14.2223	
  -8.08677	0.000557252	  -8.08375	0.000564077	  -8.07251	0.000556514	  -8.08101	0.000559281	  -8.08101	    13.982	
  -8.14256	0.000547622	  -8.13911	0.000554418	  -8.12784	0.00054686	   -8.1365	0.000549633	   -8.1365	   13.7408	
  -8.19823	0.00053799	  -8.19427	 0.0005447	  -8.18286	0.000537145	  -8.19179	0.000539945	  -8.19179	   13.4986	
  -8.25362	0.000528325	  -8.24922	0.000534925	  -8.23771	0.000527384	  -8.24685	0.000530211	  -8.24685	   13.2553	
  -8.30857	0.000518587	  -8.30379	0.000525088	  -8.29224	0.000517637	  -8.30153	0.000520437	  -8.30153	   13.0109	
  -8.36307	0.000508763	  -8.35784	0.000515236	  -8.34628	0.000507908	  -8.35573	0.000510636	  -8.35573	   12.7659	
  -8.41746	0.000498868	  -8.41154	0.000505395	  -8.39986	0.000498215	  -8.40962	0.000500826	  -8.40962	   12.5207	
  -8.47157	0.000488945	  -8.46506	0.000495601	   -8.4533	0.000488517	  -8.46331	0.000491021	  -8.46331	   12.2755	
   -8.5254	0.000479043	  -8.51822	0.000485844	  -8.50643	0.000478785	  -8.51668	0.000481224	  -8.51668	   12.0306	
  -8.57862	0.000469204	  -8.57104	0.000476104	  -8.55911	0.000468971	  -8.56959	0.000471426	  -8.56959	   11.7857	
  -8.63175	0.000459439	  -8.62354	0.000466329	  -8.61151	0.000459071	  -8.62227	0.000461613	  -8.62227	   11.5403	
  -8.68462	0.000449724	   -8.6757	0.000456484	  -8.66364	0.000449108	  -8.67465	0.000451772	  -8.67465	   11.2943	
  -8.73706	0.000439998	  -8.72756	0.000446537	  -8.71549	0.000439113	   -8.7267	0.000441883	   -8.7267	   11.0471	
  -8.78893	0.000430204	  -8.77895	0.000436499	  -8.76693	0.000429129	  -8.77827	0.000431944	  -8.77827	   10.7986	
  -8.84044	0.000420302	  -8.82975	0.000426402	  -8.81796	0.000419181	  -8.82938	0.000421961	  -8.82938	    10.549	
  -8.89173	0.000410289	  -8.88046	 0.0004163	  -8.86877	0.000409252	  -8.88032	0.000411947	  -8.88032	   10.2987	
  -8.94267	0.000400205	  -8.93092	0.000406235	  -8.91936	0.000399315	  -8.93099	0.000401918	  -8.93099	    10.048	
  -8.99312	0.000390088	  -8.98098	0.000396234	  -8.96958	0.000389326	  -8.98123	0.000391883	  -8.98123	   9.79707	
  -9.04293	0.000379999	  -9.03067	0.000386285	   -9.0193	0.000379261	  -9.03097	0.000381848	  -9.03097	   9.54621	
  -9.09238	0.000369962	  -9.07981	0.000376349	  -9.06888	0.000369122	  -9.08036	0.000371811	  -9.08036	   9.29528	
  -9.14158	0.000359987	   -9.1288	0.000366365	   -9.1183	0.000358935	  -9.12956	0.000361762	  -9.12956	   9.04405	
  -9.19039	0.000350032	  -9.17747	0.000356289	  -9.16742	0.000348735	  -9.17843	0.000351685	  -9.17843	   8.79214	
  -9.23868	0.000340059	   -9.2257	0.000346105	  -9.21608	0.000338557	  -9.22682	0.000341574	  -9.22682	   8.53934	
  -9.28664	0.000330022	  -9.27351	0.000335836	  -9.26417	0.000328409	  -9.27477	0.000331422	  -9.27477	   8.28556	
   -9.3342	0.000319911	    -9.321	0.00032553	  -9.31196	0.000318281	  -9.32239	0.000321241	  -9.32239	   8.03102	
  -9.38149	0.000309717	   -9.3683	0.000315242	  -9.35954	0.000308143	  -9.36978	0.000311034	  -9.36978	   7.77586	
  -9.42837	0.000299489	  -9.41525	0.000305012	  -9.40679	0.000297966	   -9.4168	0.000300822	   -9.4168	   7.52056	
  -9.47488	0.000289262	  -9.46173	0.000294852	  -9.45358	0.000287734	   -9.4634	0.000290616	   -9.4634	    7.2654	
  -9.52073	0.000279088	  -9.50763	0.000284729	  -9.49994	0.000277448	  -9.50943	0.000280422	  -9.50943	   7.01054	
  -9.56646	0.000268982	  -9.55299	 0.0002746	  -9.54606	0.000267134	  -9.55517	0.000270239	  -9.55517	   6.75596	
  -9.61191	0.000258947	  -9.59817	0.000264416	  -9.59197	0.000256806	  -9.60069	0.000260057	  -9.60069	   6.50142	
  -9.65697	0.000248932	  -9.64305	0.000254147	  -9.63754	0.000246486	  -9.64586	0.000249855	  -9.64586	   6.24638	
  -9.70152	0.000238881	   -9.6875	0.000243788	  -9.68264	0.000236177	  -9.69055	0.000239616	  -9.69055	   5.99039	
  -9.74544	0.000228724	   -9.7314	0.00023337	  -9.72715	0.000225873	  -9.73467	0.000229323	  -9.73467	   5.73307	
  -9.78912	0.000218437	  -9.77497	0.00022294	  -9.77146	0.000215558	  -9.77852	0.000218978	  -9.77852	   5.47446	
  -9.83257	0.000208036	  -9.81825	0.000212543	  -9.81542	0.000205227	  -9.82208	0.000208602	  -9.82208	   5.21505	
  -9.87569	0.000197577	  -9.86126	0.000202204	  -9.85907	0.000194873	  -9.86534	0.000198218	  -9.86534	   4.95545	
  -9.91834	0.000187131	  -9.90389	0.000191917	   -9.9023	0.000184497	  -9.90818	0.000187849	  -9.90818	   4.69622	
  -9.96043	0.00017677	  -9.94603	0.000181649	  -9.94499	0.000174109	  -9.95048	0.000177509	  -9.95048	   4.43773	
  -10.0022	0.000166525	  -9.98773	0.000171354	   -9.9872	0.000163714	  -9.99237	0.000167198	  -9.99237	   4.17994	
  -10.0435	0.000156385	  -10.0291	0.000160994	   -10.029	0.000153312	  -10.0338	0.000156897	  -10.0338	   3.92243	
  -10.0845	0.000146291	  -10.0702	0.000150554	  -10.0704	0.000142906	   -10.075	0.000146584	   -10.075	   3.66459	
  -10.1252	0.000136163	   -10.111	0.000140048	  -10.1115	0.000132494	  -10.1159	0.000136235	  -10.1159	   3.40587	
  -10.1654	0.000125936	  -10.1515	0.000129513	  -10.1522	0.000122068	  -10.1564	0.000125839	  -10.1564	   3.14598	
  -10.2051	0.000115588	  -10.1914	  0.000119	  -10.1923	0.00011162	  -10.1963	0.000115402	  -10.1963	   2.88506	
  -10.2442	0.000105139	  -10.2307	0.000108537	  -10.2318	0.00010114	  -10.2356	0.000104939	  -10.2356	   2.62347	
  -10.2831	9.46491e-05	  -10.2697	9.81319e-05	  -10.2708	9.06365e-05	  -10.2745	9.44725e-05	  -10.2745	   2.36181	
  -10.3217	8.4179e-05	  -10.3085	8.77632e-05	  -10.3095	8.01209e-05	  -10.3132	8.4021e-05	  -10.3132	   2.10053	
  -10.3599	7.37858e-05	   -10.347	7.73935e-05	  -10.3479	6.96188e-05	  -10.3516	7.35994e-05	  -10.3516	   1.83998	
  -10.3977	6.3482e-05	  -10.3852	6.69765e-05	   -10.386	5.91359e-05	  -10.3896	6.31981e-05	  -10.3896	   1.57995	
   -10.435	5.32473e-05	  -10.4228	5.6539e-05	  -10.4235	4.8685e-05	  -10.4271	5.28237e-05	  -10.4271	   1.32059	
  -10.4719	4.30275e-05	  -10.4601	4.60709e-05	  -10.4605	3.82446e-05	  -10.4642	4.24476e-05	  -10.4642	   1.06119	
  -10.5082	3.27731e-05	  -10.4967	3.55823e-05	  -10.4971	2.78046e-05	  -10.5007	3.20534e-05	  -10.5007	  0.801334	
  -10.5443	2.24465e-05	   -10.533	2.50801e-05	  -10.5333	 1.734e-05	  -10.5369	2.16222e-05	  -10.5369	  0.540555	
  -10.5802	1.20473e-05	  -10.5688	1.45558e-05	  -10.5693	6.84421e-06	  -10.5728	1.11491e-05	  -10.5728	  0.278728	
  -10.6157	1.60346e-06	  -10.6032	4.00571e-06	  -10.6051	-3.70068e-06	   -10.608	6.36163e-07	   -10.608	 0.0159041	
  -10.6508	-8.836e-06	  -10.6365	-6.56404e-06	  -10.6404	-1.42789e-05	  -10.6426	-9.89299e-06	  -10.6426	 -0.247325	
  -10.6854	-1.92265e-05	  -10.6696	-1.71631e-05	  -10.6753	-2.48842e-05	  -10.6768	-2.04246e-05	  -10.6768	 -0.510615	
  -10.7196	-2.95412e-05	  -10.7012	-2.77602e-05	  -10.7096	-3.54836e-05	  -10.7101	-3.09283e-05	  -10.7101	 -0.773208	
  -10.7532	-3.97868e-05	  -10.7338	-3.83145e-05	  -10.7435	-4.60551e-05	  -10.7435	-4.13854e-05	  -10.7435	  -1.03464	
  -10.7866	-4.9988e-05	  -10.7656	-4.87916e-05	   -10.777	-5.65655e-05	  -10.7764	-5.17817e-05	  -10.7764	  -1.29454	
  -10.8198	-6.01871e-05	  -10.7979	-5.91648e-05	  -10.8101	-6.69892e-05	  -10.8092	-6.21137e-05	  -10.8092	  -1.55284	
  -10.8527	-7.04305e-05	  -10.8307	-6.94477e-05	  -10.8429	-7.73308e-05	  -10.8421	-7.2403e-05	  -10.8421	  -1.81007	
  -10.8852	-8.07526e-05	  -10.8635	-7.97018e-05	  -10.8752	-8.76273e-05	  -10.8746	-8.26939e-05	  -10.8746	  -2.06735	
  -10.9173	-9.11552e-05	  -10.8964	-8.99936e-05	  -10.9072	-9.79411e-05	  -10.9069	-9.303e-05	  -10.9069	  -2.32575	
  -10.9488	-0.000101616	  -10.9284	-0.000100388	  -10.9387	-0.000108327	  -10.9386	-0.000103444	  -10.9386	  -2.58609	
  -10.9798	-0.000112078	    -10.96	-0.000110889	  -10.9696	-0.000118833	  -10.9698	-0.000113933	  -10.9698	  -2.84833	
  -11.0101	-0.000122489	   -10.991	-0.000121453	       -11	-0.000129443	  -11.0004	-0.000124462	  -11.0004	  -3.11154	
  -11.0399	-0.000132814	  -11.0213	-0.000132011	  -11.0298	-0.000140115	  -11.0303	-0.00013498	  -11.0303	  -3.37449	
  -11.0695	-0.000143051	   -11.051	-0.000142488	   -11.059	-0.000150765	  -11.0598	-0.000145435	  -11.0598	  -3.63587	
  -11.0987	-0.000153231	  -11.0802	-0.000152825	  -11.0876	-0.000161327	  -11.0888	-0.000155794	  -11.0888	  -3.89485	
  -11.1276	-0.000163415	  -11.1091	-0.000163025	  -11.1159	-0.000171749	  -11.1175	-0.000166063	  -11.1175	  -4.15158	
  -11.1562	-0.000173647	  -11.1372	-0.000173158	  -11.1439	-0.000182048	  -11.1458	-0.000176284	  -11.1458	  -4.40711	
  -11.1844	-0.000183959	   -11.165	-0.000183271	  -11.1717	-0.000192268	  -11.1737	-0.000186499	  -11.1737	  -4.66248	
  -11.2121	-0.000194344	  -11.1925	-0.00019343	  -11.1991	-0.000202492	  -11.2013	-0.000196755	  -11.2013	  -4.91888	
  -11.2394	-0.000204767	  -11.2196	-0.00020365	  -11.2261	-0.000212787	  -11.2283	-0.000207068	  -11.2283	   -5.1767	
   -11.266	-0.00021518	  -11.2463	-0.000213913	  -11.2526	-0.000223193	   -11.255	-0.000217428	   -11.255	  -5.43571	
   -11.292	-0.00022552	  -11.2725	-0.000224171	  -11.2786	-0.000233698	   -11.281	-0.000227797	   -11.281	  -5.69491	
  -11.3174	-0.000235756	  -11.2982	-0.00023439	  -11.3039	-0.000244243	  -11.3065	-0.00023813	  -11.3065	  -5.95324	
  -11.3424	-0.000245883	  -11.3234	-0.000244546	  -11.3287	-0.000254737	  -11.3315	-0.000248388	  -11.3315	  -6.20971	
   -11.367	-0.000255928	   -11.348	-0.000254656	   -11.353	-0.000265117	   -11.356	-0.000258567	   -11.356	  -6.46417	
  -11.3911	-0.000265932	  -11.3719	-0.000264748	  -11.3767	-0.000275363	  -11.3799	-0.000268681	  -11.3799	  -6.71703	
  -11.4151	-0.000275957	  -11.3954	-0.000274862	  -11.4002	-0.000285511	  -11.4035	-0.000278777	  -11.4035	  -6.96942	
  -11.4387	-0.000286053	  -11.4184	-0.000285006	  -11.4231	-0.000295629	  -11.4268	-0.000288896	  -11.4268	   -7.2224	
  -11.4621	-0.000296253	  -11.4413	-0.000295192	  -11.4459	-0.000305786	  -11.4497	-0.000299077	  -11.4497	  -7.47692	
  -11.4851	-0.000306531	  -11.4637	-0.000305391	  -11.4684	-0.000316029	  -11.4724	-0.000309317	  -11.4724	  -7.73292	
  -11.5077	-0.000316836	  -11.4859	-0.000315584	  -11.4904	-0.000326358	  -11.4947	-0.000319593	  -11.4947	  -7.98982	
  -11.5298	-0.000327092	  -11.5077	-0.000325741	  -11.5122	-0.000336724	  -11.5166	-0.000329852	  -11.5166	  -8.24631	
  -11.5514	-0.000337242	  -11.5292	-0.000335857	  -11.5335	-0.000347052	   -11.538	-0.000340051	   -11.538	  -8.50126	
  -11.5725	-0.000347264	  -11.5502	-0.000345922	  -11.5544	-0.00035728	  -11.5591	-0.000350155	  -11.5591	  -8.75388	
   -11.593	-0.000357175	  -11.5708	-0.000355965	  -11.5749	-0.00036738	  -11.5796	-0.000360173	  -11.5796	  -9.00433	
   -11.613	-0.000367027	   -11.591	-0.000365998	  -11.5949	-0.000377376	  -11.5996	-0.000370134	  -11.5996	  -9.25334	
  -11.6324	-0.000376888	  -11.6106	-0.000376036	  -11.6144	-0.000387315	  -11.6191	-0.00038008	  -11.6191	  -9.50199	
  -11.6511	-0.000386808	  -11.6296	-0.000386087	  -11.6333	-0.000397267	   -11.638	-0.000390054	   -11.638	  -9.75135	
  -11.6694	-0.000396812	  -11.6481	-0.000396154	  -11.6517	-0.000407281	  -11.6564	-0.000400082	  -11.6564	  -10.0021	
  -11.6871	-0.000406862	  -11.6661	-0.000406218	  -11.6695	-0.000417368	  -11.6742	-0.000410149	  -11.6742	  -10.2537	
  -11.7042	-0.000416916	  -11.6834	-0.000416272	  -11.6867	-0.000427493	  -11.6915	-0.000420227	  -11.6915	  -10.5057	
  -11.7209	-0.000426909	  -11.7002	-0.000426298	  -11.7033	-0.000437602	  -11.7081	-0.00043027	  -11.7081	  -10.7567	
  -11.7368	-0.0004368	  -11.7164	-0.000436289	  -11.7194	-0.000447648	  -11.7242	-0.000440245	  -11.7242	  -11.0061	
  -11.7525	-0.00044658	   -11.732	-0.00044624	  -11.7348	-0.000457607	  -11.7398	-0.000450142	  -11.7398	  -11.2536	
  -11.7676	-0.000456272	  -11.7471	-0.00045616	  -11.7496	-0.000467474	  -11.7547	-0.000459969	  -11.7547	  -11.4992	
  -11.7824	-0.000465938	  -11.7617	-0.000466062	   -11.764	-0.000477273	  -11.7694	-0.000469757	  -11.7694	  -11.7439	
  -11.7968	-0.000475626	  -11.7756	-0.000475961	  -11.7777	-0.000487047	  -11.7834	-0.000479545	  -11.7834	  -11.9886	
  -11.8108	-0.000485359	  -11.7893	-0.000485863	   -11.791	-0.000496836	   -11.797	-0.000489352	   -11.797	  -12.2338	
  -11.8242	-0.000495133	  -11.8025	-0.000495787	  -11.8036	-0.000506654	  -11.8101	-0.000499191	  -11.8101	  -12.4798	
  -11.8369	-0.000504924	  -11.8152	-0.000505714	  -11.8158	-0.000516502	  -11.8227	-0.000509047	  -11.8227	  -12.7262	
  -11.8494	-0.000514687	  -11.8278	-0.000515617	  -11.8274	-0.000526347	  -11.8349	-0.000518884	  -11.8349	  -12.9721	
  -11.8615	-0.000524379	  -11.8402	-0.000525461	  -11.8385	-0.00053615	  -11.8467	-0.000528663	  -11.8467	  -13.2166	
  -11.8734	-0.000533986	  -11.8521	-0.000535224	   -11.849	-0.000545867	  -11.8582	-0.000538359	  -11.8582	   -13.459	
  -11.8849	-0.000543516	  -11.8634	-0.000544907	  -11.8591	-0.000555478	  -11.8691	-0.000547967	  -11.8691	  -13.6992	
  -11.8959	-0.000552997	  -11.8742	-0.000554534	  -11.8689	-0.000564982	  -11.8797	-0.000557505	  -11.8797	  -13.9376	
  -11.9063	-0.000562471	  -11.8845	-0.000564134	  -11.8784	-0.000574411	  -11.8897	-0.000567006	  -11.8897	  -14.1751	
  -11.9163	-0.000571963	  -11.8943	-0.000573748	  -11.8873	-0.000583822	  -11.8993	-0.000576511	  -11.8993	  -14.4128	
  -11.9256	-0.000581482	  -11.9035	-0.0005834	  -11.8955	-0.000593266	  -11.9082	-0.000586049	  -11.9082	  -14.6512	
  -11.9347	-0.000591013	  -11.9124	-0.000593088	  -11.9033	-0.00060277	  -11.9168	-0.000595624	  -11.9168	  -14.8906	
  -11.9431	-0.000600531	  -11.9207	-0.000602788	  -11.9106	-0.00061233	  -11.9248	-0.000605216	  -11.9248	  -15.1304	
  -11.9512	-0.000610001	  -11.9285	-0.000612471	  -11.9176	-0.000621908	  -11.9324	-0.000614793	  -11.9324	  -15.3698	
  -11.9588	-0.000619399	  -11.9357	-0.000622102	   -11.924	-0.000631437	  -11.9395	-0.000624313	  -11.9395	  -15.6078	
  -11.9659	-0.000628719	  -11.9423	-0.000631667	  -11.9299	-0.00064086	   -11.946	-0.000633749	   -11.946	  -15.8437	
  -11.9723	-0.000637979	  -11.9483	-0.000641155	  -11.9354	-0.000650143	   -11.952	-0.000643092	   -11.952	  -16.0773	
  -11.9781	-0.000647205	  -11.9539	-0.000650568	  -11.9403	-0.000659301	  -11.9575	-0.000652358	  -11.9575	  -16.3089	
  -11.9834	-0.000656428	   -11.959	-0.000659914	  -11.9449	-0.00066838	  -11.9624	-0.000661574	  -11.9624	  -16.5393	
  -11.9881	-0.000665668	  -11.9636	-0.000669202	   -11.949	-0.00067744	  -11.9669	-0.00067077	  -11.9669	  -16.7693	
  -11.9921	-0.000674929	  -11.9677	-0.000678434	  -11.9527	-0.000686538	  -11.9709	-0.000679967	  -11.9709	  -16.9992	
  -11.9956	-0.000684187	  -11.9713	-0.000687626	  -11.9561	-0.000695706	  -11.9744	-0.000689173	  -11.9744	  -17.2293	
  -11.9986	-0.000693408	  -11.9745	-0.000696794	  -11.9591	-0.000704934	  -11.9774	-0.000698379	  -11.9774	  -17.4595	
  -12.0011	-0.00070256	  -11.9773	-0.00070596	  -11.9617	-0.000714178	    -11.98	-0.000707566	    -11.98	  -17.6892	
  -12.0031	-0.000711622	  -11.9797	-0.000715129	   -11.964	-0.000723385	  -11.9823	-0.000716712	  -11.9823	  -17.9178	
  -12.0047	-0.000720598	  -11.9818	-0.00072432	   -11.966	-0.0007325	  -11.9842	-0.000725806	  -11.9842	  -18.1452	
  -12.0059	-0.000729512	  -11.9835	-0.000733528	  -11.9678	-0.000741495	  -11.9857	-0.000734845	  -11.9857	  -18.3711	
  -12.0067	-0.000738398	  -11.9849	-0.00074274	  -11.9692	-0.000750371	  -11.9869	-0.000743836	  -11.9869	  -18.5959	
  -12.0072	-0.000747284	   -11.986	-0.000751927	  -11.9705	-0.000759161	  -11.9879	-0.000752791	  -11.9879	  -18.8198	
  -12.0073	-0.000756173	  -11.9868	-0.000761059	  -11.9713	-0.000767914	  -11.9885	-0.000761715	  -11.9885	  -19.0429	
   -12.007	-0.000765049	  -11.9873	-0.000770099	  -11.9719	-0.000776686	  -11.9887	-0.000770612	  -11.9887	  -19.2653	
  -12.0065	-0.000773888	  -11.9875	-0.000779038	  -11.9722	-0.000785505	  -11.9887	-0.000779477	  -11.9887	  -19.4869	
  -12.0055	-0.000782666	  -11.9873	-0.000787875	  -11.9722	-0.000794372	  -11.9883	-0.000788304	  -11.9883	  -19.7076	
   -12.004	-0.000791377	  -11.9868	-0.000796631	  -11.9717	-0.000803231	  -11.9875	-0.00079708	  -11.9875	   -19.927	
  -12.0023	-0.000800038	  -11.9859	-0.000805336	  -11.9705	-0.000812032	  -11.9862	-0.000805802	  -11.9862	  -20.1451	
  -12.0001	-0.000808673	  -11.9842	-0.000814018	  -11.9688	-0.000820716	  -11.9843	-0.000814469	  -11.9843	  -20.3617	
  -11.9973	-0.000817305	  -11.9819	-0.000822702	  -11.9665	-0.000829261	  -11.9819	-0.000823089	  -11.9819	  -20.5772	
  -11.9941	-0.000825944	  -11.9791	-0.000831387	  -11.9636	-0.000837687	  -11.9789	-0.000831672	  -11.9789	  -20.7918	
  -11.9902	-0.000834581	  -11.9757	-0.000840054	  -11.9602	-0.000846055	  -11.9753	-0.00084023	  -11.9753	  -21.0057	
  -11.9858	-0.000843182	  -11.9718	-0.000848681	  -11.9563	-0.000854423	  -11.9713	-0.000848762	  -11.9713	  -21.2191	
  -11.9809	-0.000851716	  -11.9674	-0.000857245	  -11.9521	-0.000862845	  -11.9668	-0.000857268	  -11.9668	  -21.4317	
  -11.9756	-0.000860156	  -11.9627	-0.000865727	  -11.9475	-0.000871323	  -11.9619	-0.000865735	  -11.9619	  -21.6434	
  -11.9699	-0.000868495	  -11.9576	-0.000874125	  -11.9426	-0.000879823	  -11.9567	-0.000874148	  -11.9567	  -21.8537	
  -11.9639	-0.000876749	  -11.9522	-0.000882458	  -11.9369	-0.000888277	   -11.951	-0.000882495	   -11.951	  -22.0624	
  -11.9576	-0.000884954	  -11.9464	-0.000890748	  -11.9309	-0.000896626	   -11.945	-0.000890776	   -11.945	  -22.2694	
  -11.9508	-0.000893146	  -11.9402	-0.000899016	  -11.9245	-0.000904826	  -11.9385	-0.000898996	  -11.9385	  -22.4749	
  -11.9435	-0.000901353	  -11.9333	-0.000907271	  -11.9174	-0.00091289	  -11.9314	-0.000907171	  -11.9314	  -22.6793	
  -11.9357	-0.000909578	   -11.926	-0.000915507	  -11.9098	-0.000920866	  -11.9238	-0.000915317	  -11.9238	  -22.8829	
  -11.9271	-0.000917803	   -11.918	-0.000923705	  -11.9016	-0.00092882	  -11.9156	-0.000923443	  -11.9156	  -23.0861	
   -11.918	-0.000925988	  -11.9094	-0.000931838	  -11.8929	-0.000936814	  -11.9068	-0.000931547	  -11.9068	  -23.2887	
  -11.9085	-0.000934096	  -11.9003	-0.000939889	  -11.8837	-0.000944873	  -11.8975	-0.00093962	  -11.8975	  -23.4905	
  -11.8984	-0.000942101	  -11.8908	-0.000947854	  -11.8742	-0.000952965	  -11.8878	-0.00094764	  -11.8878	   -23.691	
  -11.8881	-0.000950002	   -11.881	-0.000955744	  -11.8645	-0.000961031	  -11.8778	-0.000955592	  -11.8778	  -23.8898	
  -11.8772	-0.000957815	  -11.8706	-0.000963579	  -11.8544	-0.000968998	  -11.8674	-0.000963464	  -11.8674	  -24.0866	
  -11.8661	-0.000965575	  -11.8597	-0.000971386	  -11.8439	-0.000976822	  -11.8565	-0.000971261	  -11.8565	  -24.2815	
  -11.8544	-0.000973313	  -11.8483	-0.000979185	  -11.8327	-0.000984498	  -11.8452	-0.000978998	  -11.8452	   -24.475	
  -11.8421	-0.000981048	  -11.8363	-0.000986978	  -11.8209	-0.00099207	  -11.8331	-0.000986699	  -11.8331	  -24.6675	
  -11.8292	-0.000988768	  -11.8238	-0.000994758	  -11.8085	-0.000999606	  -11.8205	-0.000994377	  -11.8205	  -24.8594	
  -11.8157	-0.000996453	  -11.8109	-0.0010025	  -11.7957	-0.00100717	  -11.8074	-0.00100204	  -11.8074	   -25.051	
  -11.8018	-0.00100407	  -11.7975	-0.00101017	  -11.7825	-0.0010148	  -11.7939	-0.00100968	  -11.7939	   -25.242	
  -11.7876	-0.0010116	  -11.7836	-0.00101775	   -11.769	-0.00102247	  -11.7801	-0.00101727	  -11.7801	  -25.4318	
  -11.7731	-0.00101905	  -11.7693	-0.00102523	   -11.755	-0.00103014	  -11.7658	-0.00102481	  -11.7658	  -25.6201	
  -11.7584	-0.00102644	  -11.7545	-0.00103263	  -11.7405	-0.00103773	  -11.7511	-0.00103227	  -11.7511	  -25.8068	
  -11.7433	-0.00103381	  -11.7393	-0.00103999	  -11.7252	-0.00104522	  -11.7359	-0.00103967	  -11.7359	  -25.9917	
  -11.7276	-0.00104118	  -11.7235	-0.00104732	  -11.7094	-0.00105256	  -11.7202	-0.00104702	  -11.7202	  -26.1755	
  -11.7115	-0.00104855	  -11.7071	-0.00105466	  -11.6931	-0.0010598	  -11.7039	-0.00105434	  -11.7039	  -26.3584	
  -11.6949	-0.00105593	  -11.6904	-0.00106197	  -11.6764	-0.00106697	  -11.6872	-0.00106162	  -11.6872	  -26.5405	
  -11.6779	-0.00106325	  -11.6732	-0.00106925	  -11.6594	-0.00107412	  -11.6702	-0.00106887	  -11.6702	  -26.7219	
  -11.6606	-0.00107048	  -11.6558	-0.00107646	   -11.642	-0.0010813	  -11.6528	-0.00107608	  -11.6528	   -26.902	
  -11.6431	-0.00107759	  -11.6376	-0.00108358	   -11.624	-0.0010885	  -11.6349	-0.00108322	  -11.6349	  -27.0805	
  -11.6248	-0.00108459	  -11.6189	-0.00109061	  -11.6055	-0.00109569	  -11.6164	-0.0010903	  -11.6164	  -27.2574	
  -11.6058	-0.00109152	  -11.5996	-0.00109758	  -11.5866	-0.00110285	  -11.5974	-0.00109732	  -11.5974	  -27.4329	
  -11.5863	-0.00109842	  -11.5799	-0.00110451	  -11.5672	-0.00110993	  -11.5778	-0.00110429	  -11.5778	  -27.6072	
  -11.5664	-0.00110533	  -11.5598	-0.00111142	  -11.5475	-0.00111692	  -11.5579	-0.00111122	  -11.5579	  -27.7806	
  -11.5462	-0.00111227	  -11.5392	-0.00111832	  -11.5273	-0.0011238	  -11.5376	-0.00111813	  -11.5376	  -27.9532	
  -11.5256	-0.00111922	  -11.5184	-0.00112519	  -11.5065	-0.00113059	  -11.5168	 -0.001125	  -11.5168	  -28.1251	
  -11.5047	-0.00112614	   -11.497	-0.00113201	  -11.4851	-0.00113734	  -11.4956	-0.00113183	  -11.4956	  -28.2958	
  -11.4831	-0.00113298	   -11.475	-0.00113876	  -11.4632	-0.00114406	  -11.4738	-0.0011386	  -11.4738	   -28.465	
   -11.461	-0.00113971	  -11.4526	-0.00114542	  -11.4409	-0.00115078	  -11.4515	-0.0011453	  -11.4515	  -28.6326	
  -11.4385	-0.00114631	  -11.4298	-0.00115202	  -11.4182	-0.00115748	  -11.4288	-0.00115194	  -11.4288	  -28.7985	
  -11.4156	-0.00115282	  -11.4068	-0.00115857	  -11.3952	-0.00116417	  -11.4059	-0.00115852	  -11.4059	   -28.963	
  -11.3924	-0.00115928	  -11.3834	-0.00116509	  -11.3717	-0.0011708	  -11.3825	-0.00116506	  -11.3825	  -29.1264	
  -11.3686	-0.00116573	  -11.3594	-0.00117158	  -11.3477	-0.00117737	  -11.3586	-0.00117156	  -11.3586	  -29.2889	
  -11.3442	-0.00117221	  -11.3349	-0.00117802	  -11.3231	-0.00118383	  -11.3341	-0.00117802	  -11.3341	  -29.4506	
  -11.3194	-0.00117872	    -11.31	-0.00118442	  -11.2982	-0.00119021	  -11.3092	-0.00118445	  -11.3092	  -29.6112	
  -11.2942	-0.00118522	  -11.2846	-0.00119075	  -11.2729	-0.0011965	  -11.2839	-0.00119082	  -11.2839	  -29.7706	
  -11.2686	-0.00119169	  -11.2588	 -0.001197	  -11.2468	-0.00120274	   -11.258	-0.00119714	   -11.258	  -29.9285	
  -11.2424	-0.00119806	  -11.2324	-0.00120318	  -11.2205	-0.00120894	  -11.2318	-0.00120339	  -11.2318	  -30.0848	
  -11.2157	-0.00120432	  -11.2055	-0.0012093	  -11.1939	-0.00121514	   -11.205	-0.00120958	   -11.205	  -30.2396	
  -11.1885	-0.00121044	  -11.1782	-0.00121538	  -11.1669	-0.00122133	  -11.1779	-0.00121571	  -11.1779	  -30.3929	
   -11.161	-0.00121645	  -11.1506	-0.00122142	  -11.1396	-0.00122749	  -11.1504	-0.00122179	  -11.1504	  -30.5447	
  -11.1331	-0.0012224	  -11.1226	-0.00122744	  -11.1115	-0.00123358	  -11.1224	-0.00122781	  -11.1224	  -30.6952	
  -11.1046	-0.00122834	   -11.094	-0.00123341	  -11.0833	-0.00123959	   -11.094	-0.00123378	   -11.094	  -30.8445	
  -11.0755	-0.0012343	  -11.0649	-0.00123932	  -11.0545	-0.0012455	   -11.065	-0.0012397	   -11.065	  -30.9926	
   -11.046	-0.00124029	  -11.0354	-0.00124517	  -11.0254	-0.00125131	  -11.0356	-0.00124559	  -11.0356	  -31.1397	
  -11.0161	-0.00124628	  -11.0053	-0.00125096	  -10.9958	-0.00125705	  -11.0057	-0.00125143	  -11.0057	  -31.2857	
  -10.9859	-0.00125222	  -10.9746	-0.00125668	  -10.9657	-0.00126277	  -10.9754	-0.00125723	  -10.9754	  -31.4306	
  -10.9552	-0.00125806	  -10.9433	-0.00126235	  -10.9349	-0.0012685	  -10.9445	-0.00126297	  -10.9445	  -31.5743	
  -10.9239	-0.00126376	  -10.9116	-0.00126797	  -10.9037	-0.00127424	  -10.9131	-0.00126866	  -10.9131	  -31.7164	
  -10.8922	-0.00126932	  -10.8795	-0.00127352	  -10.8722	-0.00127998	  -10.8813	-0.00127427	  -10.8813	  -31.8568	
  -10.8602	-0.00127478	  -10.8469	 -0.001279	  -10.8403	-0.00128568	  -10.8491	-0.00127982	  -10.8491	  -31.9955	
  -10.8279	-0.0012802	  -10.8139	-0.00128443	  -10.8078	-0.00129129	  -10.8165	-0.0012853	  -10.8165	  -32.1325	
  -10.7953	-0.00128562	  -10.7804	-0.00128981	  -10.7749	-0.00129677	  -10.7835	-0.00129073	  -10.7835	  -32.2683	
  -10.7622	-0.00129108	  -10.7465	-0.00129517	  -10.7416	-0.00130213	  -10.7501	-0.00129613	  -10.7501	  -32.4032	
  -10.7286	-0.00129656	  -10.7123	-0.00130054	   -10.708	-0.0013074	  -10.7163	-0.0013015	  -10.7163	  -32.5376	
  -10.6946	-0.00130203	  -10.6777	-0.0013059	  -10.6739	-0.00131263	  -10.6821	-0.00130685	  -10.6821	  -32.6713	
    -10.66	-0.00130741	  -10.6426	-0.00131122	  -10.6394	-0.00131785	  -10.6473	-0.00131216	  -10.6473	   -32.804	
   -10.625	-0.00131267	  -10.6071	-0.00131644	  -10.6044	-0.00132309	  -10.6122	-0.0013174	  -10.6122	   -32.935	
  -10.5895	-0.0013178	  -10.5711	-0.00132155	  -10.5692	-0.00132834	  -10.5766	-0.00132256	  -10.5766	  -33.0641	
  -10.5537	-0.00132282	  -10.5349	-0.00132652	  -10.5334	-0.00133357	  -10.5407	-0.00132764	  -10.5407	   -33.191	
  -10.5176	-0.00132777	  -10.4982	-0.00133139	   -10.497	-0.00133874	  -10.5043	-0.00133263	  -10.5043	  -33.3159	
  -10.4809	-0.00133271	  -10.4612	-0.00133621	  -10.4602	-0.00134379	  -10.4674	-0.00133757	  -10.4674	  -33.4392	
  -10.4439	-0.00133765	  -10.4239	 -0.001341	   -10.423	-0.00134873	  -10.4303	-0.00134246	  -10.4303	  -33.5615	
  -10.4064	-0.00134261	  -10.3864	-0.0013458	  -10.3857	-0.00135354	  -10.3928	-0.00134732	  -10.3928	  -33.6829	
  -10.3682	-0.00134755	  -10.3487	-0.00135059	  -10.3478	-0.00135827	  -10.3549	-0.00135214	  -10.3549	  -33.8035	
  -10.3295	-0.00135242	  -10.3111	-0.00135538	  -10.3095	-0.00136297	  -10.3167	-0.00135692	  -10.3167	   -33.923	
  -10.2904	-0.00135718	  -10.2736	-0.00136012	  -10.2707	-0.00136767	  -10.2783	-0.00136165	  -10.2783	  -34.0413	
  -10.2511	-0.00136182	  -10.2356	-0.00136478	  -10.2315	-0.00137239	  -10.2394	-0.00136633	  -10.2394	  -34.1582	
  -10.2112	-0.00136634	  -10.1974	-0.00136936	  -10.1918	-0.00137711	  -10.2001	-0.00137094	  -10.2001	  -34.2735	
  -10.1708	-0.0013708	  -10.1581	-0.00137385	  -10.1516	-0.00138182	  -10.1602	-0.00137549	  -10.1602	  -34.3872	
  -10.1302	-0.00137521	  -10.1183	-0.00137828	  -10.1113	-0.00138644	  -10.1199	-0.00137998	  -10.1199	  -34.4994	
  -10.0893	-0.00137962	  -10.0781	-0.00138263	  -10.0706	-0.00139095	  -10.0793	-0.0013844	  -10.0793	    -34.61	
  -10.0479	-0.00138403	  -10.0374	-0.00138693	  -10.0295	-0.00139534	  -10.0383	-0.00138877	  -10.0383	  -34.7192	
  -10.0061	-0.00138842	  -9.99629	-0.0013912	  -9.98808	-0.00139963	  -9.99683	-0.00139308	  -9.99683	   -34.827	
   -9.9641	-0.00139276	  -9.95444	-0.00139544	   -9.9463	-0.00140387	  -9.95495	-0.00139736	  -9.95495	  -34.9339	
  -9.92153	-0.00139702	  -9.91256	-0.00139966	  -9.90388	-0.00140811	  -9.91266	-0.00140159	  -9.91266	  -35.0399	
  -9.87844	-0.00140117	  -9.86952	-0.00140386	    -9.861	-0.00141235	  -9.86966	-0.0014058	  -9.86966	  -35.1449	
  -9.83502	-0.00140522	   -9.8262	-0.00140801	  -9.81785	-0.0014166	  -9.82636	-0.00140995	  -9.82636	  -35.2487	
  -9.79142	-0.00140919	  -9.78228	-0.00141211	  -9.77444	-0.0014208	  -9.78272	-0.00141403	  -9.78272	  -35.3509	
  -9.74733	-0.00141312	  -9.73781	-0.00141611	  -9.73046	-0.00142492	  -9.73853	-0.00141805	  -9.73853	  -35.4512	
  -9.70278	-0.00141702	  -9.69376	-0.00142001	   -9.6861	-0.00142891	  -9.69421	-0.00142198	  -9.69421	  -35.5495	
  -9.65798	-0.00142092	  -9.64821	-0.00142382	  -9.64123	-0.00143278	  -9.64914	-0.00142584	  -9.64914	   -35.646	
  -9.61261	-0.00142479	  -9.60363	-0.00142759	  -9.59589	-0.00143657	  -9.60404	-0.00142965	  -9.60404	  -35.7412	
  -9.56673	-0.00142861	  -9.55789	-0.00143132	   -9.5501	-0.00144031	  -9.55824	-0.00143341	  -9.55824	  -35.8353	
  -9.52053	-0.00143232	  -9.51217	-0.00143506	  -9.50406	-0.00144405	  -9.51225	-0.00143714	  -9.51225	  -35.9285	
  -9.47405	-0.0014359	  -9.46545	-0.00143879	   -9.4577	-0.0014478	  -9.46573	-0.00144083	  -9.46573	  -36.0207	
  -9.42714	-0.00143934	  -9.41836	-0.0014425	   -9.4108	-0.00145155	  -9.41877	-0.00144446	  -9.41877	  -36.1116	
  -9.37983	-0.00144269	  -9.37171	-0.00144614	  -9.36358	-0.00145528	  -9.37171	-0.00144804	  -9.37171	  -36.2009	
   -9.3323	-0.00144603	  -9.32406	-0.0014497	  -9.31606	-0.00145893	  -9.32414	-0.00145155	  -9.32414	  -36.2888	
  -9.28427	-0.00144941	  -9.27675	-0.00145314	  -9.26826	-0.00146249	  -9.27643	-0.00145501	  -9.27643	  -36.3753	
  -9.23577	-0.00145288	  -9.22871	-0.0014565	  -9.22006	-0.00146594	  -9.22818	-0.00145844	  -9.22818	   -36.461	
  -9.18701	-0.00145642	  -9.18073	-0.00145978	  -9.17165	-0.0014693	   -9.1798	-0.00146184	   -9.1798	  -36.5459	
  -9.13786	-0.00145996	  -9.13218	-0.00146304	  -9.12273	-0.0014726	  -9.13092	-0.0014652	  -9.13092	    -36.63	
   -9.0882	-0.0014634	  -9.08295	-0.00146628	  -9.07335	-0.00147587	   -9.0815	-0.00146852	   -9.0815	  -36.7129	
  -9.03823	-0.00146665	  -9.03343	-0.00146951	  -9.02372	-0.00147913	  -9.03179	-0.00147176	  -9.03179	  -36.7941	
  -8.98815	-0.0014697	  -8.98332	-0.00147272	  -8.97386	-0.00148238	  -8.98178	-0.00147493	  -8.98178	  -36.8733	
  -8.93751	-0.0014726	  -8.93307	-0.00147587	   -8.9235	-0.0014856	  -8.93136	-0.00147802	  -8.93136	  -36.9506	
  -8.88652	-0.00147544	  -8.88216	-0.00147894	  -8.87283	-0.00148878	   -8.8805	-0.00148105	   -8.8805	  -37.0263	
  -8.83522	-0.00147829	  -8.83113	-0.00148192	  -8.82189	-0.00149189	  -8.82941	-0.00148403	  -8.82941	  -37.1008	
   -8.7835	-0.00148124	  -8.77984	-0.0014848	  -8.77057	-0.0014949	  -8.77797	-0.00148698	  -8.77797	  -37.1745	
   -8.7314	-0.00148426	  -8.72818	-0.0014876	  -8.71891	-0.00149783	  -8.72617	-0.0014899	  -8.72617	  -37.2475	
  -8.67914	-0.0014873	  -8.67635	-0.00149035	  -8.66695	-0.00150068	  -8.67415	-0.00149278	  -8.67415	  -37.3195	
  -8.62651	-0.00149027	  -8.62415	-0.00149308	  -8.61442	-0.00150346	  -8.62169	-0.00149561	  -8.62169	  -37.3902	
  -8.57348	-0.00149309	  -8.57155	-0.0014958	  -8.56153	-0.00150622	  -8.56885	-0.00149837	  -8.56885	  -37.4592	
  -8.52025	-0.00149572	  -8.51874	-0.0014985	  -8.50834	-0.00150895	  -8.51578	-0.00150105	  -8.51578	  -37.5264	
   -8.4667	-0.00149818	  -8.46545	-0.00150117	  -8.45474	-0.00151166	   -8.4623	-0.00150367	   -8.4623	  -37.5917	
  -8.41289	-0.00150054	  -8.41174	-0.00150379	  -8.40078	-0.00151434	  -8.40847	-0.00150622	  -8.40847	  -37.6555	
  -8.35885	-0.00150287	  -8.35767	-0.00150632	  -8.34667	-0.00151696	   -8.3544	-0.00150872	   -8.3544	  -37.7179	
  -8.30441	-0.00150523	  -8.30322	-0.00150876	  -8.29235	-0.0015195	      -8.3	-0.00151117	      -8.3	  -37.7792	
  -8.24953	-0.00150764	  -8.24837	-0.00151111	  -8.23765	-0.00152196	  -8.24518	-0.00151357	  -8.24518	  -37.8393	
  -8.19444	-0.00151009	  -8.19332	-0.00151336	  -8.18278	-0.00152433	  -8.19018	-0.00151593	  -8.19018	  -37.8982	
  -8.13885	-0.00151254	  -8.13796	-0.00151553	  -8.12761	-0.00152664	  -8.13481	-0.00151823	  -8.13481	  -37.9558	
  -8.08284	-0.00151493	  -8.08218	-0.00151765	  -8.07205	-0.0015289	  -8.07903	-0.00152049	  -8.07903	  -38.0123	
  -8.02614	-0.00151725	  -8.02621	-0.00151974	  -8.01632	-0.00153113	  -8.02289	-0.00152271	  -8.02289	  -38.0676	
  -7.96885	-0.00151946	  -7.96978	-0.00152183	  -7.95998	-0.00153333	   -7.9662	-0.00152487	   -7.9662	  -38.1218	
  -7.91122	-0.00152156	  -7.91296	-0.00152391	  -7.90327	-0.0015355	  -7.90915	-0.00152699	  -7.90915	  -38.1747	
  -7.85346	-0.00152354	  -7.85596	-0.00152597	  -7.84641	-0.00153762	  -7.85194	-0.00152904	  -7.85194	   -38.226	
  -7.79579	-0.00152543	  -7.79852	-0.00152797	  -7.78914	-0.00153966	  -7.79448	-0.00153102	  -7.79448	  -38.2755	
  -7.73822	-0.00152726	  -7.74072	-0.00152989	  -7.73151	-0.00154163	  -7.73682	-0.00153293	  -7.73682	  -38.3231	
  -7.68085	-0.00152903	  -7.68252	-0.00153172	  -7.67375	-0.00154353	  -7.67904	-0.00153476	  -7.67904	   -38.369	
  -7.62347	-0.00153078	  -7.62377	-0.00153348	   -7.6156	-0.00154537	  -7.62095	-0.00153654	  -7.62095	  -38.4136	
  -7.56613	-0.00153251	  -7.56471	-0.00153517	  -7.55713	-0.00154716	  -7.56265	-0.00153828	  -7.56265	   -38.457	
  -7.50837	-0.00153421	  -7.50558	-0.00153682	  -7.49838	-0.00154891	  -7.50411	-0.00153998	  -7.50411	  -38.4996	
  -7.45028	-0.00153588	  -7.44609	-0.00153843	  -7.43928	-0.00155061	  -7.44522	-0.00154164	  -7.44522	   -38.541	
   -7.3916	-0.0015375	  -7.38632	-0.00153997	  -7.37989	-0.00155224	  -7.38594	-0.00154324	  -7.38594	  -38.5809	
  -7.33223	-0.00153906	   -7.3265	-0.00154141	  -7.32031	-0.00155382	  -7.32634	-0.00154476	  -7.32634	   -38.619	
  -7.27229	-0.00154053	  -7.26634	-0.00154274	   -7.2604	-0.00155533	  -7.26635	-0.0015462	  -7.26635	   -38.655	
  -7.21189	-0.00154193	  -7.20594	-0.00154401	  -7.20024	-0.00155678	  -7.20602	-0.00154757	  -7.20602	  -38.6893	
   -7.1514	-0.00154324	  -7.14533	-0.00154525	  -7.13973	-0.00155818	  -7.14549	-0.00154889	  -7.14549	  -38.7223	
  -7.09058	-0.00154448	  -7.08445	-0.00154652	  -7.07878	-0.00155954	   -7.0846	-0.00155018	   -7.0846	  -38.7545	
   -7.0295	-0.00154568	  -7.02334	-0.00154783	  -7.01764	-0.00156083	   -7.0235	-0.00155145	   -7.0235	  -38.7862	
  -6.96824	-0.00154684	  -6.96199	-0.00154917	  -6.95628	-0.00156207	  -6.96217	-0.00155269	  -6.96217	  -38.8173	
   -6.9067	-0.00154797	  -6.90024	-0.00155046	  -6.89454	-0.00156323	  -6.90049	-0.00155389	  -6.90049	  -38.8472	
  -6.84493	-0.00154907	  -6.83834	-0.00155164	  -6.83266	-0.00156432	  -6.83864	-0.00155501	  -6.83864	  -38.8753	
  -6.78317	-0.00155012	  -6.77586	-0.00155266	  -6.77023	-0.00156536	  -6.77642	-0.00155605	  -6.77642	  -38.9012	
    -6.721	-0.00155111	  -6.71307	-0.00155348	  -6.70751	-0.00156634	  -6.71386	-0.00155698	  -6.71386	  -38.9245	
  -6.65852	-0.00155202	  -6.65008	-0.00155418	  -6.64446	-0.00156728	  -6.65102	-0.00155783	  -6.65102	  -38.9457	
  -6.59562	-0.00155286	  -6.58677	-0.00155482	  -6.58112	-0.00156818	  -6.58784	-0.00155862	  -6.58784	  -38.9654	
   -6.5324	-0.00155362	  -6.52321	-0.00155549	  -6.51756	-0.00156902	  -6.52439	-0.00155938	  -6.52439	  -38.9844	
  -6.46908	-0.00155434	  -6.45964	-0.00155625	  -6.45384	-0.0015698	  -6.46085	-0.00156013	  -6.46085	  -39.0032	
  -6.40558	-0.00155503	  -6.39564	-0.00155707	  -6.38973	-0.00157052	  -6.39699	-0.00156087	  -6.39699	  -39.0218	
   -6.3418	-0.0015557	  -6.33147	-0.00155787	  -6.32548	-0.00157117	  -6.33292	-0.00156158	  -6.33292	  -39.0396	
  -6.27774	-0.00155634	  -6.26697	-0.00155858	  -6.26105	-0.00157177	  -6.26859	-0.00156223	  -6.26859	  -39.0557	
  -6.21325	-0.00155693	  -6.20214	-0.00155911	   -6.1963	-0.0015723	   -6.2039	-0.00156278	   -6.2039	  -39.0695	
  -6.14858	-0.00155744	  -6.13706	-0.00155946	  -6.13147	-0.00157278	  -6.13904	-0.00156323	  -6.13904	  -39.0807	
  -6.08364	-0.00155787	  -6.07181	-0.00155968	  -6.06616	-0.0015732	  -6.07387	-0.00156358	  -6.07387	  -39.0896	
  -6.01837	-0.00155823	  -6.00631	-0.00155984	  -6.00063	-0.00157357	  -6.00844	-0.00156388	  -6.00844	  -39.0969	
  -5.95285	-0.00155852	  -5.94065	-0.00156002	  -5.93495	-0.00157387	  -5.94282	-0.00156414	  -5.94282	  -39.1035	
   -5.8871	-0.00155878	  -5.87457	-0.00156027	    -5.869	-0.00157412	  -5.87689	-0.00156439	  -5.87689	  -39.1098	
  -5.82111	-0.00155901	  -5.80834	-0.00156059	  -5.80275	-0.00157431	  -5.81073	-0.00156463	  -5.81073	  -39.1159	
  -5.75479	-0.00155923	  -5.74172	-0.0015609	  -5.73645	-0.00157443	  -5.74432	-0.00156485	  -5.74432	  -39.1214	
  -5.68809	-0.0015594	  -5.67496	-0.00156115	  -5.66984	-0.0015745	  -5.67763	-0.00156502	  -5.67763	  -39.1255	
  -5.62126	-0.00155952	  -5.60815	-0.00156128	  -5.60318	-0.00157452	  -5.61086	-0.0015651	  -5.61086	  -39.1276	
  -5.55422	-0.00155957	  -5.54118	-0.00156124	  -5.53622	-0.00157448	  -5.54387	-0.0015651	  -5.54387	  -39.1274	
  -5.48689	-0.00155957	  -5.47412	-0.00156106	  -5.46905	-0.00157438	  -5.47669	 -0.001565	  -5.47669	  -39.1251	
  -5.41954	-0.0015595	  -5.40691	-0.00156081	  -5.40176	-0.00157424	   -5.4094	-0.00156485	   -5.4094	  -39.1212	
  -5.35174	-0.0015594	  -5.33931	-0.00156053	  -5.33411	-0.00157404	  -5.34172	-0.00156466	  -5.34172	  -39.1164	
  -5.28377	-0.00155927	  -5.27159	-0.00156027	  -5.26635	-0.00157378	   -5.2739	-0.00156444	   -5.2739	   -39.111	
  -5.21571	-0.00155908	  -5.20397	-0.00156008	  -5.19825	-0.00157347	  -5.20598	-0.00156421	  -5.20598	  -39.1053	
  -5.14732	-0.00155883	  -5.13606	-0.00155992	  -5.12991	-0.00157311	  -5.13776	-0.00156395	  -5.13776	  -39.0988	
  -5.07886	-0.00155848	  -5.06793	-0.00155975	  -5.06157	-0.00157269	  -5.06945	-0.00156364	  -5.06945	  -39.0911	
  -5.01024	-0.00155804	  -4.99952	-0.00155949	  -4.99284	-0.00157221	  -5.00087	-0.00156325	  -5.00087	  -39.0812	
   -4.9414	-0.00155751	  -4.93093	-0.00155908	  -4.92397	-0.00157169	   -4.9321	-0.00156276	   -4.9321	  -39.0691	
  -4.87243	-0.00155693	  -4.86225	-0.0015585	  -4.85489	-0.00157111	  -4.86319	-0.00156218	  -4.86319	  -39.0546	
  -4.80309	-0.00155632	  -4.79323	-0.00155778	  -4.78555	-0.00157049	  -4.79396	-0.00156153	  -4.79396	  -39.0383	
  -4.73365	-0.00155571	  -4.72401	-0.00155698	  -4.71605	-0.00156982	  -4.72457	-0.00156084	  -4.72457	  -39.0209	
  -4.66404	-0.00155508	   -4.6545	-0.00155618	  -4.64615	-0.0015691	  -4.65489	-0.00156012	  -4.65489	   -39.003	
  -4.59418	-0.00155443	  -4.58479	-0.00155543	  -4.57611	-0.00156833	  -4.58502	-0.0015594	  -4.58502	  -38.9849	
  -4.52417	-0.00155371	  -4.51481	-0.00155477	  -4.50602	-0.0015675	    -4.515	-0.00155866	    -4.515	  -38.9665	
   -4.4541	-0.0015529	  -4.44451	-0.00155415	  -4.43565	-0.00156661	  -4.44475	-0.00155789	  -4.44475	  -38.9472	
  -4.38389	 -0.001552	  -4.37415	-0.00155352	   -4.3654	-0.00156567	  -4.37448	-0.00155706	  -4.37448	  -38.9266	
  -4.31342	 -0.001551	  -4.30346	-0.00155278	  -4.29473	-0.00156466	  -4.30387	-0.00155615	  -4.30387	  -38.9037	
  -4.24269	-0.00154994	  -4.23259	-0.00155189	  -4.22436	-0.0015636	  -4.23321	-0.00155514	  -4.23321	  -38.8786	
  -4.17195	-0.00154884	  -4.16162	-0.00155082	  -4.15357	-0.00156249	  -4.16238	-0.00155405	  -4.16238	  -38.8512	
  -4.10097	-0.0015477	  -4.09033	-0.00154962	  -4.08248	-0.00156132	  -4.09126	-0.00155288	  -4.09126	   -38.822	
  -4.02986	-0.00154652	  -4.01899	-0.00154836	  -4.01165	-0.0015601	  -4.02016	-0.00155166	  -4.02016	  -38.7915	
  -3.95838	-0.00154532	  -3.94736	-0.00154711	  -3.94021	-0.00155881	  -3.94865	-0.00155041	  -3.94865	  -38.7603	
  -3.88666	-0.00154405	  -3.87568	-0.00154591	  -3.86922	-0.00155746	  -3.87719	-0.00154914	  -3.87719	  -38.7285	
  -3.81494	-0.00154274	  -3.80407	-0.00154477	  -3.79748	-0.00155606	   -3.8055	-0.00154785	   -3.8055	  -38.6964	
  -3.74284	-0.00154136	  -3.73212	-0.00154363	  -3.72575	-0.00155459	  -3.73357	-0.00154653	  -3.73357	  -38.6631	
  -3.67064	-0.00153992	  -3.66011	-0.00154243	  -3.65412	-0.00155306	  -3.66163	-0.00154514	  -3.66163	  -38.6284	
  -3.59842	-0.00153842	  -3.58813	-0.00154112	  -3.58204	-0.00155147	  -3.58953	-0.00154367	  -3.58953	  -38.5917	
  -3.52595	-0.00153685	  -3.51593	-0.00153965	  -3.51027	-0.00154984	  -3.51738	-0.00154211	  -3.51738	  -38.5529	
   -3.4535	-0.00153523	  -3.44363	-0.00153805	  -3.43792	-0.00154817	  -3.44501	-0.00154048	  -3.44501	   -38.512	
  -3.38067	-0.00153357	  -3.37116	-0.00153635	  -3.36573	-0.00154645	  -3.37252	-0.00153879	  -3.37252	  -38.4698	
  -3.30776	-0.00153189	  -3.29862	-0.00153461	  -3.29315	-0.00154469	  -3.29984	-0.00153706	  -3.29984	  -38.4266	
  -3.23483	-0.00153017	  -3.22609	-0.00153289	  -3.22045	-0.00154288	  -3.22713	-0.00153532	  -3.22713	  -38.3829	
  -3.16184	-0.00152842	  -3.15336	-0.00153121	  -3.14788	-0.00154102	  -3.15436	-0.00153355	  -3.15436	  -38.3387	
  -3.08873	-0.00152662	  -3.08042	-0.00152954	  -3.07487	-0.00153908	  -3.08134	-0.00153175	  -3.08134	  -38.2937	
  -3.01559	-0.00152476	  -3.00732	-0.00152784	  -3.00203	-0.00153708	  -3.00831	-0.00152989	  -3.00831	  -38.2473	
  -2.94233	-0.00152283	  -2.93415	-0.00152606	  -2.92881	-0.00153501	   -2.9351	-0.00152796	   -2.9351	  -38.1991	
   -2.8689	-0.00152082	  -2.86086	-0.00152415	  -2.85564	-0.00153288	   -2.8618	-0.00152595	   -2.8618	  -38.1487	
  -2.79525	-0.00151875	  -2.78753	-0.00152211	  -2.78244	-0.00153071	  -2.78841	-0.00152385	  -2.78841	  -38.0964	
  -2.72148	-0.00151663	  -2.71426	-0.00151995	    -2.709	-0.00152851	  -2.71491	-0.0015217	  -2.71491	  -38.0424	
  -2.64762	-0.00151446	  -2.64079	-0.00151773	  -2.63576	-0.00152629	  -2.64139	-0.0015195	  -2.64139	  -37.9874	
  -2.57369	-0.00151227	  -2.56726	-0.0015155	  -2.56214	-0.00152404	   -2.5677	-0.00151727	   -2.5677	  -37.9317	
  -2.49977	-0.00151003	   -2.4936	-0.00151327	  -2.48873	-0.00152175	  -2.49403	-0.00151502	  -2.49403	  -37.8755	
  -2.42564	-0.00150774	  -2.41974	-0.00151104	  -2.41513	-0.00151939	  -2.42017	-0.00151273	  -2.42017	  -37.8181	
  -2.35157	-0.00150539	  -2.34597	-0.00150879	   -2.3416	-0.00151695	  -2.34638	-0.00151037	  -2.34638	  -37.7593	
  -2.27733	-0.00150295	  -2.27203	-0.00150646	  -2.26806	-0.00151442	  -2.27247	-0.00150794	  -2.27247	  -37.6986	
  -2.20301	-0.00150043	  -2.19804	-0.00150404	  -2.19445	-0.00151182	   -2.1985	-0.00150543	   -2.1985	  -37.6358	
  -2.12888	-0.00149782	  -2.12394	-0.00150148	  -2.12102	-0.00150932	  -2.12461	-0.00150287	  -2.12461	  -37.5718	
  -2.05454	-0.00149513	  -2.04966	-0.00149888	  -2.04721	-0.0015068	  -2.05047	-0.00150027	  -2.05047	  -37.5068	
  -1.98025	-0.00149238	  -1.97546	-0.00149627	  -1.97346	-0.00150423	  -1.97639	-0.00149763	  -1.97639	  -37.4407	
  -1.90579	-0.00148959	  -1.90097	-0.00149363	  -1.89969	-0.00150159	  -1.90215	-0.00149494	  -1.90215	  -37.3734	
  -1.83126	-0.00148677	  -1.82645	-0.00149092	  -1.82584	-0.00149886	  -1.82785	-0.00149218	  -1.82785	  -37.3046	
