# User: ACHyster
# File name: C:/ACHYSTER/ACHyster SENS/SHAMS/CoFe2O4-1gl-water-15 Glycerol- Sens-07-03-2023/CoFe2O4-1gl-water-15 Glycerol- 10_100F- 12kAm -Sens-07-03-20230004#1.txt
# Saved at: ma. mar. 7 15:05:10 2023
# Hyster Loop (3 iterations). Intensity: 12.0 kA/m; Tuned frequency: 50.0 kHz
# Units x axis: (kA/m)
# Units y axis: "Repeats y" & "Average y" (10^(-3)Am^2); "Mass avg y" (Am^2/kg)
# Magnetic mass: 4e-05 g
# Parameter      	Repeat   1	Repeat   2	Repeat   3	Average   	Sigma     
# H_C (kA/m)     	      10.4	      10.4	      10.3	      10.4	       0.0
# M_R (Am^2/kg)  	      39.0	      38.6	      38.8	      38.8	       0.2
# M_max (Am^2/kg)	      24.0	      23.4	      24.3	      23.9	       0.3
# Area (mJ/kg)   	    1837.3	    1817.6	    1829.4	    1828.1	       8.1
# SAR (W/g)      	      91.9	      90.9	      91.5	      91.4	       0.4
#Repeat 1 x	Repeat 1 y	Repeat 2 x	Repeat 2 y	Repeat 3 x	Repeat 3 y	Average x 	Average y 	Mass avg x 	Mass avg y 
  -1.67452	-0.00165768	  -1.66635	-0.00164172	  -1.68693	-0.00165184	  -1.67593	-0.00165041	  -1.67593	  -41.2604	
  -1.59953	-0.00165387	  -1.59187	-0.00163789	  -1.61184	 -0.001648	  -1.60108	-0.00164659	  -1.60108	  -41.1647	
  -1.52452	-0.00164991	  -1.51701	-0.00163399	  -1.53668	-0.00164409	  -1.52607	-0.00164266	  -1.52607	  -41.0666	
  -1.44949	-0.00164588	  -1.44224	-0.00163003	  -1.46145	-0.00164007	  -1.45106	-0.00163866	  -1.45106	  -40.9664	
  -1.37448	-0.00164187	  -1.36707	-0.00162601	   -1.3862	-0.00163593	  -1.37591	-0.0016346	  -1.37591	  -40.8651	
  -1.29948	-0.0016379	   -1.2922	-0.00162196	  -1.31092	-0.0016317	  -1.30087	-0.00163052	  -1.30087	   -40.763	
  -1.22436	-0.00163394	  -1.21722	-0.00161787	  -1.23567	-0.00162742	  -1.22575	-0.00162641	  -1.22575	  -40.6603	
  -1.14939	-0.00162992	  -1.14239	-0.00161373	  -1.16052	-0.00162313	  -1.15077	-0.00162226	  -1.15077	  -40.5565	
  -1.07416	-0.00162575	  -1.06743	-0.00160955	  -1.08521	-0.00161884	   -1.0756	-0.00161804	   -1.0756	  -40.4511	
 -0.998948	-0.0016214	 -0.992485	-0.00160532	  -1.00988	-0.00161451	  -1.00044	-0.00161375	  -1.00044	  -40.3436	
 -0.923868	-0.00161693	 -0.917652	-0.00160102	 -0.934625	-0.00161012	 -0.925382	-0.00160936	 -0.925382	  -40.2339	
 -0.848665	-0.00161241	 -0.842684	-0.00159662	 -0.859214	-0.00160563	 -0.850188	-0.00160489	 -0.850188	  -40.1222	
 -0.773487	-0.00160791	 -0.767863	-0.00159212	 -0.783793	-0.00160103	 -0.775047	-0.00160035	 -0.775047	  -40.0087	
 -0.698193	-0.00160342	 -0.693038	-0.00158752	 -0.708225	-0.00159634	 -0.699819	-0.00159576	 -0.699819	  -39.8941	
 -0.622929	-0.00159893	 -0.618207	-0.00158289	  -0.63266	-0.00159163	 -0.624599	-0.00159115	 -0.624599	  -39.7787	
 -0.547623	-0.00159439	 -0.543529	-0.00157826	 -0.557144	-0.00158691	 -0.549432	-0.00158652	 -0.549432	  -39.6629	
  -0.47221	-0.00158973	 -0.468689	-0.00157365	 -0.481489	-0.00158219	 -0.474129	-0.00158186	 -0.474129	  -39.5465	
 -0.396699	-0.00158495	 -0.393974	-0.00156904	  -0.40598	-0.00157745	 -0.398884	-0.00157715	 -0.398884	  -39.4287	
 -0.320962	-0.00158006	 -0.318958	-0.00156436	 -0.330538	-0.00157262	 -0.323486	-0.00157235	 -0.323486	  -39.3087	
 -0.245289	-0.00157509	  -0.24394	-0.00155956	 -0.255088	-0.00156767	 -0.248106	-0.00156744	 -0.248106	   -39.186	
  -0.16968	-0.0015701	 -0.168785	-0.00155462	 -0.179497	-0.00156259	 -0.172654	-0.00156244	 -0.172654	  -39.0609	
-0.0939925	-0.0015651	-0.0935014	-0.00154956	 -0.103777	-0.00155744	-0.0970904	-0.00155737	-0.0970904	  -38.9342	
-0.0185071	-0.00156011	-0.0183733	-0.00154445	-0.0282121	-0.00155226	-0.0216975	-0.00155227	-0.0216975	  -38.8068	
 0.0570886	-0.00155507	 0.0569093	-0.00153934	 0.0475057	-0.00154708	 0.0538346	-0.00154717	 0.0538346	  -38.6792	
  0.132626	-0.00154994	  0.132175	-0.00153426	  0.123204	-0.00154191	  0.129335	-0.00154204	  0.129335	  -38.5509	
  0.208108	-0.00154469	  0.207425	-0.00152918	  0.198611	-0.00153669	  0.204715	-0.00153685	  0.204715	  -38.4213	
  0.283679	-0.00153931	  0.282799	-0.00152405	   0.27416	-0.00153138	  0.280213	-0.00153158	  0.280213	  -38.2895	
  0.359168	-0.00153386	  0.358126	-0.00151882	  0.349568	-0.00152596	  0.355621	-0.00152621	  0.355621	  -38.1554	
  0.434607	-0.00152838	  0.433436	-0.00151346	  0.424981	-0.00152045	  0.431008	-0.00152076	  0.431008	  -38.0191	
  0.510001	-0.00152292	   0.50873	-0.00150797	  0.500402	-0.0015149	  0.506378	-0.00151526	  0.506378	  -37.8816	
  0.585252	-0.00151746	  0.583738	-0.0015024	  0.575555	-0.00150934	  0.581515	-0.00150974	  0.581515	  -37.7434	
   0.66061	-0.00151194	  0.658893	-0.00149681	  0.650872	-0.00150379	  0.656792	-0.00150418	  0.656792	  -37.6045	
  0.735927	-0.00150631	  0.733911	-0.00149123	  0.726067	-0.00149821	  0.731968	-0.00149858	  0.731968	  -37.4646	
   0.81121	-0.00150054	  0.809214	-0.00148566	  0.801423	-0.00149254	  0.807282	-0.00149291	  0.807282	  -37.3228	
  0.886461	-0.00149467	  0.884506	-0.00148004	  0.876791	-0.00148675	  0.882586	-0.00148715	  0.882586	  -37.1789	
  0.961639	-0.00148878	  0.959856	-0.00147433	  0.951899	-0.00148083	  0.957798	-0.00148131	  0.957798	  -37.0329	
   1.03693	-0.00148292	   1.03505	-0.00146849	   1.02718	-0.00147483	   1.03306	-0.00147542	   1.03306	  -36.8854	
   1.11206	-0.0014771	   1.11012	-0.00146254	   1.10234	-0.00146881	   1.10817	-0.00146948	   1.10817	  -36.7371	
   1.18711	-0.00147123	   1.18513	-0.00145659	   1.17747	-0.00146283	   1.18323	-0.00146355	   1.18323	  -36.5888	
   1.26215	-0.00146525	   1.26015	-0.00145065	   1.25264	-0.00145688	   1.25831	-0.00145759	   1.25831	  -36.4398	
   1.33719	-0.00145911	   1.33506	-0.00144472	    1.3277	-0.00145091	   1.33332	-0.00145158	   1.33332	  -36.2895	
   1.41222	-0.00145283	   1.41014	-0.00143873	   1.40294	-0.00144485	   1.40843	-0.00144547	   1.40843	  -36.1367	
   1.48711	-0.00144651	   1.48509	-0.0014326	   1.47808	-0.00143863	   1.48343	-0.00143925	   1.48343	  -35.9812	
   1.56183	-0.0014402	   1.56001	-0.00142631	   1.55307	-0.00143226	    1.5583	-0.00143292	    1.5583	  -35.8231	
   1.63659	-0.00143393	   1.63482	-0.00141989	   1.62811	-0.00142575	   1.63317	-0.00142653	   1.63317	  -35.6631	
    1.7111	-0.00142765	   1.70941	-0.00141345	   1.70294	-0.00141922	   1.70781	-0.00142011	   1.70781	  -35.5026	
   1.78563	-0.0014213	   1.78403	-0.00140708	   1.77762	-0.0014127	   1.78243	-0.00141369	   1.78243	  -35.3424	
   1.86008	-0.00141482	   1.85858	-0.00140083	   1.85226	-0.00140623	   1.85697	-0.00140729	   1.85697	  -35.1823	
   1.93445	-0.00140822	   1.93321	-0.00139461	   1.92672	-0.00139976	   1.93146	-0.00140086	   1.93146	  -35.0216	
   2.00891	-0.00140155	   2.00791	-0.00138833	   2.00129	-0.00139321	   2.00604	-0.00139437	   2.00604	  -34.8591	
   2.08317	-0.00139488	   2.08241	-0.00138188	   2.07569	-0.00138652	   2.08042	-0.00138776	   2.08042	   -34.694	
   2.15754	-0.00138822	   2.15703	-0.00137522	    2.1499	-0.00137967	   2.15482	-0.00138104	   2.15482	  -34.5259	
   2.23186	-0.00138153	   2.23159	-0.00136839	   2.22398	-0.0013727	   2.22914	-0.0013742	   2.22914	  -34.3551	
   2.30614	-0.00137474	   2.30596	-0.0013615	    2.2978	-0.00136567	    2.3033	-0.0013673	    2.3033	  -34.1826	
   2.38036	-0.00136782	   2.38028	-0.00135465	   2.37131	-0.00135865	   2.37731	-0.00136038	   2.37731	  -34.0094	
   2.45452	-0.00136081	   2.45444	-0.00134788	   2.44476	-0.00135166	   2.45124	-0.00135345	   2.45124	  -33.8363	
   2.52853	-0.00135376	   2.52847	-0.00134114	   2.51817	-0.00134465	   2.52506	-0.00134652	   2.52506	   -33.663	
   2.60241	-0.00134673	   2.60251	-0.00133435	   2.59168	-0.00133758	   2.59887	-0.00133955	   2.59887	  -33.4888	
   2.67604	-0.00133973	   2.67631	-0.00132742	   2.66503	-0.00133038	   2.67246	-0.00133251	   2.67246	  -33.3127	
   2.74952	-0.00133269	   2.74983	-0.0013203	   2.73819	-0.00132305	   2.74585	-0.00132534	   2.74585	  -33.1336	
   2.82293	-0.00132555	   2.82316	-0.00131303	   2.81137	-0.00131561	   2.81915	-0.00131806	   2.81915	  -32.9516	
   2.89628	-0.00131823	   2.89619	-0.0013057	    2.8843	-0.00130813	   2.89226	-0.00131069	   2.89226	  -32.7672	
   2.96973	-0.00131076	   2.96901	-0.00129838	   2.95724	-0.00130066	   2.96533	-0.00130327	   2.96533	  -32.5817	
     3.043	-0.00130318	   3.04172	-0.00129112	   3.03011	-0.00129322	   3.03828	-0.00129584	   3.03828	   -32.396	
   3.11611	-0.0012956	   3.11434	-0.00128387	   3.10277	-0.00128576	   3.11108	-0.00128841	   3.11108	  -32.2103	
   3.18922	-0.00128806	   3.18703	-0.00127658	   3.17541	-0.00127822	   3.18389	-0.00128095	   3.18389	  -32.0238	
   3.26208	-0.00128056	   3.25951	-0.00126915	   3.24788	-0.00127054	   3.25649	-0.00127342	   3.25649	  -31.8354	
   3.33476	-0.00127302	   3.33165	-0.00126154	   3.32006	-0.00126273	   3.32883	-0.00126577	   3.32883	  -31.6442	
   3.40738	-0.00126536	   3.40366	-0.0012538	   3.39228	-0.00125483	   3.40111	 -0.001258	   3.40111	  -31.4499	
   3.47967	-0.00125755	   3.47543	-0.00124599	   3.46428	-0.0012469	   3.47313	-0.00125015	   3.47313	  -31.2537	
   3.55209	-0.00124959	   3.54721	-0.00123819	   3.53633	-0.00123901	   3.54521	-0.00124226	   3.54521	  -31.0566	
   3.62435	-0.00124155	   3.61893	-0.00123044	   3.60832	-0.00123117	    3.6172	-0.00123439	    3.6172	  -30.8596	
   3.69649	-0.00123349	   3.69034	-0.00122272	   3.68001	-0.00122329	   3.68895	-0.0012265	   3.68895	  -30.6625	
   3.76852	-0.00122545	    3.7616	-0.00121493	   3.75158	-0.00121531	   3.76056	-0.00121857	   3.76056	  -30.4642	
   3.84033	-0.00121742	   3.83275	-0.00120702	   3.82303	-0.00120719	   3.83204	-0.00121054	   3.83204	  -30.2636	
    3.9119	-0.00120933	   3.90375	-0.00119896	   3.89425	-0.00119892	    3.9033	-0.0012024	    3.9033	  -30.0601	
   3.98346	-0.00120113	    3.9747	-0.00119077	   3.96556	-0.00119059	   3.97457	-0.00119416	   3.97457	   -29.854	
   4.05475	-0.00119279	   4.04547	-0.00118253	   4.03669	-0.00118223	   4.04564	-0.00118585	   4.04564	  -29.6462	
   4.12603	-0.00118432	   4.11599	-0.0011743	   4.10758	-0.00117391	   4.11653	-0.00117751	   4.11653	  -29.4378	
   4.19723	-0.00117578	   4.18655	-0.00116611	   4.17838	-0.00116561	   4.18739	-0.00116917	   4.18739	  -29.2292	
    4.2681	-0.00116723	   4.25688	-0.00115792	   4.24896	-0.00115728	   4.25798	-0.00116081	   4.25798	  -29.0202	
   4.33881	-0.00115868	   4.32701	-0.00114967	   4.31923	-0.00114884	   4.32835	-0.0011524	   4.32835	  -28.8099	
   4.40941	-0.00115013	   4.39696	-0.00114129	    4.3895	-0.00114026	   4.39862	-0.0011439	   4.39862	  -28.5974	
   4.47974	-0.00114153	   4.46677	-0.00113277	   4.45951	-0.00113156	   4.46867	-0.00113529	   4.46867	  -28.3822	
   4.55016	-0.00113282	   4.53649	-0.00112415	   4.52958	-0.00112279	   4.53874	-0.00112658	   4.53874	  -28.1646	
   4.62039	-0.00112398	   4.60615	-0.00111548	   4.59945	-0.00111402	   4.60866	-0.00111783	   4.60866	  -27.9456	
   4.69038	-0.00111502	    4.6755	-0.00110681	   4.66902	-0.00110531	    4.6783	-0.00110905	    4.6783	  -27.7262	
   4.76005	-0.00110601	   4.74478	-0.00109816	    4.7384	-0.00109661	   4.74775	-0.00110026	   4.74775	  -27.5064	
   4.82953	-0.00109698	   4.81397	-0.00108947	   4.80771	-0.00108784	   4.81707	-0.00109143	   4.81707	  -27.2857	
   4.89885	-0.00108795	   4.88283	-0.00108068	    4.8767	-0.00107893	   4.88613	-0.00108252	   4.88613	   -27.063	
   4.96819	-0.00107892	   4.95147	-0.00107176	   4.94548	-0.00106984	   4.95505	-0.00107351	   4.95505	  -26.8376	
   5.03729	-0.00106983	   5.02001	-0.00106276	   5.01417	-0.0010606	   5.02382	-0.00106439	   5.02382	  -26.6099	
   5.10606	-0.00106064	   5.08861	-0.00105373	   5.08253	-0.00105132	    5.0924	-0.00105523	    5.0924	  -26.3807	
   5.17455	-0.00105135	    5.1573	-0.00104473	    5.1506	-0.00104208	   5.16082	-0.00104606	   5.16082	  -26.1514	
   5.24282	-0.00104197	   5.22583	-0.00103577	   5.21859	-0.00103293	   5.22908	-0.00103689	   5.22908	  -25.9223	
   5.31074	-0.00103254	   5.29395	-0.00102678	   5.28624	-0.00102381	   5.29698	-0.00102771	   5.29698	  -25.6927	
   5.37853	-0.0010231	    5.3616	-0.00101765	   5.35389	-0.00101463	   5.36467	-0.00101846	   5.36467	  -25.4615	
    5.4461	-0.00101365	   5.42843	-0.00100835	   5.42143	-0.00100529	   5.43199	-0.0010091	   5.43199	  -25.2275	
   5.51321	-0.00100416	   5.49477	-0.000998892	   5.48863	-0.000995781	   5.49887	-0.000999612	   5.49887	  -24.9903	
   5.58012	-0.000994592	   5.56073	-0.000989334	   5.55549	-0.000986151	   5.56545	-0.000990026	   5.56545	  -24.7506	
   5.64684	-0.000984915	   5.62651	-0.000979804	   5.62226	-0.0009765	   5.63187	-0.000980407	   5.63187	  -24.5102	
   5.71327	-0.000975146	   5.69217	-0.000970391	   5.68871	-0.000966902	   5.69805	-0.000970813	   5.69805	  -24.2703	
   5.77957	-0.000965326	   5.75803	-0.000961104	   5.75496	-0.000957363	   5.76419	-0.000961264	   5.76419	  -24.0316	
   5.84569	-0.000955495	   5.82384	-0.000951857	   5.82102	-0.000947814	   5.83018	-0.000951722	   5.83018	  -23.7931	
   5.91153	-0.000945671	   5.88949	-0.00094252	   5.88678	-0.000938175	   5.89594	-0.000942122	   5.89594	   -23.553	
   5.97717	-0.000935835	   5.95464	-0.000932995	    5.9523	-0.000928386	   5.96137	-0.000932405	   5.96137	  -23.3101	
   6.04264	-0.000925962	   6.01958	-0.000923251	    6.0176	-0.00091846	   6.02661	-0.000922558	   6.02661	  -23.0639	
   6.10773	-0.000916018	   6.08429	-0.000913359	   6.08264	-0.000908462	   6.09155	-0.000912613	   6.09155	  -22.8153	
   6.17264	-0.000905986	   6.14855	-0.000903436	   6.14748	-0.000898471	   6.15622	-0.000902631	   6.15622	  -22.5658	
   6.23742	-0.000895849	   6.21283	-0.000893584	   6.21216	-0.000888523	   6.22081	-0.000892652	   6.22081	  -22.3163	
   6.30186	-0.000885612	   6.27692	-0.000883835	   6.27661	-0.000878623	   6.28513	-0.00088269	   6.28513	  -22.0673	
   6.36597	-0.000875309	   6.34081	-0.000874137	   6.34061	-0.000868706	   6.34913	-0.000872718	   6.34913	  -21.8179	
   6.42987	-0.000864981	   6.40448	-0.000864374	   6.40438	-0.000858704	   6.41291	-0.000862686	   6.41291	  -21.5672	
   6.49349	-0.000854664	   6.46799	-0.000854449	   6.46798	-0.000848574	   6.47649	-0.000852562	   6.47649	  -21.3141	
   6.55678	-0.000844383	   6.53112	-0.000844332	    6.5312	-0.000838318	    6.5397	-0.000842345	    6.5397	  -21.0586	
   6.62006	-0.000834127	   6.59402	-0.000834079	   6.59429	-0.000827999	   6.60279	-0.000832068	   6.60279	  -20.8017	
    6.6831	-0.000823862	   6.65682	-0.000823801	   6.65712	-0.000817676	   6.66568	-0.00082178	   6.66568	  -20.5445	
    6.7457	-0.000813541	    6.7193	-0.000813581	   6.71964	-0.000807393	   6.72821	-0.000811505	   6.72821	  -20.2876	
   6.80783	-0.000803119	   6.78178	-0.00080345	   6.78163	-0.000797136	   6.79041	-0.000801235	   6.79041	  -20.0309	
   6.86982	-0.000792587	   6.84397	-0.00079336	    6.8435	-0.000786854	   6.85243	-0.000790934	   6.85243	  -19.7733	
   6.93146	-0.000781965	   6.90591	-0.000783214	   6.90513	-0.000776495	   6.91417	-0.000780558	   6.91417	   -19.514	
    6.9927	-0.000771306	   6.96751	-0.000772936	   6.96647	-0.000766043	   6.97556	-0.000770095	   6.97556	  -19.2524	
   7.05371	-0.000760649	   7.02914	-0.000762493	   7.02769	-0.000755504	   7.03685	-0.000759549	   7.03685	  -18.9887	
   7.11447	-0.00075002	   7.09057	-0.000751924	   7.08875	-0.000744915	   7.09793	-0.000748953	   7.09793	  -18.7238	
   7.17506	-0.0007394	    7.1516	-0.000741329	   7.14957	-0.000734298	   7.15874	-0.000738342	   7.15874	  -18.4586	
    7.2354	-0.000728745	   7.21216	-0.000730772	   7.21024	-0.000723663	   7.21926	-0.000727727	   7.21926	  -18.1932	
   7.29557	-0.000718004	   7.27264	-0.000720306	   7.27081	-0.000713001	   7.27967	-0.000717104	   7.27967	  -17.9276	
   7.35536	-0.000707153	   7.33281	-0.000709884	   7.33108	-0.000702283	   7.33975	-0.00070644	   7.33975	   -17.661	
   7.41474	-0.000696219	   7.39263	-0.000699418	   7.39086	-0.000691509	   7.39941	-0.000695715	   7.39941	  -17.3929	
   7.47365	-0.000685248	   7.45245	-0.000688828	   7.45037	-0.000680684	   7.45883	-0.00068492	   7.45883	   -17.123	
   7.53234	-0.000674297	   7.51206	-0.000678074	   7.50971	-0.000669839	   7.51804	-0.00067407	   7.51804	  -16.8517	
   7.59072	-0.000663378	   7.57126	-0.000667203	   7.56867	-0.000658995	   7.57688	-0.000663192	   7.57688	  -16.5798	
    7.6489	-0.000652474	   7.62987	-0.000656275	   7.62734	-0.000648152	   7.63537	-0.0006523	   7.63537	  -16.3075	
   7.70696	-0.000641531	   7.68827	-0.000645384	    7.6858	-0.000637289	   7.69368	-0.000641401	   7.69368	   -16.035	
   7.76472	-0.000630491	   7.74641	-0.000634566	   7.74401	-0.000626368	   7.75171	-0.000630475	   7.75171	  -15.7619	
   7.82208	-0.000619343	   7.80422	-0.000623805	   7.80188	-0.000615363	   7.80939	-0.000619504	   7.80939	  -15.4876	
   7.87904	-0.00060812	   7.86166	-0.00061303	    7.8594	-0.000604277	    7.8667	-0.000608476	    7.8667	  -15.2119	
   7.93584	-0.000596886	   7.91897	-0.000602173	   7.91678	-0.000593127	   7.92387	-0.000597395	   7.92387	  -14.9349	
   7.99229	-0.000585683	   7.97596	-0.000591194	   7.97385	-0.000581949	    7.9807	-0.000586275	    7.9807	  -14.6569	
   8.04831	-0.000574508	   8.03245	-0.000580094	   8.03042	-0.000570774	   8.03706	-0.000575125	   8.03706	  -14.3781	
   8.10391	-0.00056331	   8.08854	-0.000568917	   8.08659	-0.000559601	   8.09301	-0.000563942	   8.09301	  -14.0986	
   8.15933	-0.000552029	   8.14421	-0.000557719	   8.14247	-0.000548412	   8.14867	-0.00055272	   8.14867	   -13.818	
   8.21439	-0.000540643	   8.19957	-0.000546543	   8.19803	-0.000537173	   8.20399	-0.000541453	   8.20399	  -13.5363	
   8.26903	-0.00052918	   8.25443	-0.000535394	   8.25308	-0.000525862	   8.25885	-0.000530145	   8.25885	  -13.2536	
   8.32351	-0.000517702	   8.30892	-0.000524237	   8.30761	-0.000514477	   8.31335	-0.000518805	   8.31335	  -12.9701	
   8.37767	-0.000506269	   8.36328	-0.000513033	   8.36188	-0.00050304	   8.36761	-0.000507447	   8.36761	  -12.6862	
   8.43146	-0.000494899	   8.41733	-0.000501751	   8.41584	-0.000491591	   8.42154	-0.000496081	   8.42154	   -12.402	
   8.48472	-0.000483551	   8.47089	-0.000490393	   8.46934	-0.000480159	   8.47498	-0.000484701	   8.47498	  -12.1175	
   8.53785	-0.000472153	   8.52409	-0.000478984	   8.52221	-0.000468742	   8.52805	-0.000473293	   8.52805	  -11.8323	
   8.59081	-0.000460646	    8.5769	-0.000467559	   8.57486	-0.000457315	   8.58086	-0.00046184	   8.58086	   -11.546	
   8.64342	-0.00044902	   8.62943	-0.000456135	   8.62726	-0.00044584	   8.63337	-0.000450332	   8.63337	  -11.2583	
   8.69552	-0.000437324	   8.68153	-0.00044471	   8.67924	-0.00043429	   8.68543	-0.000438775	   8.68543	  -10.9694	
   8.74737	-0.000425632	   8.73331	-0.000433258	   8.73065	-0.000422667	   8.73711	-0.000427186	   8.73711	  -10.6796	
   8.79894	-0.000414004	   8.78488	-0.00042176	   8.78189	-0.000410999	   8.78857	-0.000415587	   8.78857	  -10.3897	
   8.85021	-0.000402441	   8.83621	-0.000410206	   8.83276	-0.000399325	   8.83973	-0.00040399	   8.83973	  -10.0998	
   8.90101	-0.000390895	   8.88714	-0.000398605	   8.88327	-0.000387679	   8.89047	-0.000392393	   8.89047	  -9.80983	
   8.95134	-0.000379297	   8.93751	-0.000386971	   8.93329	-0.000376065	   8.94071	-0.000380777	   8.94071	  -9.51944	
    9.0016	-0.000367595	   8.98746	-0.000375309	    8.9832	-0.000364457	   8.99075	-0.000369121	   8.99075	  -9.22801	
   9.05162	-0.000355789	   9.03727	-0.000363642	   9.03298	-0.000352806	   9.04062	-0.000357412	   9.04062	  -8.93531	
   9.10123	-0.000343922	   9.08675	-0.000351961	   9.08245	-0.000341072	   9.09014	-0.000345652	   9.09014	  -8.64129	
    9.1503	-0.000332065	   9.13576	-0.000340268	   9.13148	-0.000329251	   9.13918	-0.000333861	   9.13918	  -8.34654	
   9.19909	-0.000320268	   9.18416	-0.000328551	   9.18004	-0.000317374	   9.18777	-0.000322064	   9.18777	  -8.05161	
   9.24774	-0.000308535	   9.23218	-0.000316806	   9.22839	-0.00030551	    9.2361	-0.000310284	    9.2361	  -7.75709	
   9.29607	-0.000296824	   9.27989	-0.000305033	   9.27641	-0.000293713	   9.28412	-0.000298523	   9.28412	  -7.46308	
   9.34408	-0.000285073	   9.32726	-0.000293221	   9.32409	-0.000281974	   9.33181	-0.000286756	   9.33181	   -7.1689	
   9.39147	-0.000273239	   9.37416	-0.000281371	   9.37127	-0.000270257	   9.37897	-0.000274955	   9.37897	  -6.87388	
   9.43848	-0.000261317	   9.42078	-0.000269474	   9.41817	-0.000258472	   9.42581	-0.000263088	   9.42581	  -6.57719	
    9.4852	-0.000249344	   9.46688	-0.000257557	   9.46476	-0.000246553	   9.47228	-0.000251152	   9.47228	  -6.27879	
   9.53159	-0.000237381	   9.51279	-0.000245674	   9.51112	-0.000234476	    9.5185	-0.000239177	    9.5185	  -5.97943	
   9.57751	-0.000225468	   9.55836	-0.000233853	   9.55711	-0.0002223	   9.56433	-0.000227207	   9.56433	  -5.68018	
   9.62284	-0.00021361	   9.60344	-0.000222073	   9.60259	-0.000210139	   9.60962	-0.000215274	   9.60962	  -5.38185	
    9.6677	-0.000201772	   9.64804	-0.000210262	   9.64755	-0.0001981	   9.65443	-0.000203378	   9.65443	  -5.08445	
   9.71226	-0.000189896	   9.69233	-0.000198361	   9.69216	-0.000186225	   9.69892	-0.000191494	   9.69892	  -4.78735	
   9.75655	-0.000177946	   9.73644	-0.000186344	   9.73644	-0.000174453	   9.74314	-0.000179581	   9.74314	  -4.48953	
   9.80041	-0.000165921	   9.78023	-0.000174231	   9.78038	-0.000162663	   9.78701	-0.000167605	   9.78701	  -4.19012	
   9.84373	-0.000153852	   9.82357	-0.00016214	   9.82386	-0.000150738	   9.83039	-0.000155577	   9.83039	  -3.88942	
    9.8868	-0.000141793	   9.86635	-0.00015013	   9.86676	-0.000138631	    9.8733	-0.000143518	    9.8733	  -3.58795	
   9.92936	-0.00012978	   9.90872	-0.000138243	   9.90925	-0.00012639	   9.91578	-0.000131471	   9.91578	  -3.28677	
    9.9717	-0.000117815	   9.95064	-0.000126413	   9.95144	-0.000114125	   9.95793	-0.000119451	   9.95793	  -2.98628	
   10.0137	-0.000105869	   9.99222	-0.000114553	   9.99326	-0.000101956	   9.99972	-0.00010746	   9.99972	  -2.68649	
   10.0552	-9.39034e-05	   10.0335	-0.00010257	   10.0347	-8.99365e-05	   10.0411	-9.54701e-05	   10.0411	  -2.38675	
   10.0963	-8.18759e-05	   10.0742	-9.04554e-05	   10.0757	-7.80274e-05	   10.0821	-8.34529e-05	   10.0821	  -2.08632	
   10.1368	-6.97749e-05	   10.1144	-7.82829e-05	   10.1161	-6.61317e-05	   10.1224	-7.13965e-05	   10.1224	  -1.78491	
    10.177	-5.76141e-05	   10.1542	-6.61538e-05	   10.1561	-5.41381e-05	   10.1624	-5.9302e-05	   10.1624	  -1.48255	
    10.217	-4.54412e-05	   10.1937	-5.41375e-05	   10.1958	-4.19849e-05	   10.2022	-4.71879e-05	   10.2022	   -1.1797	
   10.2567	-3.33025e-05	   10.2329	-4.22272e-05	   10.2353	-2.9697e-05	   10.2416	-3.50755e-05	   10.2416	 -0.876889	
   10.2958	-2.12219e-05	   10.2717	-3.03596e-05	   10.2745	-1.73784e-05	   10.2807	-2.29866e-05	   10.2807	 -0.574666	
   10.3344	-9.18763e-06	   10.3101	-1.84426e-05	   10.3132	-5.15547e-06	   10.3192	-1.09286e-05	   10.3192	 -0.273214	
   10.3723	2.84172e-06	   10.3479	-6.43036e-06	   10.3514	6.89998e-06	   10.3572	1.10378e-06	   10.3572	 0.0275945	
   10.4099	1.49021e-05	   10.3853	5.66516e-06	   10.3891	1.88099e-05	   10.3948	1.31257e-05	   10.3948	  0.328143	
   10.4474	2.69951e-05	   10.4223	1.77809e-05	   10.4263	3.06653e-05	    10.432	2.51471e-05	    10.432	  0.628678	
   10.4844	3.91155e-05	    10.459	2.98444e-05	   10.4633	4.25857e-05	   10.4689	3.71819e-05	   10.4689	  0.929547	
    10.521	5.12586e-05	   10.4955	4.18168e-05	      10.5	5.46475e-05	   10.5055	4.9241e-05	   10.5055	   1.23102	
   10.5572	6.34242e-05	   10.5316	5.37059e-05	   10.5363	6.68496e-05	   10.5417	6.13266e-05	   10.5417	   1.53316	
   10.5928	7.5602e-05	   10.5672	6.55702e-05	    10.572	7.91167e-05	   10.5773	7.34296e-05	   10.5773	   1.83574	
   10.6277	8.78042e-05	   10.6023	7.74747e-05	   10.6073	9.13313e-05	   10.6124	8.55367e-05	   10.6124	   2.13842	
   10.6623	0.000100026	    10.637	8.94542e-05	   10.6422	0.000103413	   10.6472	9.7631e-05	   10.6472	   2.44077	
   10.6967	0.000112232	   10.6711	0.000101498	   10.6767	0.000115352	   10.6815	0.000109694	   10.6815	   2.74235	
   10.7309	0.000124384	   10.7051	0.000113559	   10.7107	0.00012722	   10.7156	0.000121721	   10.7156	   3.04303	
   10.7648	0.000136448	   10.7389	0.000125579	   10.7445	0.000139122	   10.7494	0.000133716	   10.7494	   3.34291	
   10.7982	0.000148436	   10.7723	0.000137517	    10.778	0.000151129	   10.7828	0.000145694	   10.7828	   3.64235	
    10.831	0.00016039	   10.8053	0.000149383	    10.811	0.000163245	   10.8158	0.000157673	   10.8158	   3.94182	
   10.8633	0.000172373	   10.8378	0.000161221	   10.8435	0.000175399	   10.8482	0.000169665	   10.8482	   4.24162	
   10.8951	0.000184429	   10.8697	0.00017309	   10.8753	0.000187497	     10.88	0.000181672	     10.88	    4.5418	
   10.9265	0.000196549	    10.901	0.000185022	   10.9068	0.000199478	   10.9114	0.000193683	   10.9114	   4.84207	
   10.9576	0.000208685	   10.9319	0.000197008	   10.9378	0.000211339	   10.9424	0.000205678	   10.9424	   5.14194	
   10.9884	0.000220776	   10.9624	0.000208997	   10.9683	0.000223142	    10.973	0.000217638	    10.973	   5.44096	
   11.0189	0.000232781	   10.9927	0.000220926	   10.9985	0.000234977	   11.0034	0.000229561	   11.0034	   5.73904	
    11.049	0.000244718	   11.0228	0.000232766	   11.0284	0.000246908	   11.0334	0.000241464	   11.0334	    6.0366	
   11.0786	0.000256615	   11.0523	0.00024453	   11.0579	0.000258934	   11.0629	0.00025336	   11.0629	   6.33399	
   11.1077	0.000268517	   11.0814	0.000256264	    11.087	0.000270994	    11.092	0.000265259	    11.092	   6.63146	
   11.1361	0.000280426	     11.11	0.000268024	   11.1156	0.000282997	   11.1206	0.000277149	   11.1206	   6.92872	
   11.1641	0.00029233	   11.1381	0.000279839	   11.1436	0.000294874	   11.1486	0.000289015	   11.1486	   7.22536	
   11.1913	0.000304209	   11.1655	0.000291711	   11.1711	0.000306625	    11.176	0.000300848	    11.176	    7.5212	
   11.2182	0.000316047	   11.1925	0.000303609	   11.1979	0.000318311	   11.2028	0.000312656	   11.2028	   7.81639	
   11.2445	0.000327856	   11.2188	0.000315479	   11.2242	0.000330032	   11.2292	0.000324456	   11.2292	    8.1114	
   11.2707	0.000339658	   11.2448	0.000327275	     11.25	0.000341858	   11.2552	0.000336264	   11.2552	    8.4066	
   11.2966	0.000351478	   11.2704	0.000338974	   11.2757	0.000353767	   11.2809	0.000348073	   11.2809	   8.70182	
   11.3222	0.000363315	   11.2956	0.000350592	   11.3012	 0.0003657	   11.3063	0.000359869	   11.3063	   8.99672	
   11.3474	0.00037515	   11.3205	0.000362173	   11.3263	0.000377553	   11.3314	0.000371625	   11.3314	   9.29063	
   11.3721	0.000386948	    11.345	0.000373764	   11.3511	0.000389281	   11.3561	0.000383331	   11.3561	   9.58328	
   11.3963	0.000398688	    11.369	 0.0003854	   11.3755	0.000400892	   11.3803	0.000394993	   11.3803	   9.87483	
     11.42	0.000410368	   11.3926	0.000397074	   11.3994	0.00041246	    11.404	0.000406634	    11.404	   10.1659	
   11.4431	0.000422006	   11.4157	0.000408749	   11.4227	0.000424077	   11.4272	0.000418277	   11.4272	   10.4569	
   11.4655	0.000433625	   11.4384	0.000420368	   11.4456	0.00043579	   11.4498	0.000429928	   11.4498	   10.7482	
   11.4873	0.000445244	   11.4604	0.000431888	   11.4678	0.000447556	   11.4718	0.000441563	   11.4718	   11.0391	
   11.5084	0.000456867	   11.4819	0.000443313	   11.4894	0.000459302	   11.4932	0.000453161	   11.4932	    11.329	
   11.5292	0.000468486	   11.5029	0.000454695	   11.5104	0.000470948	   11.5142	0.00046471	   11.5142	   11.6178	
   11.5495	0.000480073	   11.5232	0.000466103	   11.5311	0.00048248	   11.5346	0.000476219	   11.5346	   11.9055	
   11.5696	0.000491602	   11.5428	0.000477568	   11.5513	0.00049392	   11.5546	0.000487696	   11.5546	   12.1924	
   11.5894	0.000503052	   11.5618	0.000489066	   11.5709	0.000505333	    11.574	0.00049915	    11.574	   12.4788	
   11.6089	0.000514423	   11.5802	0.000500534	     11.59	0.000516788	   11.5931	0.000510582	   11.5931	   12.7645	
   11.6281	0.000525744	   11.5983	0.000511914	   11.6087	 0.0005283	   11.6117	0.000521986	   11.6117	   13.0497	
    11.647	0.000537056	   11.6162	0.000523198	    11.627	0.000539843	   11.6301	0.000533366	   11.6301	   13.3341	
   11.6655	0.000548391	   11.6339	0.00053441	   11.6452	0.000551354	   11.6482	0.000544718	   11.6482	    13.618	
   11.6835	0.000559755	   11.6514	0.00054562	    11.663	0.000562771	    11.666	0.000556049	    11.666	   13.9012	
   11.7012	0.000571115	   11.6684	0.000556843	   11.6805	0.000574076	   11.6834	0.000567344	   11.6834	   14.1836	
   11.7184	0.000582425	    11.685	0.00056809	   11.6978	0.000585291	   11.7004	0.000578602	   11.7004	   14.4651	
   11.7351	0.000593651	   11.7013	0.000579292	   11.7146	0.000596483	    11.717	0.000589809	    11.717	   14.7452	
   11.7513	0.000604781	    11.717	0.000590416	   11.7311	0.000607701	   11.7332	0.000600966	   11.7332	   15.0241	
   11.7671	0.000615838	   11.7326	0.000601448	   11.7472	0.000618971	    11.749	0.000612086	    11.749	   15.3021	
   11.7824	0.000626859	   11.7477	0.000612394	   11.7629	0.000630273	   11.7643	0.000623175	   11.7643	   15.5794	
   11.7971	0.000637875	   11.7628	0.000623296	   11.7781	0.00064155	   11.7793	0.00063424	   11.7793	    15.856	
   11.8114	0.00064891	   11.7768	0.000634186	   11.7928	0.000652739	   11.7936	0.000645278	   11.7936	    16.132	
   11.8251	0.000659945	   11.7903	0.00064507	    11.807	0.000663816	   11.8075	0.000656277	   11.8075	   16.4069	
   11.8383	0.000670945	   11.8037	0.000655945	   11.8208	0.000674796	   11.8209	0.000667229	   11.8209	   16.6807	
    11.851	0.000681864	   11.8163	0.000666788	   11.8341	0.000685731	   11.8338	0.000678128	   11.8338	   16.9532	
   11.8632	0.000692676	   11.8287	0.000677588	   11.8468	0.000696681	   11.8462	0.000688981	   11.8462	   17.2245	
   11.8748	0.000703406	   11.8405	0.000688328	    11.859	0.000707664	   11.8581	0.000699799	   11.8581	    17.495	
   11.8859	0.00071408	   11.8519	0.000698991	   11.8708	0.000718657	   11.8695	0.000710576	   11.8695	   17.7644	
   11.8964	0.00072476	   11.8627	0.000709579	    11.882	0.000729594	   11.8804	0.000721311	   11.8804	   18.0328	
   11.9065	0.000735466	    11.873	0.000720095	   11.8927	0.000740418	   11.8908	0.000731993	   11.8908	   18.2998	
    11.916	0.000746179	    11.883	0.000730562	    11.903	0.000751121	   11.9006	0.000742621	   11.9006	   18.5655	
   11.9251	0.000756872	   11.8925	0.000741015	   11.9127	0.000761732	   11.9101	0.000753206	   11.9101	   18.8302	
   11.9336	0.000767475	   11.9014	0.00075148	   11.9219	0.000772318	    11.919	0.000763757	    11.919	   19.0939	
   11.9417	0.000777978	   11.9099	0.000761957	   11.9307	0.000782925	   11.9274	0.000774287	   11.9274	   19.3572	
   11.9493	0.000788391	    11.918	0.000772418	   11.9389	0.000793554	   11.9354	0.000784788	   11.9354	   19.6197	
   11.9565	0.000798759	   11.9257	0.000782828	   11.9468	0.000804161	    11.943	0.00079525	    11.943	   19.8812	
   11.9632	0.000809131	    11.933	0.000793156	   11.9541	0.000814697	   11.9501	0.000805662	   11.9501	   20.1415	
   11.9694	0.000819507	   11.9399	0.000803397	   11.9611	0.000825122	   11.9568	0.000816009	   11.9568	   20.4002	
   11.9753	0.000829863	   11.9464	0.000813561	   11.9676	0.000835447	   11.9631	0.00082629	   11.9631	   20.6573	
   11.9808	0.000840168	   11.9525	0.00082368	   11.9737	0.000845713	    11.969	0.00083652	    11.969	    20.913	
   11.9858	0.000850392	    11.958	0.000833783	   11.9793	0.000855957	   11.9744	0.000846711	   11.9744	   21.1678	
   11.9904	0.000860534	   11.9633	0.000843879	   11.9846	0.000866209	   11.9794	0.000856874	   11.9794	   21.4219	
   11.9947	0.000870608	   11.9681	0.000853961	   11.9894	0.000876452	   11.9841	0.000867007	   11.9841	   21.6752	
   11.9984	0.000880647	   11.9724	0.000863997	   11.9939	0.000886662	   11.9882	0.000877102	   11.9882	   21.9276	
   12.0019	0.000890672	   11.9763	0.000873962	   11.9976	 0.0008968	   11.9919	0.000887145	   11.9919	   22.1786	
   12.0047	0.000900684	   11.9797	0.000883852	   12.0011	0.000906844	   11.9952	0.000897127	   11.9952	   22.4282	
    12.007	0.00091067	   11.9827	0.000893685	   12.0042	0.000916808	    11.998	0.000907054	    11.998	   22.6764	
   12.0089	0.000920601	    11.985	0.000903484	   12.0067	0.000926717	   12.0002	0.000916934	   12.0002	   22.9234	
   12.0105	0.000930448	   11.9867	0.00091327	   12.0087	0.000936598	    12.002	0.000926772	    12.002	   23.1693	
   12.0118	0.000940199	   11.9879	0.000923041	   12.0101	0.000946472	   12.0033	0.000936571	   12.0033	   23.4143	
   12.0124	0.000949862	   11.9883	0.000932774	   12.0108	0.000956326	   12.0038	0.000946321	   12.0038	    23.658	
   12.0126	0.000959467	    11.988	0.000942442	   12.0111	0.000966142	   12.0039	0.000956017	   12.0039	   23.9004	
   12.0123	0.000969049	   11.9872	0.000952048	   12.0106	0.000975893	   12.0034	0.000965664	   12.0034	   24.1416	
   12.0114	0.000978636	   11.9859	0.000961583	   12.0095	0.000985559	   12.0023	0.000975259	   12.0023	   24.3815	
   12.0099	0.000988219	   11.9841	0.000971066	   12.0078	0.000995142	   12.0006	0.000984809	   12.0006	   24.6202	
    12.008	0.000997759	   11.9819	0.00098051	   12.0056	0.00100466	   11.9985	0.000994311	   11.9985	   24.8578	
   12.0055	0.00100722	   11.9792	0.000989924	   12.0028	0.00101415	   11.9958	0.00100376	   11.9958	   25.0941	
   12.0025	0.00101656	   11.9762	0.000999299	   11.9997	0.00102362	   11.9928	0.00101316	   11.9928	    25.329	
   11.9991	0.00102582	   11.9729	0.00100863	   11.9961	0.00103308	   11.9894	0.00102251	   11.9894	   25.5627	
   11.9953	0.00103503	   11.9693	0.00101792	    11.992	0.00104249	   11.9856	0.00103181	   11.9856	   25.7953	
    11.991	0.00104424	   11.9651	0.00102716	   11.9877	0.00105183	   11.9813	0.00104108	   11.9813	   26.0269	
   11.9864	0.00105347	   11.9606	0.00103636	    11.983	0.00106108	   11.9767	 0.0010503	   11.9767	   26.2576	
   11.9815	0.00106269	   11.9556	0.00104551	   11.9781	0.00107026	   11.9717	0.00105949	   11.9717	   26.4871	
   11.9761	0.00107186	   11.9498	0.00105462	   11.9728	0.00107937	   11.9662	0.00106862	   11.9662	   26.7154	
   11.9698	0.00108093	   11.9434	0.00106368	   11.9668	0.00108847	     11.96	0.00107769	     11.96	   26.9423	
   11.9631	 0.0010899	   11.9364	0.00107268	   11.9601	0.00109755	   11.9532	0.00108671	   11.9532	   27.1677	
   11.9558	0.00109878	   11.9288	0.00108164	   11.9528	 0.0011066	   11.9458	0.00109567	   11.9458	   27.3918	
   11.9478	0.00110761	   11.9209	0.00109056	    11.945	0.00111558	   11.9379	0.00110458	   11.9379	   27.6146	
   11.9394	0.00111643	   11.9125	0.00109943	   11.9366	0.00112445	   11.9295	0.00111344	   11.9295	   27.8359	
   11.9305	0.00112524	   11.9038	0.00110825	   11.9279	0.00113319	   11.9207	0.00112223	   11.9207	   28.0558	
   11.9213	0.00113403	   11.8947	0.00111701	   11.9188	0.00114183	   11.9116	0.00113096	   11.9116	    28.274	
   11.9118	0.00114276	   11.8852	0.00112572	   11.9093	0.00115042	   11.9021	0.00113963	   11.9021	   28.4908	
   11.9021	0.00115138	   11.8752	0.00113437	   11.8994	0.00115902	   11.8922	0.00114826	   11.8922	   28.7064	
   11.8918	0.00115989	   11.8646	0.00114299	    11.889	0.00116763	   11.8818	0.00115684	   11.8818	   28.9209	
   11.8812	0.00116832	   11.8534	0.00115158	    11.878	0.00117622	   11.8709	0.00116537	   11.8709	   29.1343	
   11.8699	0.00117669	   11.8417	0.00116012	   11.8664	0.00118471	   11.8593	0.00117384	   11.8593	    29.346	
   11.8579	0.00118505	   11.8296	 0.0011686	   11.8543	0.00119305	   11.8473	0.00118223	   11.8473	   29.5558	
   11.8455	0.00119339	   11.8171	0.00117697	   11.8417	0.00120125	   11.8348	0.00119054	   11.8348	   29.7635	
   11.8326	0.00120172	   11.8039	0.00118524	   11.8287	0.00120935	   11.8217	0.00119877	   11.8217	   29.9692	
   11.8194	0.00120998	   11.7904	0.00119342	   11.8154	0.00121744	   11.8084	0.00120694	   11.8084	   30.1736	
   11.8058	0.00121815	   11.7762	0.00120152	   11.8017	0.00122555	   11.7945	0.00121507	   11.7945	   30.3769	
   11.7917	0.00122621	   11.7618	0.00120961	   11.7876	0.00123373	   11.7804	0.00122318	   11.7804	   30.5795	
   11.7772	0.00123418	   11.7469	0.00121771	   11.7729	 0.0012419	   11.7657	0.00123126	   11.7657	   30.7816	
   11.7619	 0.0012421	   11.7316	0.00122583	   11.7577	0.00124995	   11.7504	 0.0012393	   11.7504	   30.9824	
   11.7461	   0.00125	   11.7157	0.00123396	    11.742	 0.0012578	   11.7346	0.00124725	   11.7346	   31.1813	
   11.7299	0.00125789	   11.6995	0.00124201	   11.7264	0.00126541	   11.7186	 0.0012551	   11.7186	   31.3776	
   11.7133	0.00126576	   11.6829	0.00124993	    11.711	0.00127286	   11.7024	0.00126285	   11.7024	   31.5712	
   11.6964	0.00127355	    11.666	0.00125767	   11.6952	0.00128025	   11.6859	0.00127049	   11.6859	   31.7623	
   11.6793	0.00128126	   11.6487	0.00126526	    11.679	0.00128771	    11.669	0.00127808	    11.669	   31.9519	
   11.6617	0.00128887	    11.631	0.00127277	   11.6619	0.00129528	   11.6515	0.00128564	   11.6515	    32.141	
   11.6433	 0.0012964	   11.6128	0.00128026	   11.6438	0.00130293	   11.6333	 0.0012932	   11.6333	     32.33	
   11.6245	0.00130389	   11.5941	 0.0012878	   11.6245	0.00131057	   11.6144	0.00130075	   11.6144	   32.5188	
   11.6051	0.00131134	   11.5749	0.00129537	   11.6042	0.00131806	   11.5947	0.00130826	   11.5947	   32.7065	
   11.5855	0.00131878	   11.5555	0.00130294	   11.5831	0.00132533	   11.5747	0.00131568	   11.5747	   32.8921	
   11.5656	0.00132619	   11.5354	0.00131043	   11.5617	0.00133242	   11.5542	0.00132301	   11.5542	   33.0753	
   11.5453	0.00133353	   11.5149	0.00131779	     11.54	0.00133942	   11.5334	0.00133025	   11.5334	   33.2561	
   11.5243	 0.0013408	   11.4938	  0.001325	   11.5183	0.00134645	   11.5121	0.00133742	   11.5121	   33.4354	
   11.5027	0.00134797	   11.4722	 0.0013321	   11.4961	 0.0013536	   11.4904	0.00134456	   11.4904	   33.6139	
   11.4807	0.00135507	   11.4504	0.00133912	   11.4737	0.00136084	   11.4682	0.00135168	   11.4682	   33.7919	
   11.4583	0.00136211	   11.4283	0.00134611	   11.4509	0.00136805	   11.4458	0.00135876	   11.4458	   33.9689	
   11.4357	0.00136912	   11.4057	0.00135309	   11.4281	 0.0013751	   11.4232	0.00136577	   11.4232	   34.1442	
   11.4127	 0.0013761	   11.3825	0.00136003	   11.4045	0.00138189	   11.3999	0.00137268	   11.3999	   34.3169	
   11.3891	0.00138305	   11.3587	0.00136693	   11.3804	0.00138847	   11.3761	0.00137949	   11.3761	   34.4871	
   11.3649	0.00138994	   11.3345	0.00137377	   11.3558	0.00139497	   11.3517	0.00138623	   11.3517	   34.6557	
   11.3403	0.00139674	     11.31	0.00138056	   11.3309	0.00140154	   11.3271	0.00139295	   11.3271	   34.8237	
   11.3154	0.00140346	   11.2852	0.00138731	   11.3058	0.00140825	   11.3021	0.00139967	   11.3021	   34.9918	
   11.2903	0.00141012	   11.2598	0.00139402	   11.2803	0.00141505	   11.2768	 0.0014064	   11.2768	   35.1599	
   11.2645	0.00141672	   11.2338	0.00140069	   11.2542	0.00142182	   11.2508	0.00141308	   11.2508	   35.3269	
    11.238	0.00142325	   11.2074	0.00140729	   11.2277	0.00142841	   11.2244	0.00141965	   11.2244	   35.4913	
   11.2112	0.00142969	   11.1806	0.00141379	   11.2007	0.00143476	   11.1975	0.00142608	   11.1975	    35.652	
    11.184	0.00143604	   11.1535	0.00142018	   11.1734	0.00144093	   11.1703	0.00143238	   11.1703	   35.8095	
   11.1565	0.00144232	   11.1261	0.00142646	   11.1457	0.00144703	   11.1427	0.00143861	   11.1427	   35.9651	
   11.1286	0.00144856	   11.0982	 0.0014327	   11.1174	0.00145319	   11.1147	0.00144481	   11.1147	   36.1204	
   11.1001	0.00145477	   11.0698	0.00143891	   11.0887	0.00145946	   11.0862	0.00145105	   11.0862	   36.2762	
   11.0711	0.00146095	   11.0411	0.00144513	   11.0595	0.00146578	   11.0572	0.00145728	   11.0572	   36.4321	
   11.0418	0.00146708	   11.0122	0.00145132	   11.0302	0.00147204	   11.0281	0.00146348	   11.0281	   36.5871	
    11.012	0.00147315	   10.9828	0.00145746	   11.0003	0.00147815	   10.9984	0.00146959	   10.9984	   36.7397	
   10.9818	0.00147913	    10.953	0.00146351	   10.9699	0.00148408	   10.9682	0.00147557	   10.9682	   36.8893	
   10.9509	0.00148502	   10.9226	0.00146945	   10.9389	0.00148987	   10.9375	0.00148144	   10.9375	   37.0361	
   10.9197	0.00149084	    10.892	 0.0014753	   10.9076	 0.0014956	   10.9064	0.00148724	   10.9064	   37.1811	
   10.8882	0.00149658	   10.8611	0.00148109	    10.876	0.00150137	   10.8751	0.00149301	   10.8751	   37.3254	
   10.8564	0.00150228	   10.8296	0.00148685	   10.8437	 0.0015072	   10.8432	0.00149878	   10.8432	   37.4694	
   10.8239	0.00150794	   10.7976	 0.0014926	    10.811	0.00151305	   10.8108	0.00150453	   10.8108	   37.6132	
   10.7909	0.00151358	   10.7651	0.00149832	   10.7779	0.00151883	    10.778	0.00151024	    10.778	    37.756	
   10.7576	0.00151919	   10.7324	0.00150398	   10.7446	0.00152446	   10.7449	0.00151588	   10.7449	   37.8969	
   10.7241	0.00152475	   10.6992	0.00150956	   10.7109	0.00152992	   10.7114	0.00152141	   10.7114	   38.0353	
   10.6899	0.00153021	   10.6654	0.00151504	   10.6766	0.00153527	   10.6773	0.00152684	   10.6773	    38.171	
   10.6552	0.00153556	   10.6311	0.00152043	   10.6418	0.00154056	   10.6427	0.00153218	   10.6427	   38.3046	
   10.6202	0.00154086	   10.5966	0.00152575	   10.6067	0.00154587	   10.6078	0.00153749	   10.6078	   38.4373	
   10.5849	0.00154612	   10.5616	0.00153102	   10.5713	0.00155123	   10.5726	0.00154279	   10.5726	   38.5698	
   10.5491	0.00155137	   10.5261	0.00153627	   10.5353	 0.0015566	   10.5368	0.00154808	   10.5368	    38.702	
   10.5126	0.00155656	   10.4901	0.00154149	   10.4989	0.00156191	   10.5006	0.00155332	   10.5006	    38.833	
    10.477	0.00156167	   10.4538	0.00154669	   10.4621	0.00156708	   10.4643	0.00155848	   10.4643	    38.962	
    10.441	0.00156665	    10.417	0.00155183	   10.4251	0.00157208	   10.4277	0.00156352	   10.4277	    39.088	
   10.4056	0.00157154	   10.3797	0.00155689	   10.3875	0.00157693	   10.3909	0.00156845	   10.3909	   39.2113	
   10.3682	0.00157639	   10.3418	0.00156185	   10.3494	 0.0015817	   10.3531	0.00157331	   10.3531	   39.3328	
   10.3308	0.00158129	   10.3035	0.00156672	    10.311	0.00158646	   10.3151	0.00157816	   10.3151	   39.4539	
   10.2921	0.00158626	   10.2648	0.00157154	    10.272	0.00159128	   10.2763	0.00158303	   10.2763	   39.5756	
    10.253	0.00159124	   10.2255	0.00157635	   10.2326	0.00159612	    10.237	0.00158791	    10.237	   39.6976	
   10.2127	0.00159616	   10.1857	0.00158115	   10.1927	0.00160092	    10.197	0.00159274	    10.197	   39.8186	
   10.1725	0.00160093	   10.1456	 0.0015859	   10.1525	0.00160557	   10.1569	0.00159747	   10.1569	   39.9367	
   10.1318	0.00160552	   10.1052	0.00159056	    10.112	0.00161005	   10.1163	0.00160204	   10.1163	   40.0511	
    10.091	0.00160999	   10.0642	0.00159507	   10.0709	0.00161439	   10.0754	0.00160649	   10.0754	   40.1622	
   10.0497	0.00161442	   10.0229	0.00159945	   10.0293	0.00161867	    10.034	0.00161085	    10.034	   40.2712	
   10.0085	0.00161885	   9.98107	0.00160373	   9.98755	0.00162297	   9.99238	0.00161519	   9.99238	   40.3796	
    9.9666	0.00162331	   9.93879	0.00160798	   9.94548	 0.0016273	   9.95029	0.00161953	   9.95029	   40.4882	
   9.92469	0.00162773	   9.89599	0.00161227	   9.90284	0.00163159	   9.90784	0.00162387	   9.90784	   40.5966	
   9.88212	 0.0016321	   9.85286	0.00161657	   9.85984	0.00163578	   9.86494	0.00162815	   9.86494	   40.7037	
   9.83925	0.00163635	   9.80942	0.00162084	   9.81666	 0.0016398	   9.82178	0.00163233	   9.82178	   40.8082	
   9.79568	0.00164048	   9.76557	  0.001625	   9.77302	0.00164366	   9.77809	0.00163638	   9.77809	   40.9095	
   9.75178	0.00164451	   9.72126	0.00162899	   9.72888	0.00164744	   9.73397	0.00164032	   9.73397	   41.0079	
   9.70747	0.00164847	   9.67658	0.00163284	   9.68418	0.00165122	   9.68941	0.00164417	   9.68941	   41.1044	
   9.66296	0.00165238	   9.63166	0.00163658	   9.63923	0.00165506	   9.64462	0.00164801	   9.64462	   41.2001	
   9.61784	0.00165625	    9.5863	0.00164029	   9.59381	0.00165894	   9.59932	0.00165183	   9.59932	   41.2957	
   9.57221	0.00166008	   9.54059	0.00164401	   9.54802	0.00166279	   9.55361	0.00165563	   9.55361	   41.3907	
    9.5263	0.00166386	   9.49458	0.00164774	   9.50205	0.00166651	   9.50764	0.00165937	   9.50764	   41.4842	
   9.47994	0.00166757	   9.44827	0.00165144	   9.45557	0.00167003	   9.46126	0.00166301	   9.46126	   41.5753	
     9.433	0.00167119	    9.4015	0.00165504	   9.40862	0.00167339	   9.41437	0.00166654	   9.41437	   41.6635	
    9.3857	0.00167476	   9.35449	 0.0016585	   9.36142	0.00167666	   9.36721	0.00166997	   9.36721	   41.7492	
   9.33798	0.00167826	   9.30728	0.00166182	   9.31375	0.00167991	   9.31967	0.00167333	   9.31967	   41.8333	
   9.28979	0.00168173	    9.2597	0.00166504	   9.26571	0.00168322	   9.27173	0.00167666	   9.27173	   41.9166	
   9.24119	0.00168515	   9.21177	0.00166823	   9.21734	0.00168655	   9.22343	0.00167997	   9.22343	   41.9994	
   9.19237	0.00168848	   9.16356	0.00167142	   9.16871	0.00168984	   9.17488	0.00168325	   9.17488	   42.0812	
     9.143	0.00169173	   9.11472	0.00167462	   9.11961	0.00169302	   9.12578	0.00168645	   9.12578	   42.1614	
   9.09317	0.00169487	   9.06549	 0.0016778	   9.07011	0.00169603	   9.07626	0.00168957	   9.07626	   42.2391	
   9.04308	0.00169794	   9.01607	 0.0016809	   9.02043	0.00169888	   9.02653	0.00169257	   9.02653	   42.3143	
    8.9924	0.00170097	   8.96624	0.00168387	    8.9705	0.00170164	   8.97638	0.00169549	   8.97638	   42.3874	
   8.94122	0.00170399	   8.91596	 0.0016867	    8.9201	 0.0017044	   8.92576	0.00169836	   8.92576	    42.459	
   8.88978	0.00170698	   8.86544	0.00168943	   8.86945	0.00170719	   8.87489	 0.0017012	   8.87489	   42.5301	
   8.83816	0.00170993	   8.81466	0.00169213	   8.81865	0.00171001	   8.82383	0.00170402	   8.82383	   42.6006	
   8.78601	0.00171279	   8.76337	0.00169486	   8.76733	0.00171278	   8.77224	0.00170681	   8.77224	   42.6703	
   8.73355	0.00171555	   8.71179	0.00169761	   8.71572	0.00171544	   8.72035	0.00170953	   8.72035	   42.7383	
   8.68083	0.00171821	   8.65998	0.00170033	   8.66368	0.00171794	   8.66816	0.00171216	   8.66816	    42.804	
   8.62778	 0.0017208	   8.60761	0.00170296	   8.61133	0.00172031	   8.61558	0.00171469	   8.61558	   42.8672	
   8.57439	0.00172335	   8.55494	0.00170545	   8.55866	 0.0017226	   8.56266	0.00171713	   8.56266	   42.9283	
   8.52089	0.00172589	   8.50204	 0.0017078	   8.50574	0.00172489	   8.50956	0.00171953	   8.50956	   42.9882	
   8.46713	0.00172841	   8.44875	0.00171008	   8.45242	 0.0017272	    8.4561	 0.0017219	    8.4561	   43.0474	
   8.41299	0.00173087	   8.39523	0.00171235	   8.39874	0.00172951	   8.40232	0.00172425	   8.40232	   43.1061	
   8.35856	0.00173324	   8.34144	0.00171466	   8.34495	0.00173176	   8.34832	0.00172655	   8.34832	   43.1638	
   8.30379	0.00173551	   8.28707	0.00171696	   8.29082	0.00173389	   8.29389	0.00172879	   8.29389	   43.2197	
   8.24863	0.00173767	   8.23235	0.00171921	   8.23631	0.00173589	    8.2391	0.00173093	    8.2391	   43.2731	
   8.19333	0.00173976	   8.17751	0.00172134	   8.18154	 0.0017378	   8.18413	0.00173297	   8.18413	   43.3242	
   8.13767	 0.0017418	   8.12209	0.00172333	   8.12643	0.00173967	   8.12873	0.00173494	   8.12873	   43.3734	
   8.08162	0.00174383	   8.06633	 0.0017252	   8.07094	0.00174157	   8.07296	0.00173687	   8.07296	   43.4217	
   8.02542	0.00174583	   8.01046	0.00172701	    8.0153	0.00174349	   8.01706	0.00173877	   8.01706	   43.4694	
   7.96883	0.00174777	   7.95412	0.00172881	   7.95939	0.00174537	   7.96078	0.00174065	   7.96078	   43.5163	
   7.91185	0.00174964	   7.89744	0.00173062	   7.90322	0.00174714	   7.90417	0.00174247	   7.90417	   43.5617	
   7.85474	 0.0017514	   7.84067	0.00173241	   7.84688	0.00174877	   7.84743	0.00174419	   7.84743	   43.6048	
   7.79752	0.00175306	   7.78349	0.00173413	   7.79042	0.00175027	   7.79048	0.00174582	   7.79048	   43.6454	
   7.73991	0.00175466	   7.72598	0.00173572	   7.73355	 0.0017517	   7.73315	0.00174736	   7.73315	    43.684	
   7.68216	0.00175622	   7.66797	0.00173719	    7.6765	0.00175313	   7.67554	0.00174885	   7.67554	   43.7211	
   7.62392	0.00175776	   7.60985	0.00173855	   7.61895	0.00175457	   7.61757	0.00175029	   7.61757	   43.7573	
   7.56533	0.00175926	   7.55124	0.00173984	   7.56102	  0.001756	    7.5592	 0.0017517	    7.5592	   43.7926	
   7.50662	0.00176072	   7.49248	0.00174111	   7.50282	0.00175737	   7.50064	0.00175307	   7.50064	   43.8267	
   7.44747	0.00176209	   7.43307	0.00174239	   7.44417	0.00175862	   7.44157	0.00175437	   7.44157	   43.8592	
     7.388	0.00176336	   7.37383	0.00174365	   7.38518	0.00175975	   7.38234	0.00175559	   7.38234	   43.8897	
   7.32844	0.00176453	   7.31404	0.00174485	    7.3261	0.00176079	   7.32286	0.00175672	   7.32286	   43.9181	
   7.26857	0.00176563	   7.25402	0.00174594	   7.26656	 0.0017618	   7.26305	0.00175779	   7.26305	   43.9447	
    7.2084	0.00176667	   7.19351	0.00174691	   7.20672	0.00176284	   7.20288	0.00175881	   7.20288	   43.9702	
   7.14803	0.00176772	   7.13291	0.00174778	   7.14654	0.00176389	   7.14249	 0.0017598	   7.14249	   43.9949	
   7.08717	0.00176877	   7.07189	0.00174859	   7.08604	0.00176491	    7.0817	0.00176075	    7.0817	   44.0189	
   7.02606	0.00176981	   7.01071	0.00174937	   7.02528	0.00176583	   7.02068	0.00176167	   7.02068	   44.0418	
   6.96495	0.00177078	   6.94906	0.00175016	   6.96396	0.00176663	   6.95932	0.00176252	   6.95932	    44.063	
   6.90338	0.00177163	   6.88734	0.00175092	   6.90235	0.00176731	   6.89769	0.00176329	   6.89769	   44.0822	
   6.84162	0.00177235	   6.82517	0.00175163	   6.84057	 0.0017679	   6.83578	0.00176396	   6.83578	    44.099	
   6.77955	0.00177293	   6.76292	0.00175225	    6.7785	0.00176846	   6.77366	0.00176455	   6.77366	   44.1136	
    6.7171	0.00177343	   6.70009	0.00175276	   6.71607	0.00176902	   6.71109	0.00176507	   6.71109	   44.1267	
   6.65452	0.00177389	   6.63711	0.00175317	   6.65352	 0.0017696	   6.64838	0.00176555	   6.64838	   44.1388	
   6.59153	0.00177437	   6.57383	0.00175353	   6.59058	0.00177014	   6.58531	0.00176601	   6.58531	   44.1503	
   6.52823	0.00177485	   6.51034	0.00175387	   6.52734	 0.0017706	   6.52197	0.00176644	   6.52197	    44.161	
   6.46473	 0.0017753	   6.44634	0.00175418	   6.46379	0.00177095	   6.45829	0.00176681	   6.45829	   44.1703	
   6.40074	0.00177567	   6.38238	0.00175447	    6.3999	0.00177118	   6.39434	0.00176711	   6.39434	   44.1777	
   6.33653	0.00177591	   6.31811	 0.0017547	   6.33579	0.00177133	   6.33014	0.00176732	   6.33014	   44.1829	
   6.27223	0.00177603	   6.25384	0.00175484	   6.27138	0.00177146	   6.26582	0.00176744	   6.26582	    44.186	
   6.20753	0.00177606	   6.18923	0.00175488	   6.20686	0.00177158	   6.20121	 0.0017675	   6.20121	   44.1876	
   6.14267	0.00177603	   6.12455	0.00175485	    6.1422	 0.0017717	   6.13647	0.00176753	   6.13647	   44.1882	
   6.07759	  0.001776	   6.05954	0.00175479	   6.07712	0.00177178	   6.07142	0.00176752	   6.07142	   44.1881	
   6.01218	0.00177596	   5.99427	0.00175472	   6.01175	0.00177178	   6.00606	0.00176748	   6.00606	   44.1871	
   5.94657	0.00177588	   5.92887	0.00175462	   5.94605	0.00177165	    5.9405	0.00176738	    5.9405	   44.1846	
   5.88048	0.00177574	   5.86305	0.00175444	    5.8803	0.00177141	   5.87461	0.00176719	   5.87461	   44.1799	
   5.81419	0.00177549	   5.79708	0.00175413	   5.81433	0.00177109	   5.80853	 0.0017669	   5.80853	   44.1725	
   5.74772	0.00177512	   5.73075	0.00175368	   5.74817	0.00177073	   5.74221	0.00176651	   5.74221	   44.1628	
     5.681	0.00177467	   5.66411	0.00175315	   5.68162	0.00177038	   5.67558	0.00176607	   5.67558	   44.1517	
   5.61417	0.00177418	   5.59743	0.00175261	   5.61495	0.00177007	   5.60885	0.00176562	   5.60885	   44.1405	
   5.54731	0.00177367	   5.53077	0.00175216	   5.54774	0.00176978	   5.54194	 0.0017652	   5.54194	     44.13	
   5.48015	0.00177314	   5.46387	0.00175176	   5.47982	0.00176943	   5.47461	0.00176478	   5.47461	   44.1195	
   5.41281	0.00177258	   5.39685	0.00175133	   5.41153	0.00176898	   5.40706	 0.0017643	   5.40706	   44.1074	
   5.34516	0.00177194	   5.32942	0.00175078	   5.34289	0.00176839	   5.33916	 0.0017637	   5.33916	   44.0925	
   5.27733	0.00177118	   5.26186	0.00175001	   5.27468	0.00176768	   5.27129	0.00176296	   5.27129	    44.074	
   5.20946	0.00177033	   5.19419	0.00174909	   5.20638	0.00176692	   5.20334	0.00176211	   5.20334	   44.0528	
   5.14123	0.00176939	   5.12623	0.00174807	   5.13833	0.00176617	   5.13526	0.00176121	   5.13526	   44.0303	
   5.07279	0.00176841	   5.05809	0.00174709	    5.0698	0.00176545	   5.06689	0.00176032	   5.06689	   44.0079	
   5.00436	0.00176742	   4.99001	 0.0017462	   5.00131	0.00176471	   4.99856	0.00175944	   4.99856	   43.9861	
   4.93568	0.00176642	   4.92171	0.00174538	   4.93227	0.00176388	   4.92989	0.00175856	   4.92989	    43.964	
   4.86702	0.00176537	   4.85333	0.00174454	   4.86384	0.00176289	    4.8614	 0.0017576	    4.8614	   43.9401	
   4.79795	0.00176426	   4.78458	0.00174357	   4.79474	0.00176179	   4.79242	0.00175654	   4.79242	   43.9135	
   4.72874	0.00176304	   4.71573	0.00174241	   4.72655	0.00176062	   4.72367	0.00175536	   4.72367	   43.8839	
   4.65944	0.00176173	   4.64647	0.00174106	   4.65707	0.00175948	   4.65433	0.00175409	   4.65433	   43.8523	
   4.58985	0.00176035	   4.57698	0.00173959	   4.58828	0.00175838	   4.58504	0.00175277	   4.58504	   43.8193	
    4.5201	0.00175894	   4.50712	0.00173811	   4.51835	0.00175725	   4.51519	0.00175143	   4.51519	   43.7858	
    4.4501	 0.0017575	    4.4369	0.00173668	    4.4492	0.00175602	    4.4454	0.00175007	    4.4454	   43.7518	
   4.37994	0.00175605	    4.3666	0.00173535	   4.37939	0.00175462	   4.37531	0.00174867	   4.37531	   43.7168	
   4.30961	0.00175454	   4.29621	0.00173404	   4.30995	0.00175303	   4.30526	0.00174721	   4.30526	   43.6801	
   4.23898	0.00175296	   4.22559	0.00173265	    4.2396	0.00175132	   4.23472	0.00174565	   4.23472	   43.6411	
   4.16833	0.00175128	   4.15501	0.00173108	   4.16972	0.00174961	   4.16435	0.00174399	   4.16435	   43.5998	
   4.09758	0.00174952	   4.08426	 0.0017293	   4.09911	0.00174795	   4.09365	0.00174226	   4.09365	   43.5564	
   4.02664	0.00174771	   4.01339	0.00172737	   4.02831	0.00174635	   4.02278	0.00174048	   4.02278	   43.5119	
   3.95551	0.00174586	   3.94226	0.00172541	   3.95692	0.00174474	   3.95156	0.00173867	   3.95156	   43.4667	
   3.88424	  0.001744	   3.87087	0.00172351	   3.88592	0.00174301	   3.88034	0.00173684	   3.88034	    43.421	
   3.81292	0.00174212	    3.7994	0.00172171	    3.8144	 0.0017411	   3.80891	0.00173498	   3.80891	   43.3744	
   3.74167	0.00174019	   3.72767	0.00171994	   3.74285	0.00173899	    3.7374	0.00173304	    3.7374	   43.3261	
   3.67021	0.00173819	   3.65582	0.00171809	   3.67098	0.00173678	   3.66567	0.00173102	   3.66567	   43.2756	
   3.59881	 0.0017361	    3.5838	0.00171605	   3.59922	0.00173456	   3.59394	0.00172891	   3.59394	   43.2226	
   3.52715	 0.0017339	   3.51152	0.00171381	   3.52713	0.00173238	   3.52193	 0.0017267	   3.52193	   43.1674	
   3.45541	0.00173157	   3.43928	0.00171143	   3.45486	0.00173025	   3.44985	0.00172442	   3.44985	   43.1104	
   3.38329	0.00172917	   3.36679	0.00170902	   3.38229	0.00172808	   3.37746	0.00172209	   3.37746	   43.0523	
   3.31096	0.00172676	   3.29419	0.00170667	    3.3099	 0.0017258	   3.30502	0.00171974	   3.30502	   42.9936	
   3.23825	0.00172439	   3.22153	0.00170438	   3.23703	0.00172335	   3.23227	0.00171738	   3.23227	   42.9344	
   3.16495	0.00172205	   3.14862	0.00170211	   3.16415	0.00172075	   3.15924	0.00171497	   3.15924	   42.8742	
   3.09123	0.00171967	   3.07575	0.00169974	   3.09125	0.00171805	   3.08608	0.00171249	   3.08608	   42.8122	
   3.01747	0.00171718	    3.0025	0.00169721	   3.01825	0.00171535	   3.01274	0.00170991	   3.01274	   42.7478	
   2.94383	0.00171451	   2.92916	 0.0016945	   2.94509	0.00171268	   2.93936	0.00170723	   2.93936	   42.6808	
   2.87046	0.00171169	   2.85573	0.00169166	   2.87176	0.00171003	   2.86599	0.00170446	   2.86599	   42.6115	
   2.79693	 0.0017088	   2.78208	0.00168877	   2.79815	0.00170734	   2.79239	0.00170163	   2.79239	   42.5409	
   2.72373	0.00170589	   2.70849	 0.0016859	   2.72436	0.00170454	   2.71886	0.00169878	   2.71886	   42.4695	
   2.65006	0.00170303	   2.63488	0.00168308	    2.6504	0.00170159	   2.64512	 0.0016959	   2.64512	   42.3975	
   2.57624	0.00170016	   2.56118	0.00168026	   2.57632	0.00169849	   2.57125	0.00169297	   2.57125	   42.3242	
   2.50227	0.00169722	   2.48739	0.00167736	   2.50226	0.00169531	   2.49731	0.00168996	   2.49731	   42.2491	
   2.42904	0.00169415	   2.41337	 0.0016743	   2.42795	0.00169212	   2.42345	0.00168686	   2.42345	   42.1714	
   2.35551	0.00169094	   2.33942	0.00167106	   2.35367	0.00168896	   2.34953	0.00168366	   2.34953	   42.0914	
   2.28219	0.00168763	   2.26524	0.00166769	   2.27942	0.00168582	   2.27562	0.00168038	   2.27562	   42.0095	
   2.20811	0.00168425	     2.191	0.00166428	   2.20506	0.00168265	   2.20139	0.00167706	   2.20139	   41.9265	
   2.13482	0.00168083	   2.11679	0.00166092	   2.13086	0.00167938	   2.12749	0.00167371	   2.12749	   41.8427	
   2.06059	0.00167736	   2.04247	0.00165763	   2.05639	0.00167598	   2.05315	0.00167032	   2.05315	   41.7581	
   1.98648	0.00167385	   1.96822	0.00165436	   1.98196	0.00167246	   1.97889	0.00166689	   1.97889	   41.6723	
   1.91219	0.00167026	   1.89376	  0.001651	   1.90713	0.00166885	   1.90436	0.00166337	   1.90436	   41.5842	
   1.83842	0.00166659	   1.81922	0.00164748	   1.83222	 0.0016652	   1.82996	0.00165975	   1.82996	   41.4938	
   1.76392	0.00166286	   1.74467	0.00164377	   1.75727	0.00166154	   1.75529	0.00165605	   1.75529	   41.4013	
   1.68941	 0.0016591	   1.66991	0.00163994	   1.68211	0.00165787	   1.68048	 0.0016523	   1.68048	   41.3076	
   1.61473	0.00165532	   1.59524	0.00163609	   1.60703	0.00165417	   1.60567	0.00164853	   1.60567	   41.2132	
   1.53999	0.00165149	   1.52075	0.00163228	   1.53195	0.00165038	    1.5309	0.00164472	    1.5309	   41.1179	
   1.46488	 0.0016476	   1.44619	0.00162852	   1.45681	0.00164647	   1.45596	0.00164086	   1.45596	   41.0216	
    1.3898	0.00164365	   1.37169	0.00162475	    1.3816	0.00164242	   1.38103	0.00163694	   1.38103	   40.9235	
   1.31447	0.00163961	   1.29697	0.00162088	    1.3062	0.00163829	   1.30588	0.00163292	   1.30588	   40.8231	
   1.23918	0.00163546	   1.22215	0.00161686	   1.23089	 0.0016341	   1.23074	0.00162881	   1.23074	   40.7201	
   1.16387	0.00163119	   1.14722	0.00161269	   1.15549	 0.0016299	   1.15553	 0.0016246	   1.15553	   40.6149	
   1.08887	0.00162681	   1.07225	0.00160844	   1.08004	0.00162572	   1.08039	0.00162032	   1.08039	    40.508	
   1.01402	0.00162236	   0.99722	0.00160417	    1.0047	 0.0016215	   1.00531	0.00161601	   1.00531	   40.4002	
  0.939241	 0.0016179	   0.92218	0.00159992	  0.929165	 0.0016172	  0.930195	0.00161167	  0.930195	   40.2918	
  0.864449	0.00161348	  0.847228	0.00159568	  0.853625	0.00161277	    0.8551	0.00160731	    0.8551	   40.1828	
  0.789103	0.00160909	   0.77222	 0.0015914	  0.777921	 0.0016082	  0.779748	 0.0016029	  0.779748	   40.0725	
   0.71284	0.00160466	  0.697159	0.00158702	  0.702202	0.00160355	  0.704067	0.00159841	  0.704067	   39.9602	
  0.636321	0.00160012	  0.622151	0.00158251	  0.626744	0.00159887	  0.628405	0.00159383	  0.628405	   39.8458	
  0.559786	0.00159542	   0.54695	0.00157787	  0.551114	0.00159421	  0.552617	0.00158917	  0.552617	   39.7292	
    0.4834	0.00159057	  0.471845	0.00157316	    0.4756	0.00158959	  0.476948	0.00158444	  0.476948	    39.611	
  0.407153	0.00158563	  0.396553	0.00156843	  0.400196	0.00158491	  0.401301	0.00157965	  0.401301	   39.4914	
  0.331412	0.00158066	  0.321226	0.00156369	  0.325094	0.00158009	  0.325911	0.00157481	  0.325911	   39.3704	
  0.255894	0.00157573	  0.246028	0.00155896	  0.250199	0.00157505	  0.250707	0.00156991	  0.250707	   39.2478	
  0.180309	0.00157081	  0.170647	0.00155418	  0.175627	0.00156985	  0.175528	0.00156494	  0.175528	   39.1236	
  0.104799	0.00156586	  0.095237	0.00154931	  0.101213	0.00156458	  0.100416	0.00155992	  0.100416	    38.998	
  0.029289	0.00156082	 0.0196985	0.00154432	 0.0265639	0.00155939	 0.0251838	0.00155484	 0.0251838	   38.8711	
-0.0462865	0.00155564	-0.0557404	0.00153922	-0.0485397	0.00155431	-0.0501889	0.00154973	-0.0501889	   38.7431	
  -0.12192	0.00155034	  -0.13093	0.00153404	  -0.12413	0.00154931	  -0.12566	0.00154456	  -0.12566	   38.6141	
 -0.197745	0.00154495	 -0.206301	0.00152883	 -0.200029	0.00154425	 -0.201358	0.00153934	 -0.201358	   38.4836	
  -0.27347	0.00153952	 -0.281566	0.00152361	 -0.275969	0.00153901	 -0.277002	0.00153405	 -0.277002	   38.3512	
 -0.349057	0.00153409	 -0.356917	0.00151839	 -0.351958	0.00153351	 -0.352644	0.00152866	 -0.352644	   38.2165	
   -0.4247	0.00152866	 -0.432301	0.00151312	 -0.427397	0.00152779	 -0.428133	0.00152319	 -0.428133	   38.0797	
 -0.500122	0.00152321	  -0.50758	0.00150778	 -0.502609	0.00152198	 -0.503437	0.00151766	 -0.503437	   37.9414	
 -0.575578	0.00151768	 -0.582863	0.00150236	 -0.577339	0.00151626	 -0.578593	 0.0015121	 -0.578593	   37.8025	
 -0.651077	0.00151202	 -0.658051	0.00149688	 -0.652268	 0.0015107	 -0.653799	0.00150653	 -0.653799	   37.6633	
 -0.726501	0.00150623	 -0.733288	0.00149134	 -0.726881	0.00150525	  -0.72889	0.00150094	  -0.72889	   37.5235	
 -0.801993	0.00150033	 -0.808569	0.00148577	  -0.80175	0.00149977	 -0.804104	0.00149529	 -0.804104	   37.3823	
 -0.877444	0.00149439	 -0.883789	0.00148015	 -0.876619	0.00149412	 -0.879284	0.00148955	 -0.879284	   37.2389	
 -0.952869	0.00148845	 -0.958966	0.00147446	 -0.951614	 0.0014882	 -0.954483	 0.0014837	 -0.954483	   37.0925	
  -1.02823	 0.0014825	  -1.03406	0.00146868	  -1.02657	0.00148205	  -1.02962	0.00147774	  -1.02962	   36.9436	
  -1.10352	0.00147654	  -1.10908	0.00146282	  -1.10176	0.00147581	  -1.10478	0.00147172	  -1.10478	    36.793	
  -1.17872	 0.0014705	  -1.18399	 0.0014569	  -1.17686	0.00146963	  -1.17986	0.00146568	  -1.17986	   36.6419	
  -1.25374	0.00146435	  -1.25882	0.00145095	  -1.25188	 0.0014636	  -1.25482	0.00145964	  -1.25482	   36.4909	
  -1.32887	0.00145809	  -1.33375	0.00144499	  -1.32674	0.00145768	  -1.32978	0.00145359	  -1.32978	   36.3397	
  -1.40395	0.00145175	  -1.40862	  0.001439	  -1.40157	0.00145173	  -1.40471	0.00144749	  -1.40471	   36.1873	
  -1.47874	0.00144538	  -1.48334	0.00143295	  -1.47628	0.00144559	  -1.47945	0.00144131	  -1.47945	   36.0326	
  -1.55365	0.00143899	  -1.55794	0.00142681	  -1.55112	0.00143919	  -1.55424	  0.001435	  -1.55424	   35.8749	
  -1.62841	0.00143259	  -1.63238	0.00142058	  -1.62582	0.00143257	  -1.62887	0.00142858	  -1.62887	   35.7146	
  -1.70317	0.00142617	  -1.70682	0.00141427	  -1.70064	0.00142588	  -1.70355	 0.0014221	  -1.70355	   35.5526	
  -1.77776	0.00141967	  -1.78127	0.00140791	  -1.77547	0.00141924	  -1.77816	0.00141561	  -1.77816	   35.3902	
   -1.8521	0.00141308	  -1.85556	0.00140153	  -1.85023	0.00141274	  -1.85263	0.00140912	  -1.85263	   35.2279	
  -1.92648	 0.0014064	  -1.92987	0.00139514	  -1.92487	0.00140629	  -1.92707	0.00140261	  -1.92707	   35.0652	
  -2.00078	0.00139963	   -2.0042	 0.0013887	  -1.99938	0.00139979	  -2.00145	0.00139604	  -2.00145	   34.9011	
  -2.07489	0.00139282	   -2.0785	0.00138217	  -2.07352	0.00139314	  -2.07564	0.00138938	  -2.07564	   34.7344	
  -2.14908	0.00138599	   -2.1526	0.00137551	  -2.14772	0.00138628	   -2.1498	0.00138259	   -2.1498	   34.5648	
  -2.22308	0.00137912	  -2.22649	0.00136874	  -2.22172	0.00137926	  -2.22376	0.00137571	  -2.22376	   34.3927	
  -2.29704	0.00137222	  -2.30045	0.00136189	  -2.29553	0.00137217	  -2.29767	0.00136876	  -2.29767	   34.2191	
  -2.37096	0.00136527	  -2.37436	0.00135504	  -2.36932	0.00136512	  -2.37155	0.00136181	  -2.37155	   34.0452	
  -2.44473	0.00135824	  -2.44822	0.00134823	  -2.44308	0.00135812	  -2.44534	0.00135486	  -2.44534	   33.8716	
  -2.51849	0.00135115	  -2.52217	0.00134143	  -2.51683	0.00135116	  -2.51916	0.00134791	  -2.51916	   33.6978	
  -2.59225	0.00134399	  -2.59595	 0.0013346	  -2.59044	0.00134413	  -2.59288	0.00134091	  -2.59288	   33.5227	
  -2.66561	0.00133675	  -2.66958	0.00132767	  -2.66407	0.00133697	  -2.66642	 0.0013338	  -2.66642	   33.3449	
  -2.73889	0.00132944	  -2.74306	0.00132057	  -2.73772	0.00132962	  -2.73989	0.00132654	  -2.73989	   33.1636	
  -2.81197	0.00132207	  -2.81629	0.00131333	  -2.81112	0.00132207	  -2.81313	0.00131915	  -2.81313	   32.9789	
  -2.88513	0.00131465	  -2.88957	0.00130599	  -2.88444	0.00131441	  -2.88638	0.00131168	  -2.88638	    32.792	
  -2.95825	0.00130719	  -2.96277	0.00129863	  -2.95769	0.00130674	  -2.95957	0.00130419	  -2.95957	   32.6047	
  -3.03107	 0.0012997	   -3.0359	 0.0012913	  -3.03075	0.00129918	  -3.03257	0.00129673	  -3.03257	   32.4182	
  -3.10389	0.00129217	  -3.10897	0.00128399	  -3.10391	0.00129173	  -3.10559	 0.0012893	  -3.10559	   32.2325	
  -3.17659	0.00128456	    -3.182	0.00127666	  -3.17691	0.00128432	   -3.1785	0.00128185	   -3.1785	   32.0462	
  -3.24918	0.00127687	  -3.25473	0.00126922	   -3.2499	0.00127684	  -3.25127	0.00127431	  -3.25127	   31.8577	
  -3.32182	0.00126909	  -3.32746	0.00126164	  -3.32275	0.00126915	  -3.32401	0.00126662	  -3.32401	   31.6656	
  -3.39425	0.00126124	  -3.39993	0.00125391	  -3.39535	 0.0012612	  -3.39651	0.00125878	  -3.39651	   31.4696	
  -3.46663	0.00125337	  -3.47245	0.00124608	  -3.46787	0.00125305	  -3.46898	0.00125083	  -3.46898	   31.2708	
  -3.53897	0.00124548	   -3.5449	0.00123823	  -3.54033	0.00124479	   -3.5414	0.00124283	   -3.5414	   31.0708	
  -3.61102	0.00123758	    -3.617	0.00123039	  -3.61246	0.00123657	   -3.6135	0.00123485	   -3.6135	   30.8712	
  -3.68323	0.00122962	  -3.68895	0.00122257	  -3.68445	0.00122846	  -3.68555	0.00122688	  -3.68555	    30.672	
  -3.75532	0.00122157	  -3.76076	0.00121472	  -3.75632	0.00122041	  -3.75747	 0.0012189	  -3.75747	   30.4725	
  -3.82704	0.00121341	  -3.83233	0.00120678	  -3.82796	0.00121234	  -3.82911	0.00121084	  -3.82911	    30.271	
   -3.8987	0.00120517	  -3.90383	0.00119869	  -3.89953	0.00120412	  -3.90069	0.00120266	  -3.90069	   30.0666	
   -3.9702	0.00119689	  -3.97513	0.00119049	  -3.97092	0.00119571	  -3.97208	0.00119436	  -3.97208	    29.859	
  -4.04141	0.00118858	  -4.04613	0.00118221	  -4.04216	0.00118713	  -4.04323	0.00118597	  -4.04323	   29.6493	
  -4.11265	0.00118026	  -4.11702	0.00117399	  -4.11341	0.00117849	  -4.11436	0.00117758	  -4.11436	   29.4394	
  -4.18366	 0.0011719	  -4.18768	 0.0011658	  -4.18441	0.00116986	  -4.18525	0.00116919	  -4.18525	   29.2296	
  -4.25462	0.00116347	  -4.25828	0.00115759	  -4.25521	0.00116129	  -4.25604	0.00116078	  -4.25604	   29.0195	
  -4.32541	0.00115495	  -4.32872	0.00114922	  -4.32596	0.00115273	   -4.3267	 0.0011523	   -4.3267	   28.8075	
  -4.39606	0.00114633	  -4.39806	0.00114062	  -4.39643	0.00114409	  -4.39685	0.00114368	  -4.39685	    28.592	
  -4.46646	0.00113763	  -4.46697	0.00113179	  -4.46652	0.00113532	  -4.46665	0.00113491	  -4.46665	   28.3728	
  -4.53679	0.00112888	  -4.53524	0.00112283	  -4.53654	 0.0011264	  -4.53619	0.00112604	  -4.53619	   28.1509	
   -4.6068	0.00112012	  -4.60403	0.00111394	   -4.6064	0.00111736	  -4.60574	0.00111714	  -4.60574	   27.9284	
  -4.67681	0.00111133	  -4.67292	0.00110521	  -4.67612	0.00110828	  -4.67528	0.00110827	  -4.67528	   27.7068	
   -4.7467	0.00110252	   -4.7422	0.00109662	  -4.74573	0.00109921	  -4.74488	0.00109945	  -4.74488	   27.4863	
  -4.81623	0.00109364	  -4.81213	0.00108805	    -4.815	0.00109016	  -4.81445	0.00109062	  -4.81445	   27.2654	
  -4.88586	0.00108468	  -4.88225	0.00107933	  -4.88397	0.00108109	  -4.88403	 0.0010817	  -4.88403	   27.0425	
  -4.95533	0.00107561	  -4.95191	0.00107037	  -4.95283	0.00107195	  -4.95335	0.00107265	  -4.95335	   26.8162	
  -5.02441	0.00106648	  -5.02142	 0.0010612	  -5.02134	0.00106271	  -5.02239	0.00106346	  -5.02239	   26.5865	
  -5.09342	0.00105729	  -5.09041	0.00105193	  -5.08982	0.00105334	  -5.09122	0.00105418	  -5.09122	   26.3546	
  -5.16225	0.00104809	  -5.15923	0.00104269	  -5.15818	0.00104389	  -5.15988	0.00104489	  -5.15988	   26.1222	
  -5.23081	0.00103887	  -5.22736	0.00103355	   -5.2263	 0.0010344	  -5.22816	0.00103561	  -5.22816	   25.8902	
  -5.29942	0.00102963	  -5.29571	0.00102449	  -5.29397	0.00102491	  -5.29637	0.00102634	  -5.29637	   25.6586	
  -5.36783	0.00102034	  -5.36347	0.00101542	  -5.36152	0.00101542	  -5.36428	0.00101706	  -5.36428	   25.4265	
  -5.43581	0.00101097	  -5.43113	0.00100624	  -5.42872	 0.0010059	  -5.43189	0.00100771	  -5.43189	   25.1926	
  -5.50355	0.00100151	  -5.49844	0.000996895	  -5.49563	0.000996328	  -5.49921	0.000998243	  -5.49921	   24.9561	
  -5.57111	0.000991961	  -5.56575	0.000987399	  -5.56243	0.000986668	  -5.56643	0.000988676	  -5.56643	   24.7169	
  -5.63838	0.000982366	  -5.63266	0.000977836	   -5.6289	0.000976905	  -5.63332	0.000979035	  -5.63332	   24.4759	
  -5.70543	0.000972741	  -5.69939	0.00096829	  -5.69524	0.00096707	  -5.70002	0.000969367	  -5.70002	   24.2342	
  -5.77231	0.000963095	  -5.76598	0.000958807	  -5.76148	0.000957183	  -5.76659	0.000959695	  -5.76659	   23.9924	
  -5.83878	0.000953421	  -5.83219	0.000949371	   -5.8274	0.000947295	  -5.83279	0.000950029	  -5.83279	   23.7507	
  -5.90519	0.000943696	  -5.89783	0.000939912	  -5.89319	0.000937418	  -5.89874	0.000940342	  -5.89874	   23.5086	
  -5.97144	0.000933903	  -5.96339	0.000930347	   -5.9589	0.000927548	  -5.96458	 0.0009306	  -5.96458	    23.265	
   -6.0373	0.000924024	  -6.02863	0.00092061	  -6.02431	0.000917656	  -6.03008	0.000920763	  -6.03008	   23.0191	
  -6.10298	0.000914064	  -6.09363	0.000910718	  -6.08933	0.000907684	  -6.09531	0.000910822	  -6.09531	   22.7705	
  -6.16853	0.000904043	  -6.15843	0.000900756	  -6.15431	0.000897601	  -6.16042	 0.0009008	  -6.16042	     22.52	
  -6.23385	0.000893991	  -6.22296	0.000890839	  -6.21901	0.000887396	  -6.22528	0.000890742	  -6.22528	   22.2686	
  -6.29888	0.000883937	  -6.28715	0.000881024	  -6.28338	0.000877102	   -6.2898	0.000880688	   -6.2898	   22.0172	
   -6.3638	0.000873882	  -6.35119	0.000871285	  -6.34773	0.000866778	  -6.35424	0.000870649	  -6.35424	   21.7662	
  -6.42839	0.000863798	    -6.415	0.000861543	  -6.41185	0.000856468	  -6.41841	0.000860603	  -6.41841	   21.5151	
  -6.49258	0.000853637	  -6.47852	0.000851659	  -6.47552	0.000846189	   -6.4822	0.000850495	   -6.4822	   21.2624	
  -6.55671	0.000843371	  -6.54195	0.000841574	  -6.53909	0.000835918	  -6.54592	0.000840288	  -6.54592	   21.0072	
  -6.62058	0.000833008	  -6.60505	0.000831308	  -6.60248	0.000825606	  -6.60937	0.000829974	  -6.60937	   20.7494	
  -6.68409	0.000822581	  -6.66791	0.000820956	  -6.66547	0.000815204	  -6.67249	0.00081958	  -6.67249	   20.4895	
  -6.74746	0.000812144	  -6.73032	0.00081064	  -6.72829	0.000804691	  -6.73536	0.000809158	  -6.73536	    20.229	
   -6.8106	0.000801703	  -6.79264	0.000800424	  -6.79085	0.000794083	  -6.79803	0.000798737	  -6.79803	   19.9684	
  -6.87332	0.000791248	  -6.85466	0.000790307	  -6.85309	0.00078342	  -6.86036	0.000788325	  -6.86036	   19.7081	
  -6.93583	0.000780744	   -6.9163	0.000780188	  -6.91508	0.000772756	   -6.9224	0.000777896	   -6.9224	   19.4474	
   -6.9982	0.000770182	  -6.97765	0.000769953	  -6.97689	0.000762117	  -6.98424	0.000767417	  -6.98424	   19.1854	
   -7.0602	0.00075958	  -7.03879	0.000759521	  -7.03845	0.000751496	  -7.04581	0.000756866	  -7.04581	   18.9216	
  -7.12179	0.000748947	  -7.09951	0.000748901	  -7.09956	0.000740858	  -7.10695	0.000746235	  -7.10695	   18.6559	
  -7.18304	0.00073829	  -7.16004	0.000738197	  -7.16072	0.000730156	  -7.16793	0.000735548	  -7.16793	   18.3887	
  -7.24405	0.000727586	  -7.22031	0.000727524	   -7.2217	0.000719367	  -7.22868	0.000724826	  -7.22868	   18.1206	
   -7.3046	0.000716803	  -7.28039	0.000716978	  -7.28229	0.000708494	  -7.28909	0.000714091	  -7.28909	   17.8523	
  -7.36478	0.00070593	  -7.33996	0.000706554	  -7.34259	0.000697573	  -7.34911	0.000703352	  -7.34911	   17.5838	
  -7.42484	0.000694999	  -7.39938	0.000696162	  -7.40253	0.000686641	  -7.40892	 0.0006926	  -7.40892	    17.315	
  -7.48454	0.000684043	  -7.45859	0.000685678	  -7.46221	0.000675726	  -7.46845	0.000681816	  -7.46845	   17.0454	
  -7.54386	0.000673099	  -7.51739	0.000675011	  -7.52143	0.000664824	  -7.52756	0.000670978	  -7.52756	   16.7744	
  -7.60274	0.000662165	  -7.57561	0.000664154	  -7.58055	0.000653905	   -7.5863	0.000660074	   -7.5863	   16.5019	
  -7.66141	0.00065122	  -7.63376	0.000653191	  -7.63938	0.000642925	  -7.64485	0.000649112	  -7.64485	   16.2278	
  -7.71969	0.000640207	  -7.69165	0.00064224	  -7.69787	0.000631862	  -7.70307	0.000638103	  -7.70307	   15.9526	
  -7.77752	0.000629104	  -7.74908	0.00063139	  -7.75582	0.000620725	  -7.76081	0.000627073	  -7.76081	   15.6768	
  -7.83488	0.000617919	  -7.80615	0.000620647	  -7.81363	0.000609539	  -7.81822	0.000616035	  -7.81822	   15.4009	
  -7.89201	0.000606685	  -7.86311	0.000609922	  -7.87096	0.000598355	  -7.87536	0.000604987	  -7.87536	   15.1247	
  -7.94872	0.000595467	  -7.91976	0.000599113	  -7.92791	0.000587184	  -7.93213	0.000593921	  -7.93213	    14.848	
  -8.00525	0.000584276	  -7.97592	0.000588141	  -7.98445	0.000576027	  -7.98854	0.000582815	  -7.98854	   14.5704	
  -8.06155	0.000573096	  -8.03182	0.000577015	  -8.04055	0.000564847	  -8.04464	0.000571653	  -8.04464	   14.2913	
  -8.11756	0.000561888	  -8.08758	0.000565816	  -8.09631	 0.0005536	  -8.10048	0.000560435	  -8.10048	   14.0109	
  -8.17339	0.00055062	  -8.14299	0.000554644	  -8.15183	0.000542264	  -8.15607	0.000549176	  -8.15607	   13.7294	
  -8.22911	0.000539275	  -8.19802	0.000543556	  -8.20706	0.000530851	   -8.2114	0.000537894	   -8.2114	   13.4474	
  -8.28468	0.000527841	  -8.25278	0.000532539	  -8.26198	0.000519406	  -8.26648	0.000526596	  -8.26648	   13.1649	
  -8.33991	0.000516352	  -8.30737	0.00052152	   -8.3168	0.000507994	  -8.32136	0.000515289	  -8.32136	   12.8822	
  -8.39463	0.000504847	   -8.3616	0.000510416	  -8.37136	0.000496634	  -8.37586	0.000503966	  -8.37586	   12.5991	
  -8.44867	0.000493369	  -8.41531	0.000499179	  -8.42601	0.000485311	     -8.43	0.00049262	     -8.43	   12.3155	
  -8.50191	0.000481926	  -8.46862	0.000487822	  -8.48014	0.000473956	  -8.48356	0.000481235	  -8.48356	   12.0309	
  -8.55491	0.000470529	  -8.52178	0.00047641	  -8.53402	0.000462496	   -8.5369	0.000469812	   -8.5369	   11.7453	
  -8.60762	0.000459134	  -8.57462	0.000465015	  -8.58718	0.00045091	  -8.58981	0.000458353	  -8.58981	   11.4588	
  -8.66029	0.00044769	  -8.62696	0.000453685	  -8.63979	0.000439255	  -8.64235	0.000446877	  -8.64235	   11.1719	
  -8.71232	0.000436156	  -8.67867	0.00044241	  -8.69169	0.000427586	  -8.69423	0.000435384	  -8.69423	   10.8846	
  -8.76399	0.000424524	  -8.73029	0.000431122	   -8.7433	0.000415999	  -8.74586	0.000423882	  -8.74586	    10.597	
  -8.81528	0.000412851	  -8.78164	0.000419752	  -8.79459	0.000404486	  -8.79717	0.000412363	  -8.79717	   10.3091	
  -8.86603	0.000401172	  -8.83256	0.00040826	  -8.84568	0.000392983	  -8.84809	0.000400805	  -8.84809	   10.0201	
  -8.91666	0.000389522	  -8.88304	0.000396661	   -8.8964	0.000381388	   -8.8987	0.000389191	   -8.8987	   9.72976	
  -8.96685	0.000377893	   -8.9332	0.000385023	  -8.94687	0.000369619	  -8.94898	0.000377512	  -8.94898	   9.43779	
  -9.01701	0.000366247	  -8.98316	0.000373414	  -8.99694	0.000357715	  -8.99904	0.000365792	  -8.99904	    9.1448	
  -9.06628	0.000354556	  -9.03276	0.000361868	  -9.04645	0.00034575	   -9.0485	0.000354058	   -9.0485	   8.85145	
   -9.1155	0.000342801	  -9.08185	0.000350368	  -9.09595	0.000333838	  -9.09777	0.000342336	  -9.09777	   8.55839	
  -9.16395	0.000330991	  -9.13099	0.000338857	  -9.14486	0.000322053	   -9.1466	0.000330634	   -9.1466	   8.26584	
  -9.21222	0.000319155	  -9.17984	0.000327275	  -9.19401	0.00031038	  -9.19535	0.000318936	  -9.19535	   7.97341	
  -9.26014	0.000307312	  -9.22839	0.000315597	  -9.24237	0.000298746	  -9.24363	0.000307218	  -9.24363	   7.68045	
  -9.30811	0.000295495	   -9.2765	0.000303845	  -9.29093	0.000287032	  -9.29185	0.000295457	  -9.29185	   7.38643	
  -9.35555	0.000283722	   -9.3243	0.000292077	  -9.33841	0.000275158	  -9.33942	0.000283653	  -9.33942	   7.09131	
  -9.40287	0.000271991	  -9.37178	0.00028034	  -9.38582	0.000263135	  -9.38682	0.000271822	  -9.38682	   6.79554	
  -9.44978	0.000260281	  -9.41893	0.000268647	  -9.43259	0.000251031	  -9.43376	0.000259986	  -9.43376	   6.49966	
  -9.49642	0.00024854	  -9.46575	0.000256969	  -9.47927	0.000238959	  -9.48048	0.000248156	  -9.48048	   6.20389	
   -9.5425	0.000236717	  -9.51223	0.000245253	  -9.52531	0.000227006	  -9.52668	0.000236326	  -9.52668	   5.90814	
  -9.58831	0.000224788	  -9.55823	0.000233462	  -9.57127	0.00021516	   -9.5726	0.00022447	   -9.5726	   5.61175	
  -9.63386	0.000212771	  -9.60403	0.000221598	  -9.61671	0.00020336	   -9.6182	0.000212576	   -9.6182	   5.31441	
  -9.67912	0.000200728	   -9.6495	0.000209697	   -9.6618	0.000191489	  -9.66347	0.000200638	  -9.66347	   5.01595	
  -9.72397	0.000188728	  -9.69462	0.000197814	   -9.7064	0.000179486	  -9.70833	0.000188676	  -9.70833	    4.7169	
  -9.76828	0.000176814	  -9.73927	0.000185975	  -9.75052	0.000167345	  -9.75269	0.000176711	  -9.75269	   4.41778	
  -9.81193	0.000164978	  -9.78346	0.000174162	  -9.79406	0.000155146	  -9.79648	0.000164762	  -9.79648	   4.11905	
  -9.85536	0.000153162	  -9.82707	0.000162351	  -9.83743	  0.000143	  -9.83995	0.000152838	  -9.83995	   3.82094	
  -9.89858	0.000141295	  -9.87039	0.000150486	  -9.88024	0.000130957	  -9.88307	0.000140913	  -9.88307	   3.52282	
  -9.94143	0.000129328	  -9.91344	0.000138559	  -9.92277	0.000119027	  -9.92588	0.000128971	  -9.92588	   3.22428	
  -9.98395	0.000117273	  -9.95608	0.000126574	  -9.96491	0.000107129	  -9.96831	0.000116992	  -9.96831	    2.9248	
   -10.026	0.000105183	  -9.99832	0.000114566	  -10.0067	9.5197e-05	  -10.0103	0.000104982	  -10.0103	   2.62455	
  -10.0679	9.31261e-05	  -10.0401	0.000102585	  -10.0478	8.31841e-05	  -10.0519	9.29651e-05	  -10.0519	   2.32413	
  -10.1094	8.1151e-05	  -10.0814	9.06389e-05	  -10.0887	7.10895e-05	  -10.0932	8.09598e-05	  -10.0932	   2.02399	
  -10.1507	6.92494e-05	  -10.1225	7.87124e-05	  -10.1293	5.89671e-05	  -10.1342	6.89763e-05	  -10.1342	   1.72441	
  -10.1915	5.73719e-05	  -10.1632	6.67713e-05	  -10.1696	4.68689e-05	  -10.1748	5.70041e-05	  -10.1748	    1.4251	
  -10.2319	4.54557e-05	  -10.2035	5.47897e-05	  -10.2095	3.48325e-05	   -10.215	4.5026e-05	   -10.215	   1.12565	
  -10.2717	3.34616e-05	  -10.2434	4.27779e-05	  -10.2489	2.28572e-05	  -10.2547	3.30322e-05	  -10.2547	  0.825806	
  -10.3112	2.13981e-05	  -10.2827	3.07606e-05	  -10.2878	1.09134e-05	  -10.2939	2.1024e-05	  -10.2939	    0.5256	
  -10.3504	9.31052e-06	  -10.3215	1.87716e-05	  -10.3262	-1.05941e-06	  -10.3327	9.00756e-06	  -10.3327	  0.225189	
  -10.3891	-2.73684e-06	  -10.3598	6.82925e-06	  -10.3643	-1.31114e-05	  -10.3711	-3.00634e-06	  -10.3711	-0.0751584	
  -10.4275	-1.47075e-05	  -10.3978	-5.08741e-06	  -10.4022	-2.52554e-05	  -10.4092	-1.50168e-05	  -10.4092	 -0.375419	
  -10.4654	-2.66114e-05	  -10.4353	-1.7008e-05	  -10.4397	-3.74422e-05	  -10.4468	-2.70205e-05	  -10.4468	 -0.675513	
  -10.5028	-3.84912e-05	  -10.4725	-2.89588e-05	  -10.4767	-4.95971e-05	   -10.484	-3.90157e-05	   -10.484	 -0.975393	
  -10.5396	-5.04027e-05	   -10.509	-4.09516e-05	  -10.5132	-6.1659e-05	  -10.5206	-5.10044e-05	  -10.5206	  -1.27511	
   -10.576	-6.2377e-05	  -10.5453	-5.29472e-05	  -10.5491	-7.36148e-05	  -10.5568	-6.29797e-05	  -10.5568	  -1.57449	
  -10.6121	-7.44073e-05	  -10.5812	-6.49242e-05	  -10.5847	-8.55172e-05	  -10.5927	-7.49496e-05	  -10.5927	  -1.87374	
  -10.6479	-8.6448e-05	  -10.6167	-7.68521e-05	    -10.62	-9.74416e-05	  -10.6282	-8.69139e-05	  -10.6282	  -2.17285	
  -10.6833	-9.8446e-05	   -10.652	-8.87347e-05	  -10.6551	-0.000109478	  -10.6635	-9.88864e-05	  -10.6635	  -2.47216	
  -10.7183	-0.000110372	  -10.6869	-0.000100605	  -10.6898	-0.00012162	  -10.6983	-0.000110866	  -10.6983	  -2.77164	
  -10.7526	-0.000122238	  -10.7213	-0.000112479	   -10.724	-0.000133813	  -10.7327	-0.000122844	  -10.7327	  -3.07109	
  -10.7863	-0.000134087	  -10.7552	-0.000124379	  -10.7577	-0.000145953	  -10.7664	-0.000134807	  -10.7664	  -3.37016	
  -10.8194	-0.000145965	  -10.7886	-0.000136301	  -10.7908	-0.00015796	  -10.7996	-0.000146742	  -10.7996	  -3.66855	
   -10.852	-0.000157897	  -10.8214	-0.000148227	  -10.8235	-0.000169836	  -10.8323	-0.000158653	  -10.8323	  -3.96633	
  -10.8845	-0.000169868	  -10.8538	-0.00016014	  -10.8559	-0.000181652	  -10.8647	-0.000170553	  -10.8647	  -4.26383	
  -10.9167	-0.000181839	  -10.8857	-0.00017202	  -10.8878	-0.000193532	  -10.8967	-0.000182463	  -10.8967	  -4.56159	
  -10.9485	-0.00019377	  -10.9172	-0.000183869	  -10.9196	-0.00020554	  -10.9284	-0.000194393	  -10.9284	  -4.85982	
  -10.9799	-0.000205638	  -10.9483	-0.000195707	  -10.9509	-0.000217659	  -10.9597	-0.000206334	  -10.9597	  -5.15836	
  -11.0107	-0.000217454	  -10.9791	-0.000207548	  -10.9818	-0.000229798	  -10.9905	-0.000218267	  -10.9905	  -5.45667	
  -11.0409	-0.000229256	  -11.0093	-0.000219404	  -11.0122	-0.000241849	  -11.0208	-0.00023017	  -11.0208	  -5.75424	
  -11.0705	-0.000241078	   -11.039	-0.000231272	   -11.042	-0.000253757	  -11.0505	-0.000242036	  -11.0505	   -6.0509	
  -11.0995	-0.000252941	  -11.0681	-0.000243154	  -11.0712	-0.000265543	  -11.0796	-0.000253879	  -11.0796	  -6.34698	
  -11.1282	-0.00026483	  -11.0966	-0.00025503	  -11.0998	-0.000277292	  -11.1082	-0.000265717	  -11.1082	  -6.64293	
  -11.1565	-0.000276709	  -11.1246	-0.000266855	  -11.1281	-0.000289097	  -11.1364	-0.000277553	  -11.1364	  -6.93884	
  -11.1847	-0.000288537	  -11.1523	-0.0002786	  -11.1561	-0.000301005	  -11.1644	-0.000289381	  -11.1644	  -7.23452	
  -11.2125	-0.000300298	  -11.1801	-0.000290265	  -11.1839	-0.000312991	  -11.1922	-0.000301184	  -11.1922	  -7.52961	
  -11.2399	-0.000312001	   -11.208	-0.000301889	  -11.2114	-0.00032498	  -11.2198	-0.000312957	  -11.2198	  -7.82392	
  -11.2669	-0.000323677	  -11.2356	-0.000313522	  -11.2386	-0.000336877	   -11.247	-0.000324692	   -11.247	  -8.11731	
  -11.2933	-0.000335364	  -11.2626	-0.000325202	  -11.2653	-0.00034864	  -11.2737	-0.000336402	  -11.2737	  -8.41005	
  -11.3192	-0.000347081	  -11.2886	-0.000336937	  -11.2915	-0.000360289	  -11.2998	-0.000348102	  -11.2998	  -8.70256	
  -11.3445	-0.000358828	  -11.3145	-0.00034866	  -11.3171	-0.000371901	  -11.3254	-0.000359796	  -11.3254	  -8.99491	
  -11.3692	-0.000370586	  -11.3396	-0.000360337	  -11.3421	-0.000383552	  -11.3503	-0.000371491	  -11.3503	  -9.28728	
  -11.3933	-0.000382321	  -11.3644	-0.000371922	  -11.3667	-0.000395286	  -11.3748	-0.000383177	  -11.3748	  -9.57941	
  -11.4168	-0.000394006	  -11.3886	-0.000383448	  -11.3907	-0.000407084	  -11.3987	-0.000394846	  -11.3987	  -9.87116	
  -11.4399	-0.000405623	  -11.4124	-0.000394954	  -11.4141	-0.000418872	  -11.4221	-0.000406483	  -11.4221	  -10.1621	
  -11.4627	-0.000417177	  -11.4351	-0.00040651	  -11.4372	-0.000430569	   -11.445	-0.000418086	   -11.445	  -10.4521	
  -11.4852	-0.000428687	  -11.4576	-0.00041812	  -11.4601	-0.000442134	  -11.4676	-0.000429647	  -11.4676	  -10.7412	
  -11.5075	-0.00044018	  -11.4794	-0.000429735	  -11.4829	-0.00045359	  -11.4899	-0.000441168	  -11.4899	  -11.0292	
  -11.5294	-0.000451676	  -11.5013	-0.000441296	  -11.5052	-0.000465019	   -11.512	-0.000452664	   -11.512	  -11.3166	
   -11.551	-0.000463188	  -11.5225	-0.000452757	  -11.5272	-0.000476501	  -11.5336	-0.000464149	  -11.5336	  -11.6037	
  -11.5721	-0.000474702	  -11.5437	-0.000464133	  -11.5489	-0.00048807	  -11.5549	-0.000475635	  -11.5549	  -11.8909	
  -11.5928	-0.000486201	  -11.5644	-0.000475468	  -11.5701	-0.000499684	  -11.5758	-0.000487118	  -11.5758	  -12.1779	
   -11.613	-0.000497653	  -11.5841	-0.000486829	  -11.5909	-0.000511251	   -11.596	-0.000498578	   -11.596	  -12.4644	
  -11.6327	-0.000509047	  -11.6033	-0.000498237	  -11.6112	-0.000522689	  -11.6158	-0.000509991	  -11.6158	  -12.7498	
  -11.6519	-0.000520386	  -11.6223	-0.000509668	   -11.631	-0.000533988	  -11.6351	-0.000521347	  -11.6351	  -13.0337	
  -11.6705	-0.000531693	  -11.6409	-0.00052106	  -11.6502	-0.000545187	  -11.6539	-0.000532647	  -11.6539	  -13.3162	
  -11.6886	-0.000542996	  -11.6588	-0.00053235	  -11.6689	-0.000556387	  -11.6721	-0.000543911	  -11.6721	  -13.5978	
   -11.706	-0.000554307	  -11.6765	-0.000543537	   -11.687	-0.000567644	  -11.6898	-0.000555162	  -11.6898	  -13.8791	
  -11.7229	-0.000565619	  -11.6936	-0.000554657	  -11.7044	-0.000578966	   -11.707	-0.000566414	   -11.707	  -14.1603	
  -11.7391	-0.000576911	  -11.7103	-0.00056578	  -11.7213	-0.000590287	  -11.7236	-0.000577659	  -11.7236	  -14.4415	
  -11.7547	-0.000588154	  -11.7267	-0.000576945	  -11.7375	-0.000601525	  -11.7396	-0.000588875	  -11.7396	  -14.7219	
  -11.7697	-0.000599334	  -11.7428	-0.000588149	  -11.7531	-0.000612634	  -11.7552	-0.000600039	  -11.7552	   -15.001	
  -11.7841	-0.000610462	  -11.7583	-0.000599341	   -11.768	-0.000623596	  -11.7701	-0.000611133	  -11.7701	  -15.2783	
   -11.798	-0.000621554	  -11.7734	-0.000610459	  -11.7823	-0.000634473	  -11.7846	-0.000622162	  -11.7846	  -15.5541	
  -11.8112	-0.000632622	  -11.7878	-0.000621466	  -11.7962	-0.000645353	  -11.7984	-0.000633147	  -11.7984	  -15.8287	
  -11.8239	-0.000643671	  -11.8017	-0.000632377	  -11.8093	-0.000656301	  -11.8117	-0.000644116	  -11.8117	  -16.1029	
  -11.8361	-0.00065469	   -11.815	-0.000643225	   -11.822	-0.000667325	  -11.8244	-0.00065508	  -11.8244	   -16.377	
   -11.848	-0.000665674	  -11.8277	-0.000654069	  -11.8342	-0.00067835	  -11.8366	-0.000666031	  -11.8366	  -16.6508	
  -11.8594	-0.000676622	  -11.8399	-0.000664927	   -11.846	-0.000689281	  -11.8485	-0.000676943	  -11.8485	  -16.9236	
  -11.8705	-0.000687544	  -11.8514	-0.000675792	  -11.8572	-0.000700046	  -11.8597	-0.000687794	  -11.8597	  -17.1949	
  -11.8811	-0.000698449	  -11.8625	-0.00068663	  -11.8679	-0.000710638	  -11.8705	-0.000698572	  -11.8705	  -17.4643	
  -11.8914	-0.000709323	   -11.873	-0.000697393	  -11.8779	-0.000721135	  -11.8808	-0.000709284	  -11.8808	  -17.7321	
  -11.9011	-0.000720138	  -11.8829	-0.000708072	  -11.8876	-0.000731637	  -11.8905	-0.000719949	  -11.8905	  -17.9987	
  -11.9105	-0.000730866	  -11.8921	-0.000718697	  -11.8967	-0.000742224	  -11.8997	-0.000730595	  -11.8997	  -18.2649	
  -11.9195	-0.000741507	  -11.9008	-0.000729354	  -11.9055	-0.0007529	  -11.9086	-0.000741253	  -11.9086	  -18.5313	
   -11.928	-0.000752094	  -11.9089	-0.000740028	  -11.9138	-0.000763592	  -11.9169	-0.000751905	  -11.9169	  -18.7976	
  -11.9359	-0.000762671	  -11.9164	-0.000750666	  -11.9216	-0.0007742	  -11.9246	-0.000762512	  -11.9246	  -19.0628	
  -11.9437	-0.000773268	  -11.9234	-0.000761165	  -11.9288	-0.000784641	   -11.932	-0.000773025	   -11.932	  -19.3256	
  -11.9509	-0.000783874	    -11.93	-0.000771477	  -11.9356	-0.000794912	  -11.9388	-0.000783421	  -11.9388	  -19.5855	
  -11.9575	-0.000794452	  -11.9361	-0.000781603	   -11.942	-0.000805082	  -11.9452	-0.000793712	  -11.9452	  -19.8428	
  -11.9637	-0.000804951	  -11.9417	-0.000791614	   -11.948	-0.000815251	  -11.9511	-0.000803938	  -11.9511	  -20.0985	
  -11.9693	-0.000815357	  -11.9468	-0.000801671	  -11.9535	-0.00082549	  -11.9565	-0.000814173	  -11.9565	  -20.3543	
  -11.9744	-0.000825674	  -11.9515	-0.000811863	  -11.9584	-0.000835801	  -11.9614	-0.000824446	  -11.9614	  -20.6111	
   -11.979	-0.000835949	  -11.9558	-0.000822223	  -11.9629	-0.000846116	  -11.9659	-0.000834763	  -11.9659	  -20.8691	
  -11.9832	-0.00084622	  -11.9596	-0.000832658	   -11.967	-0.000856342	  -11.9699	-0.000845073	  -11.9699	  -21.1268	
  -11.9868	-0.000856501	  -11.9631	-0.000843024	  -11.9706	-0.000866415	  -11.9735	-0.000855313	  -11.9735	  -21.3828	
  -11.9901	-0.000866785	  -11.9662	-0.000853206	  -11.9738	-0.000876337	  -11.9767	-0.000865443	  -11.9767	  -21.6361	
   -11.993	-0.000877018	   -11.969	-0.000863156	  -11.9766	-0.00088617	  -11.9795	-0.000875448	  -11.9795	  -21.8862	
  -11.9955	-0.000887171	  -11.9714	-0.000872939	  -11.9791	-0.000895997	   -11.982	-0.000885369	   -11.982	  -22.1342	
  -11.9976	-0.000897215	  -11.9735	-0.000882672	  -11.9812	-0.00090588	  -11.9841	-0.000895256	  -11.9841	  -22.3814	
  -11.9993	-0.000907169	  -11.9754	-0.00089247	  -11.9831	-0.000915816	  -11.9859	-0.000905152	  -11.9859	  -22.6288	
  -12.0007	-0.00091708	  -11.9769	-0.000902386	  -11.9846	-0.000925749	  -11.9874	-0.000915072	  -11.9874	  -22.8768	
  -12.0018	-0.000926979	  -11.9781	-0.000912381	  -11.9858	-0.000935598	  -11.9886	-0.000924986	  -11.9886	  -23.1247	
  -12.0027	-0.000936889	  -11.9789	-0.000922353	  -11.9868	-0.000945308	  -11.9895	-0.00093485	  -11.9895	  -23.3712	
  -12.0031	-0.000946763	  -11.9796	-0.000932188	  -11.9876	-0.000954881	  -11.9901	-0.000944611	  -11.9901	  -23.6153	
  -12.0032	-0.000956551	  -11.9797	-0.000941833	  -11.9881	-0.000964373	  -11.9904	-0.000954252	  -11.9904	  -23.8563	
  -12.0032	-0.000966244	  -11.9795	-0.000951314	  -11.9882	-0.000973861	  -11.9903	-0.000963806	  -11.9903	  -24.0952	
  -12.0028	-0.000975862	  -11.9787	-0.000960731	  -11.9879	-0.00098339	  -11.9898	-0.000973328	  -11.9898	  -24.3332	
   -12.002	-0.00098545	  -11.9775	-0.000970187	  -11.9871	-0.000992962	  -11.9889	-0.000982867	  -11.9889	  -24.5717	
  -12.0008	-0.000995043	  -11.9758	-0.000979733	  -11.9861	-0.00100252	  -11.9876	-0.000992433	  -11.9876	  -24.8108	
  -11.9988	-0.00100467	  -11.9735	-0.00098933	  -11.9843	-0.00101201	  -11.9855	 -0.001002	  -11.9855	  -25.0501	
  -11.9964	-0.00101429	  -11.9707	-0.000998882	   -11.982	-0.00102137	   -11.983	-0.00101152	   -11.983	  -25.2879	
  -11.9933	-0.00102382	  -11.9674	-0.00100829	   -11.979	-0.00103061	  -11.9799	-0.00102091	  -11.9799	  -25.5226	
  -11.9897	-0.0010332	  -11.9636	-0.00101751	  -11.9756	-0.00103976	  -11.9763	-0.00103016	  -11.9763	  -25.7539	
  -11.9855	-0.00104243	  -11.9594	-0.00102661	  -11.9716	-0.00104888	  -11.9721	-0.00103931	  -11.9721	  -25.9827	
  -11.9808	-0.00105155	  -11.9547	-0.0010357	  -11.9671	-0.00105803	  -11.9676	-0.00104842	  -11.9676	  -26.2106	
  -11.9758	-0.00106065	  -11.9498	-0.00104485	  -11.9623	-0.00106721	  -11.9626	-0.00105757	  -11.9626	  -26.4393	
  -11.9704	-0.00106981	  -11.9444	-0.00105409	   -11.957	-0.00107638	  -11.9573	-0.00106676	  -11.9573	   -26.669	
  -11.9647	-0.00107904	  -11.9388	-0.00106333	  -11.9514	-0.00108549	  -11.9516	-0.00107596	  -11.9516	  -26.8989	
  -11.9586	-0.00108828	  -11.9328	-0.00107247	  -11.9454	-0.00109448	  -11.9456	-0.00108508	  -11.9456	  -27.1269	
  -11.9521	-0.00109744	  -11.9263	-0.00108142	   -11.939	-0.00110334	  -11.9392	-0.00109407	  -11.9392	  -27.3517	
  -11.9453	-0.00110646	  -11.9194	-0.00109019	  -11.9321	-0.00111212	  -11.9323	-0.00110292	  -11.9323	  -27.5731	
  -11.9378	-0.00111533	  -11.9119	-0.00109886	  -11.9246	-0.00112086	  -11.9247	-0.00111168	  -11.9247	  -27.7921	
  -11.9296	-0.00112407	  -11.9038	-0.00110754	  -11.9164	-0.00112964	  -11.9166	-0.00112042	  -11.9166	  -28.0104	
  -11.9208	-0.0011328	  -11.8952	-0.00111629	  -11.9076	-0.00113843	  -11.9079	-0.00112917	  -11.9079	  -28.2294	
  -11.9115	-0.00114157	  -11.8861	-0.00112511	  -11.8984	-0.00114721	  -11.8986	-0.00113796	  -11.8986	  -28.4491	
  -11.9017	-0.00115037	  -11.8766	-0.00113392	  -11.8887	-0.00115592	   -11.889	-0.00114674	   -11.889	  -28.6684	
  -11.8916	-0.00115917	  -11.8668	-0.0011426	  -11.8787	-0.00116451	   -11.879	-0.00115543	   -11.879	  -28.8857	
  -11.8812	-0.00116788	  -11.8568	-0.0011511	  -11.8681	-0.00117296	  -11.8687	-0.00116398	  -11.8687	  -29.0995	
  -11.8704	-0.00117643	  -11.8463	-0.00115943	  -11.8572	-0.00118131	   -11.858	-0.00117239	   -11.858	  -29.3098	
  -11.8591	-0.00118484	   -11.835	-0.00116766	  -11.8458	-0.00118963	  -11.8466	-0.00118071	  -11.8466	  -29.5178	
  -11.8473	-0.00119318	   -11.823	-0.0011759	  -11.8337	-0.00119798	  -11.8346	-0.00118902	  -11.8346	  -29.7255	
  -11.8347	-0.00120157	  -11.8104	-0.0011842	  -11.8209	-0.00120637	   -11.822	-0.00119738	   -11.822	  -29.9345	
  -11.8216	-0.00121005	  -11.7973	-0.00119254	  -11.8076	-0.00121475	  -11.8089	-0.00120578	  -11.8089	  -30.1445	
   -11.808	-0.00121858	  -11.7838	-0.00120086	  -11.7939	-0.00122305	  -11.7953	-0.00121416	  -11.7953	  -30.3541	
  -11.7941	-0.00122705	  -11.7699	-0.00120905	  -11.7799	-0.00123122	  -11.7813	-0.00122244	  -11.7813	   -30.561	
  -11.7798	-0.00123533	  -11.7557	-0.00121708	  -11.7655	-0.00123925	   -11.767	-0.00123055	   -11.767	  -30.7638	
  -11.7651	-0.00124343	  -11.7411	-0.00122494	  -11.7506	-0.00124717	  -11.7523	-0.00123851	  -11.7523	  -30.9629	
  -11.7502	-0.00125138	   -11.726	-0.00123273	  -11.7352	-0.00125505	  -11.7372	-0.00124638	  -11.7372	  -31.1596	
  -11.7347	-0.00125932	  -11.7103	-0.00124053	  -11.7195	-0.00126291	  -11.7215	-0.00125425	  -11.7215	  -31.3563	
  -11.7186	-0.00126733	   -11.694	-0.00124838	  -11.7031	-0.00127079	  -11.7052	-0.00126216	  -11.7052	  -31.5541	
  -11.7019	-0.00127542	  -11.6773	-0.00125626	  -11.6863	-0.00127863	  -11.6885	-0.00127011	  -11.6885	  -31.7526	
  -11.6848	-0.00128349	  -11.6602	-0.00126412	  -11.6691	-0.00128641	  -11.6714	-0.00127801	  -11.6714	  -31.9501	
  -11.6673	-0.00129144	  -11.6428	-0.00127186	  -11.6517	-0.00129407	  -11.6539	-0.00128579	  -11.6539	  -32.1447	
  -11.6495	-0.00129921	  -11.6247	-0.00127943	  -11.6337	-0.00130162	   -11.636	-0.00129342	   -11.636	  -32.3356	
  -11.6312	-0.00130681	  -11.6061	-0.00128687	   -11.615	-0.00130908	  -11.6174	-0.00130092	  -11.6174	   -32.523	
  -11.6122	-0.00131433	  -11.5869	-0.00129423	  -11.5958	-0.00131648	  -11.5983	-0.00130835	  -11.5983	  -32.7087	
  -11.5925	-0.00132184	  -11.5672	-0.0013016	  -11.5761	-0.00132385	  -11.5786	-0.00131576	  -11.5786	   -32.894	
  -11.5725	-0.00132939	  -11.5471	-0.00130899	   -11.556	-0.0013312	  -11.5585	-0.00132319	  -11.5585	  -33.0799	
   -11.552	-0.00133697	  -11.5267	-0.00131639	  -11.5357	-0.00133852	  -11.5381	-0.00133063	  -11.5381	  -33.2657	
  -11.5314	-0.0013445	  -11.5056	-0.00132376	  -11.5149	-0.00134577	  -11.5173	-0.00133801	  -11.5173	  -33.4503	
    -11.51	-0.00135191	   -11.484	-0.00133101	  -11.4937	-0.00135294	  -11.4959	-0.00134529	  -11.4959	  -33.6321	
  -11.4881	-0.00135914	  -11.4617	-0.00133813	  -11.4718	-0.00136001	  -11.4739	-0.00135242	  -11.4739	  -33.8106	
  -11.4656	-0.00136622	  -11.4391	-0.00134512	  -11.4494	-0.00136698	  -11.4513	-0.00135944	  -11.4513	   -33.986	
  -11.4427	-0.00137323	   -11.416	-0.00135205	  -11.4265	-0.00137389	  -11.4284	-0.00136639	  -11.4284	  -34.1597	
  -11.4194	-0.00138023	  -11.3926	-0.00135897	  -11.4033	-0.00138077	  -11.4051	-0.00137332	  -11.4051	   -34.333	
  -11.3958	-0.00138727	  -11.3687	-0.00136592	  -11.3795	-0.00138762	  -11.3814	-0.00138027	  -11.3814	  -34.5068	
  -11.3718	-0.00139433	  -11.3442	-0.00137288	  -11.3551	-0.00139445	   -11.357	-0.00138722	   -11.357	  -34.6804	
   -11.347	-0.00140134	  -11.3191	-0.00137977	  -11.3302	-0.00140122	  -11.3321	-0.00139411	  -11.3321	  -34.8527	
  -11.3218	-0.00140823	  -11.2936	-0.00138653	  -11.3048	-0.0014079	  -11.3067	-0.00140089	  -11.3067	  -35.0222	
  -11.2962	-0.00141497	  -11.2678	-0.00139315	  -11.2791	-0.00141449	   -11.281	-0.00140753	   -11.281	  -35.1884	
  -11.2702	-0.00142156	  -11.2416	-0.00139964	  -11.2532	-0.00142099	   -11.255	-0.00141406	   -11.255	  -35.3516	
  -11.2439	-0.00142808	  -11.2148	-0.00140609	  -11.2269	-0.00142743	  -11.2285	-0.00142053	  -11.2285	  -35.5132	
  -11.2169	-0.00143458	  -11.1874	-0.00141253	     -11.2	-0.00143383	  -11.2014	-0.00142698	  -11.2014	  -35.6745	
  -11.1893	-0.00144111	  -11.1597	-0.00141901	  -11.1727	-0.0014402	  -11.1739	-0.00143344	  -11.1739	  -35.8359	
  -11.1614	-0.00144764	  -11.1317	-0.00142547	   -11.145	-0.00144654	   -11.146	-0.00143988	   -11.146	  -35.9971	
  -11.1333	-0.00145411	  -11.1034	-0.00143187	   -11.117	-0.00145281	  -11.1179	-0.00144627	  -11.1179	  -36.1566	
  -11.1047	-0.00146047	  -11.0744	-0.00143814	  -11.0883	-0.00145901	  -11.0892	-0.00145254	  -11.0892	  -36.3135	
  -11.0757	-0.00146668	  -11.0449	-0.00144427	  -11.0591	-0.00146512	  -11.0599	-0.00145869	  -11.0599	  -36.4673	
  -11.0461	-0.00147277	   -11.015	-0.00145028	  -11.0294	-0.00147115	  -11.0302	-0.00146473	  -11.0302	  -36.6183	
  -11.0161	-0.00147878	  -10.9849	-0.00145624	  -10.9993	-0.00147712	  -11.0001	-0.00147071	  -11.0001	  -36.7679	
   -10.986	-0.00148479	  -10.9542	-0.00146218	  -10.9692	-0.00148304	  -10.9698	-0.00147667	  -10.9698	  -36.9167	
  -10.9552	-0.0014908	  -10.9229	-0.00146811	  -10.9384	-0.00148893	  -10.9388	-0.00148261	  -10.9388	  -37.0653	
  -10.9237	-0.00149681	  -10.8912	-0.00147403	   -10.907	-0.00149478	  -10.9073	-0.00148854	  -10.9073	  -37.2135	
  -10.8919	-0.00150274	  -10.8591	-0.0014799	  -10.8753	-0.0015006	  -10.8754	-0.00149441	  -10.8754	  -37.3603	
  -10.8597	-0.00150856	  -10.8268	-0.00148571	  -10.8431	-0.00150635	  -10.8432	-0.0015002	  -10.8432	  -37.5051	
  -10.8273	-0.00151424	  -10.7938	-0.00149143	  -10.8105	 -0.001512	  -10.8105	-0.00150589	  -10.8105	  -37.6473	
  -10.7943	-0.0015198	  -10.7603	-0.00149709	  -10.7772	-0.00151755	  -10.7773	-0.00151148	  -10.7773	  -37.7869	
  -10.7607	-0.0015253	  -10.7264	-0.00150267	  -10.7434	-0.00152298	  -10.7435	-0.00151698	  -10.7435	  -37.9246	
  -10.7269	-0.00153078	  -10.6924	-0.0015082	  -10.7094	-0.00152832	  -10.7095	-0.00152243	  -10.7095	  -38.0608	
  -10.6926	-0.00153626	  -10.6581	-0.00151367	  -10.6751	-0.00153361	  -10.6753	-0.00152785	  -10.6753	  -38.1962	
  -10.6578	-0.00154173	  -10.6233	-0.00151908	  -10.6402	-0.00153889	  -10.6404	-0.00153323	  -10.6404	  -38.3308	
  -10.6224	-0.00154714	  -10.5881	-0.00152442	  -10.6049	-0.00154418	  -10.6051	-0.00153858	  -10.6051	  -38.4645	
  -10.5867	-0.00155245	  -10.5525	-0.00152971	  -10.5692	-0.00154945	  -10.5695	-0.00154387	  -10.5695	  -38.5967	
  -10.5507	-0.00155763	  -10.5167	-0.00153492	  -10.5332	-0.00155465	  -10.5335	-0.00154907	  -10.5335	  -38.7267	
  -10.5142	-0.00156268	  -10.4804	-0.00154009	  -10.4966	-0.00155976	  -10.4971	-0.00155418	  -10.4971	  -38.8544	
  -10.4772	-0.00156766	  -10.4436	-0.0015452	  -10.4595	-0.00156475	  -10.4601	-0.0015592	  -10.4601	    -38.98	
  -10.4397	-0.0015726	  -10.4065	-0.00155027	   -10.422	-0.00156963	  -10.4228	-0.00156417	  -10.4228	  -39.1042	
   -10.402	-0.00157756	  -10.3691	-0.00155528	  -10.3844	-0.00157445	  -10.3852	-0.0015691	  -10.3852	  -39.2274	
  -10.3639	-0.00158252	  -10.3312	-0.00156024	  -10.3462	-0.00157923	  -10.3471	 -0.001574	  -10.3471	  -39.3499	
  -10.3251	-0.00158743	  -10.2927	-0.00156512	  -10.3076	-0.00158401	  -10.3085	-0.00157885	  -10.3085	  -39.4713	
   -10.286	-0.00159224	   -10.254	-0.00156993	  -10.2687	-0.00158877	  -10.2696	-0.00158364	  -10.2696	  -39.5911	
  -10.2467	-0.00159692	  -10.2148	-0.00157466	  -10.2294	-0.00159348	  -10.2303	-0.00158835	  -10.2303	  -39.7088	
   -10.207	-0.00160149	  -10.1752	-0.00157931	  -10.1898	-0.00159811	  -10.1907	-0.00159297	  -10.1907	  -39.8242	
  -10.1668	-0.00160598	   -10.135	-0.00158388	  -10.1497	-0.00160265	  -10.1505	-0.0015975	  -10.1505	  -39.9376	
  -10.1262	-0.00161045	  -10.0946	-0.00158839	  -10.1093	-0.00160711	  -10.1101	-0.00160198	  -10.1101	  -40.0495	
  -10.0852	-0.0016149	  -10.0537	-0.00159286	  -10.0686	-0.0016115	  -10.0692	-0.00160642	  -10.0692	  -40.1605	
  -10.0436	-0.00161929	  -10.0122	-0.00159733	  -10.0274	-0.00161586	  -10.0277	-0.00161083	  -10.0277	  -40.2706	
  -10.0015	-0.0016236	  -9.97001	-0.0016018	  -9.98572	-0.00162019	  -9.98573	-0.0016152	  -9.98573	  -40.3799	
  -9.95907	-0.0016278	  -9.92695	-0.00160627	  -9.94374	-0.00162448	  -9.94325	-0.00161951	  -9.94325	  -40.4879	
   -9.9163	-0.00163191	  -9.88325	-0.00161066	  -9.90137	-0.00162873	  -9.90031	-0.00162377	  -9.90031	  -40.5941	
  -9.87304	-0.00163596	  -9.83926	-0.00161492	  -9.85853	-0.00163292	  -9.85695	-0.00162793	  -9.85695	  -40.6984	
  -9.82938	  -0.00164	  -9.79517	-0.00161899	  -9.81529	-0.00163704	  -9.81328	-0.00163201	  -9.81328	  -40.8003	
  -9.78549	-0.00164403	   -9.7514	-0.00162291	  -9.77168	-0.00164109	  -9.76953	-0.00163601	  -9.76953	  -40.9002	
  -9.74102	-0.00164802	  -9.70769	-0.00162672	  -9.72764	-0.00164507	  -9.72545	-0.00163994	  -9.72545	  -40.9984	
  -9.69603	-0.00165191	  -9.66378	-0.00163053	  -9.68307	-0.00164902	  -9.68096	-0.00164382	  -9.68096	  -41.0955	
  -9.65073	-0.00165569	  -9.61957	-0.00163439	   -9.6382	-0.00165293	  -9.63617	-0.00164767	  -9.63617	  -41.1918	
  -9.60517	-0.00165937	  -9.57471	-0.00163829	  -9.59292	-0.00165679	  -9.59093	-0.00165148	  -9.59093	  -41.2871	
  -9.55914	-0.00166297	  -9.52927	-0.00164214	  -9.54718	-0.00166056	   -9.5452	-0.00165523	   -9.5452	  -41.3806	
  -9.51271	-0.00166655	  -9.48346	-0.00164585	  -9.50104	-0.00166419	  -9.49907	-0.00165887	  -9.49907	  -41.4717	
  -9.46607	-0.00167011	  -9.43695	-0.00164939	  -9.45469	-0.0016677	  -9.45257	-0.0016624	  -9.45257	  -41.5599	
  -9.41914	-0.0016736	  -9.39009	-0.00165276	  -9.40792	-0.00167114	  -9.40572	-0.00166583	  -9.40572	  -41.6459	
   -9.3717	-0.00167699	  -9.34281	-0.00165607	  -9.36066	-0.00167458	  -9.35839	-0.00166922	  -9.35839	  -41.7304	
  -9.32398	-0.00168023	  -9.29531	-0.00165942	  -9.31312	-0.00167806	   -9.3108	-0.00167257	   -9.3108	  -41.8143	
  -9.27602	-0.00168334	  -9.24765	-0.00166289	  -9.26522	-0.00168156	  -9.26297	-0.00167593	  -9.26297	  -41.8982	
  -9.22748	-0.00168637	  -9.19948	-0.00166641	  -9.21676	-0.00168502	  -9.21457	-0.00167927	  -9.21457	  -41.9817	
  -9.17859	-0.00168942	    -9.151	-0.00166987	  -9.16796	-0.00168835	  -9.16585	-0.00168255	  -9.16585	  -42.0636	
   -9.1294	-0.00169249	  -9.10215	-0.00167314	  -9.11902	-0.00169151	  -9.11686	-0.00168571	  -9.11686	  -42.1429	
  -9.07986	-0.00169558	  -9.05272	-0.00167615	  -9.06973	-0.00169451	  -9.06744	-0.00168875	  -9.06744	  -42.2187	
  -9.02989	-0.00169861	  -9.00295	-0.00167896	  -9.02002	-0.00169742	  -9.01762	-0.00169166	  -9.01762	  -42.2916	
  -8.97972	-0.0017015	  -8.95303	-0.00168177	   -8.9701	-0.00170031	  -8.96762	-0.00169453	  -8.96762	  -42.3632	
  -8.92914	-0.00170424	   -8.9029	-0.00168465	  -8.91977	-0.00170325	  -8.91727	-0.00169738	  -8.91727	  -42.4345	
  -8.87809	-0.00170685	  -8.85235	-0.00168768	   -8.8691	-0.00170622	  -8.86651	-0.00170025	  -8.86651	  -42.5062	
  -8.82679	-0.0017094	  -8.80158	-0.00169071	  -8.81818	-0.00170917	  -8.81552	-0.00170309	  -8.81552	  -42.5774	
  -8.77519	-0.00171196	  -8.75054	-0.00169365	  -8.76693	-0.00171201	  -8.76422	-0.00170587	  -8.76422	  -42.6468	
  -8.72321	-0.00171454	  -8.69902	-0.00169634	  -8.71516	-0.00171469	  -8.71246	-0.00170852	  -8.71246	  -42.7131	
  -8.67095	-0.00171711	  -8.64725	-0.0016988	   -8.6631	-0.00171723	  -8.66043	-0.00171105	  -8.66043	  -42.7762	
  -8.61847	-0.00171963	  -8.59516	-0.00170113	  -8.61055	-0.00171966	  -8.60806	-0.00171348	  -8.60806	  -42.8369	
  -8.56572	-0.00172206	  -8.54255	-0.00170349	  -8.55747	-0.00172207	  -8.55525	-0.00171587	  -8.55525	  -42.8968	
  -8.51263	-0.00172437	  -8.48967	-0.00170597	   -8.5041	-0.00172449	  -8.50214	-0.00171828	  -8.50214	   -42.957	
  -8.45943	-0.00172661	  -8.43659	-0.00170857	  -8.45053	-0.00172695	  -8.44885	-0.00172071	  -8.44885	  -43.0177	
  -8.40577	-0.00172881	  -8.38311	-0.00171118	   -8.3964	-0.00172938	  -8.39509	-0.00172312	  -8.39509	  -43.0781	
  -8.35175	 -0.001731	  -8.32932	-0.00171365	  -8.34198	-0.00173173	  -8.34101	-0.00172546	  -8.34101	  -43.1364	
  -8.29759	-0.00173317	   -8.2753	-0.00171589	  -8.28733	-0.00173394	  -8.28674	-0.00172767	  -8.28674	  -43.1917	
  -8.24296	-0.00173529	  -8.22073	-0.0017179	  -8.23228	-0.00173602	  -8.23199	-0.00172973	  -8.23199	  -43.2433	
  -8.18796	-0.00173729	  -8.16585	-0.00171977	  -8.17692	 -0.001738	  -8.17691	-0.00173169	  -8.17691	  -43.2922	
  -8.13282	-0.00173918	  -8.11062	-0.00172164	  -8.12148	-0.00173996	  -8.12164	-0.00173359	  -8.12164	  -43.3399	
  -8.07735	-0.00174099	  -8.05511	-0.00172359	  -8.06561	-0.00174194	  -8.06602	-0.00173551	  -8.06602	  -43.3876	
  -8.02148	-0.00174277	   -7.9993	-0.00172564	  -8.00942	-0.00174393	  -8.01007	-0.00173745	  -8.01007	  -43.4362	
  -7.96548	-0.00174459	  -7.94285	-0.00172769	  -7.95314	-0.0017459	  -7.95382	-0.0017394	  -7.95382	  -43.4849	
  -7.90899	-0.00174646	  -7.88603	-0.00172963	   -7.8963	-0.00174779	  -7.89711	-0.00174129	  -7.89711	  -43.5323	
  -7.85227	-0.00174831	  -7.82893	-0.00173137	  -7.83916	-0.00174955	  -7.84012	-0.00174308	  -7.84012	  -43.5769	
   -7.7954	-0.00175007	  -7.77152	-0.00173289	   -7.7818	-0.00175119	  -7.78291	-0.00174472	  -7.78291	  -43.6179	
  -7.73793	-0.00175166	  -7.71375	-0.00173428	  -7.72418	-0.00175275	  -7.72529	-0.00174623	  -7.72529	  -43.6558	
   -7.6801	-0.0017531	  -7.65573	-0.00173565	  -7.66625	-0.00175429	  -7.66736	-0.00174768	  -7.66736	   -43.692	
  -7.62217	-0.00175444	  -7.59715	-0.00173709	  -7.60826	-0.00175585	  -7.60919	-0.00174913	  -7.60919	  -43.7282	
   -7.5638	-0.00175579	  -7.53826	-0.00173862	  -7.54987	-0.00175743	  -7.55064	-0.00175061	  -7.55064	  -43.7653	
   -7.5051	-0.0017572	  -7.47903	-0.00174016	   -7.4912	-0.00175896	  -7.49178	-0.0017521	  -7.49178	  -43.8026	
  -7.44618	-0.00175864	  -7.41943	-0.0017416	  -7.43221	-0.00176039	  -7.43261	-0.00175354	  -7.43261	  -43.8386	
    -7.387	-0.00176004	  -7.35958	-0.00174284	  -7.37285	-0.00176169	  -7.37314	-0.00175486	  -7.37314	  -43.8714	
  -7.32752	-0.00176131	  -7.29956	-0.00174386	  -7.31325	-0.00176287	  -7.31345	-0.00175601	  -7.31345	  -43.9003	
  -7.26785	-0.00176241	  -7.23935	-0.00174474	  -7.25351	-0.00176398	  -7.25357	-0.00175704	  -7.25357	   -43.926	
   -7.2078	-0.00176336	  -7.17876	-0.00174559	  -7.19343	-0.00176507	  -7.19333	-0.00175801	  -7.19333	  -43.9503	
  -7.14749	-0.00176425	  -7.11805	-0.00174653	  -7.13313	-0.00176618	  -7.13289	-0.00175899	  -7.13289	  -43.9747	
  -7.08703	-0.00176515	   -7.0569	-0.00174756	  -7.07244	-0.00176728	  -7.07212	  -0.00176	  -7.07212	       -44	
  -7.02609	-0.00176608	  -6.99544	-0.00174861	  -7.01134	-0.00176833	  -7.01096	-0.00176101	  -7.01096	  -44.0252	
  -6.96481	-0.00176702	   -6.9339	-0.00174956	  -6.94995	-0.00176926	  -6.94955	-0.00176195	  -6.94955	  -44.0487	
  -6.90316	-0.00176792	  -6.87199	-0.00175032	  -6.88823	-0.00177005	  -6.88779	-0.00176276	  -6.88779	   -44.069	
  -6.84126	-0.00176873	  -6.80981	-0.00175088	  -6.82618	-0.00177071	  -6.82575	-0.00176344	  -6.82575	   -44.086	
  -6.77923	-0.00176943	  -6.74734	-0.00175134	  -6.76391	-0.00177129	  -6.76349	-0.00176402	  -6.76349	  -44.1005	
  -6.71661	-0.00177005	  -6.68442	-0.00175179	  -6.70111	-0.00177186	  -6.70071	-0.00176457	  -6.70071	  -44.1141	
  -6.65368	-0.00177062	  -6.62132	-0.00175232	  -6.63805	-0.00177245	  -6.63768	-0.00176513	  -6.63768	  -44.1282	
  -6.59069	-0.00177116	  -6.55814	-0.00175292	  -6.57486	-0.00177306	  -6.57456	-0.00176571	  -6.57456	  -44.1428	
  -6.52747	-0.00177167	  -6.49458	-0.0017535	  -6.51149	-0.00177361	  -6.51118	-0.00176626	  -6.51118	  -44.1565	
  -6.46399	-0.00177212	  -6.43076	-0.00175398	  -6.44793	-0.00177405	  -6.44756	-0.00176672	  -6.44756	  -44.1679	
  -6.40009	-0.0017725	  -6.36679	-0.00175426	  -6.38413	-0.00177435	  -6.38367	-0.00176704	  -6.38367	  -44.1759	
  -6.33578	-0.00177278	  -6.30251	-0.00175437	  -6.31995	-0.00177452	  -6.31941	-0.00176723	  -6.31941	  -44.1807	
  -6.27131	-0.00177297	  -6.23818	-0.0017544	  -6.25564	-0.00177462	  -6.25504	-0.00176733	  -6.25504	  -44.1833	
  -6.20652	-0.0017731	  -6.17363	-0.00175443	  -6.19118	-0.0017747	  -6.19045	-0.00176741	  -6.19045	  -44.1852	
  -6.14154	-0.00177319	  -6.10898	-0.00175452	  -6.12641	-0.00177478	  -6.12565	-0.0017675	  -6.12565	  -44.1875	
  -6.07649	-0.00177326	  -6.04418	-0.00175466	  -6.06159	-0.00177484	  -6.06076	-0.00176759	  -6.06076	  -44.1897	
   -6.0112	-0.0017733	  -5.97936	-0.00175478	  -5.99641	-0.00177484	  -5.99566	-0.00176764	  -5.99566	   -44.191	
  -5.94564	-0.0017733	  -5.91434	-0.00175478	    -5.931	-0.00177474	  -5.93033	-0.00176761	  -5.93033	  -44.1902	
  -5.88008	-0.00177321	  -5.84924	-0.00175462	  -5.86534	-0.00177452	  -5.86489	-0.00176745	  -5.86489	  -44.1862	
  -5.81408	-0.00177302	  -5.78375	-0.00175431	  -5.79942	-0.00177422	  -5.79908	-0.00176718	  -5.79908	  -44.1795	
  -5.74791	-0.00177273	  -5.71787	-0.00175391	  -5.73323	-0.00177386	    -5.733	-0.00176684	    -5.733	  -44.1709	
  -5.68156	-0.0017724	  -5.65173	-0.00175351	  -5.66688	-0.00177347	  -5.66672	-0.00176646	  -5.66672	  -44.1615	
  -5.61486	-0.00177203	  -5.58546	-0.00175316	  -5.60024	-0.00177305	  -5.60018	-0.00176608	  -5.60018	   -44.152	
  -5.54808	-0.00177165	  -5.51918	-0.00175285	  -5.53355	-0.00177256	   -5.5336	-0.00176569	   -5.5336	  -44.1422	
  -5.48081	-0.00177124	  -5.45271	-0.0017525	  -5.46639	-0.00177197	  -5.46664	-0.00176524	  -5.46664	   -44.131	
  -5.41332	-0.00177078	  -5.38604	-0.00175205	  -5.39905	-0.00177127	  -5.39947	-0.0017647	  -5.39947	  -44.1175	
  -5.34559	-0.00177021	  -5.31915	-0.00175146	  -5.33149	-0.00177049	  -5.33208	-0.00176405	  -5.33208	  -44.1013	
   -5.2775	-0.00176955	  -5.25191	-0.00175074	  -5.26359	-0.00176965	  -5.26433	-0.00176331	  -5.26433	  -44.0828	
  -5.20931	-0.0017688	   -5.1843	-0.00174993	  -5.19561	-0.00176883	  -5.19641	-0.00176252	  -5.19641	   -44.063	
  -5.14086	-0.00176798	  -5.11646	-0.00174912	   -5.1274	 -0.001768	  -5.12824	-0.0017617	  -5.12824	  -44.0425	
  -5.07216	-0.00176712	  -5.04839	-0.00174835	  -5.05894	-0.00176712	  -5.05983	-0.00176086	  -5.05983	  -44.0216	
  -5.00334	-0.00176623	  -4.98022	-0.0017476	  -4.99038	-0.00176613	  -4.99132	-0.00175998	  -4.99132	  -43.9996	
  -4.93412	-0.0017653	  -4.91166	-0.00174682	  -4.92142	-0.00176497	   -4.9224	-0.00175903	   -4.9224	  -43.9757	
  -4.86477	-0.0017643	  -4.84298	-0.00174593	  -4.85235	-0.00176366	  -4.85336	-0.00175796	  -4.85336	  -43.9491	
  -4.79528	-0.00176321	  -4.77431	-0.00174489	  -4.78314	-0.00176226	  -4.78424	-0.00175679	  -4.78424	  -43.9197	
  -4.72551	-0.00176202	  -4.70535	-0.00174372	   -4.7138	-0.00176088	  -4.71489	-0.00175554	  -4.71489	  -43.8885	
  -4.65575	-0.00176074	  -4.63624	-0.00174248	  -4.64432	-0.00175954	  -4.64543	-0.00175425	  -4.64543	  -43.8563	
  -4.58568	-0.00175938	   -4.5667	-0.00174122	  -4.57467	-0.00175826	  -4.57568	-0.00175296	  -4.57568	  -43.8239	
  -4.51546	-0.00175799	  -4.49701	-0.00173999	  -4.50486	-0.00175695	  -4.50578	-0.00175165	  -4.50578	  -43.7912	
  -4.44522	-0.00175657	  -4.42731	-0.00173877	  -4.43474	-0.00175551	  -4.43575	-0.00175028	  -4.43575	  -43.7571	
  -4.37466	-0.00175515	   -4.3573	-0.00173751	  -4.36431	-0.00175387	  -4.36542	-0.00174884	  -4.36542	  -43.7211	
  -4.30407	-0.00175369	  -4.28725	-0.00173614	  -4.29373	-0.00175205	  -4.29502	-0.00174729	  -4.29502	  -43.6823	
  -4.23329	-0.00175215	  -4.21689	-0.00173464	  -4.22313	-0.00175015	  -4.22444	-0.00174564	  -4.22444	  -43.6411	
  -4.16233	-0.00175046	  -4.14635	-0.00173301	  -4.15235	-0.00174827	  -4.15368	-0.00174391	  -4.15368	  -43.5978	
  -4.09132	-0.00174859	  -4.07564	-0.00173131	  -4.08152	-0.00174647	  -4.08283	-0.00174213	  -4.08283	  -43.5531	
  -4.01998	-0.00174659	  -4.00461	-0.00172958	  -4.01037	-0.00174474	  -4.01165	-0.0017403	  -4.01165	  -43.5076	
  -3.94859	-0.00174451	  -3.93341	-0.00172786	  -3.93918	-0.00174298	  -3.94039	-0.00173845	  -3.94039	  -43.4612	
  -3.87687	-0.00174245	  -3.86204	-0.00172613	  -3.86766	-0.0017411	  -3.86886	-0.00173656	  -3.86886	   -43.414	
  -3.80498	-0.00174045	   -3.7905	-0.00172437	  -3.79596	-0.00173902	  -3.79715	-0.00173462	  -3.79715	  -43.3654	
  -3.73304	-0.00173851	  -3.71893	-0.00172252	  -3.72409	-0.00173676	  -3.72535	-0.0017326	  -3.72535	   -43.315	
  -3.66092	-0.00173656	  -3.64717	-0.00172054	  -3.65205	-0.00173439	  -3.65338	-0.0017305	  -3.65338	  -43.2625	
  -3.58875	-0.00173452	  -3.57538	-0.00171842	  -3.57997	-0.00173201	  -3.58136	-0.00172832	  -3.58136	   -43.208	
  -3.51638	-0.00173232	  -3.50353	-0.00171619	  -3.50798	-0.00172969	   -3.5093	-0.00172607	   -3.5093	  -43.1516	
  -3.44384	-0.00172995	  -3.43162	-0.0017139	  -3.43579	-0.00172742	  -3.43708	-0.00172376	  -3.43708	   -43.094	
  -3.37124	-0.00172747	  -3.35978	-0.00171161	  -3.36368	-0.00172517	   -3.3649	-0.00172142	   -3.3649	  -43.0354	
  -3.29833	-0.00172496	  -3.28758	-0.00170933	  -3.29135	-0.00172282	  -3.29242	-0.00171904	  -3.29242	  -42.9759	
  -3.22539	-0.00172249	  -3.21532	-0.00170704	  -3.21896	-0.00172031	  -3.21989	-0.00171661	  -3.21989	  -42.9153	
  -3.15227	-0.00172005	  -3.14285	-0.00170467	  -3.14649	-0.00171763	   -3.1472	-0.00171412	   -3.1472	   -42.853	
  -3.07899	-0.00171761	  -3.07017	-0.0017022	   -3.0738	-0.00171483	  -3.07432	-0.00171154	  -3.07432	  -42.7886	
  -3.00581	-0.00171508	  -2.99743	-0.00169959	  -3.00105	-0.00171196	  -3.00143	-0.00170888	  -3.00143	  -42.7219	
  -2.93232	-0.00171242	  -2.92436	-0.00169686	  -2.92808	-0.00170912	  -2.92825	-0.00170613	  -2.92825	  -42.6533	
  -2.85881	-0.0017096	  -2.85124	-0.00169404	  -2.85504	-0.00170632	  -2.85503	-0.00170332	  -2.85503	  -42.5831	
  -2.78527	-0.00170667	  -2.77794	-0.0016912	  -2.78194	-0.00170352	  -2.78172	-0.00170046	  -2.78172	  -42.5116	
  -2.71157	-0.0017037	  -2.70446	-0.00168833	  -2.70863	-0.00170064	  -2.70822	-0.00169756	  -2.70822	   -42.439	
  -2.63783	-0.00170076	  -2.63108	-0.00168544	  -2.63525	-0.00169761	  -2.63472	-0.0016946	  -2.63472	  -42.3651	
   -2.5638	-0.00169787	  -2.55752	-0.00168251	  -2.56168	-0.0016944	    -2.561	-0.00169159	    -2.561	  -42.2898	
  -2.48976	-0.00169499	  -2.48392	-0.0016795	  -2.48805	-0.00169107	  -2.48724	-0.00168852	  -2.48724	   -42.213	
  -2.41571	-0.00169205	  -2.41015	-0.00167641	  -2.41423	-0.0016877	  -2.41336	-0.00168538	  -2.41336	  -42.1346	
   -2.3415	-0.00168897	   -2.3362	-0.00167325	  -2.34023	-0.00168435	  -2.33931	-0.00168219	  -2.33931	  -42.0547	
  -2.26729	-0.0016857	  -2.26222	-0.00167001	  -2.26619	-0.00168104	  -2.26524	-0.00167892	  -2.26524	  -41.9729	
  -2.19293	-0.00168227	  -2.18808	-0.00166671	  -2.19198	-0.00167773	    -2.191	-0.00167557	    -2.191	  -41.8892	
  -2.11857	-0.00167875	  -2.11379	-0.00166336	  -2.11775	-0.00167433	   -2.1167	-0.00167215	   -2.1167	  -41.8036	
   -2.0442	-0.00167524	  -2.03935	-0.00165994	  -2.04348	-0.00167078	  -2.04234	-0.00166865	  -2.04234	  -41.7164	
  -1.96968	-0.00167173	   -1.9649	-0.00165639	  -1.96905	-0.00166711	  -1.96788	-0.00166508	  -1.96788	  -41.6269	
  -1.89516	-0.00166825	  -1.89059	-0.0016528	   -1.8946	-0.00166333	  -1.89345	-0.00166146	  -1.89345	  -41.5365	
  -1.82037	-0.0016648	  -1.81599	-0.00164916	  -1.81999	-0.0016595	  -1.81878	-0.00165782	  -1.81878	  -41.4456	
  -1.74559	-0.00166131	  -1.74139	-0.00164547	  -1.74537	-0.00165567	  -1.74412	-0.00165415	  -1.74412	  -41.3538	
