# User: ACHyster
# File name: C:/ACHYSTER/ACHyster SENS/SHAMS/CoFe2O4-1gl-water-15 Glycerol- Sens-07-03-2023/CoFe2O4-1gl-water-15 Glycerol- 10_100F- 12kAm -Sens-07-03-20230001#1.txt
# Saved at: ma. mar. 7 14:58:15 2023
# Hyster Loop (3 iterations). Intensity: 12.0 kA/m; Tuned frequency: 19.8 kHz
# Units x axis: (kA/m)
# Units y axis: "Repeats y" & "Average y" (10^(-3)Am^2); "Mass avg y" (Am^2/kg)
# Magnetic mass: 4e-05 g
# Parameter      	Repeat   1	Repeat   2	Repeat   3	Average   	Sigma     
# H_C (kA/m)     	       7.2	       7.2	       7.3	       7.2	       0.0
# M_R (Am^2/kg)  	      43.6	      43.3	      43.1	      43.3	       0.2
# M_max (Am^2/kg)	      58.0	      57.6	      57.5	      57.7	       0.2
# Area (mJ/kg)   	    1892.9	    1879.0	    1877.7	    1883.2	       6.9
# SAR (W/g)      	      37.4	      37.2	      37.1	      37.2	       0.1
#Repeat 1 x	Repeat 1 y	Repeat 2 x	Repeat 2 y	Repeat 3 x	Repeat 3 y	Average x 	Average y 	Mass avg x 	Mass avg y 
  -1.69127	-0.00198694	  -1.68825	-0.0019659	  -1.68718	-0.00195533	   -1.6889	-0.00196939	   -1.6889	  -49.2347	
  -1.61642	-0.00197744	  -1.61323	-0.00195628	  -1.61245	-0.00194577	  -1.61403	-0.00195983	  -1.61403	  -48.9957	
  -1.54158	-0.00196777	  -1.53831	-0.00194659	  -1.53776	-0.00193607	  -1.53921	-0.00195014	  -1.53921	  -48.7536	
   -1.4666	-0.00195799	  -1.46318	-0.00193675	  -1.46286	-0.00192623	  -1.46421	-0.00194032	  -1.46421	   -48.508	
  -1.39162	-0.00194811	  -1.38809	-0.00192689	  -1.38793	-0.00191637	  -1.38921	-0.00193046	  -1.38921	  -48.2615	
  -1.31661	-0.00193807	    -1.313	-0.00191698	  -1.31296	-0.00190639	  -1.31419	-0.00192048	  -1.31419	   -48.012	
  -1.24147	-0.00192791	  -1.23781	-0.0019069	  -1.23793	-0.00189625	  -1.23907	-0.00191036	  -1.23907	  -47.7589	
  -1.16636	-0.00191766	  -1.16263	-0.00189678	  -1.16302	-0.0018861	    -1.164	-0.00190018	    -1.164	  -47.5045	
  -1.09103	-0.00190728	  -1.08731	-0.00188661	  -1.08801	-0.00187583	  -1.08878	-0.00188991	  -1.08878	  -47.2477	
  -1.01573	-0.00189678	  -1.01204	-0.00187628	  -1.01303	-0.00186541	   -1.0136	-0.00187949	   -1.0136	  -46.9873	
 -0.940321	-0.00188619	 -0.936691	-0.00186588	 -0.937954	-0.00185494	 -0.938322	 -0.001869	 -0.938322	  -46.7251	
 -0.864816	-0.00187547	 -0.861262	-0.00185542	 -0.862782	-0.00184438	 -0.862953	-0.00185843	 -0.862953	  -46.4606	
 -0.789383	-0.00186465	 -0.785925	-0.00184484	 -0.787685	-0.00183367	 -0.787664	-0.00184772	 -0.787664	   -46.193	
 -0.713778	-0.00185372	 -0.710375	-0.00183418	  -0.71236	-0.00182291	 -0.712171	-0.00183693	 -0.712171	  -45.9234	
 -0.638226	-0.00184273	 -0.634848	-0.00182344	 -0.637091	-0.00181206	 -0.636722	-0.00182608	 -0.636722	  -45.6519	
 -0.562785	-0.00183161	  -0.55925	-0.0018126	 -0.561632	-0.00180106	 -0.561222	-0.00181509	 -0.561222	  -45.3773	
 -0.487252	-0.00182041	 -0.483599	-0.00180166	 -0.486109	-0.00179001	 -0.485654	-0.00180402	 -0.485654	  -45.1006	
 -0.411853	-0.00180916	 -0.408066	-0.00179064	 -0.410644	-0.00177885	 -0.410188	-0.00179288	 -0.410188	  -44.8221	
 -0.336333	-0.00179769	 -0.332448	-0.00177951	 -0.335089	-0.00176758	 -0.334623	-0.0017816	 -0.334623	  -44.5399	
 -0.260864	-0.00178615	 -0.256861	-0.00176828	 -0.259616	-0.00175625	 -0.259114	-0.00177022	 -0.259114	  -44.2556	
 -0.185356	-0.0017746	 -0.181168	-0.00175694	 -0.184079	-0.00174479	 -0.183534	-0.00175878	 -0.183534	  -43.9694	
  -0.10977	-0.00176284	 -0.105441	-0.0017455	 -0.108495	-0.00173319	 -0.107902	-0.00174718	 -0.107902	  -43.6794	
-0.0343327	-0.00175097	-0.0297971	-0.00173396	-0.0330348	-0.0017216	-0.0323882	-0.00173551	-0.0323882	  -43.3877	
 0.0412662	-0.00173911	 0.0459102	-0.00172231	 0.0426094	-0.00170988	 0.0432619	-0.00172377	 0.0432619	  -43.0942	
  0.116797	-0.0017271	  0.121566	-0.00171055	  0.118154	 -0.001698	  0.118839	-0.00171188	  0.118839	  -42.7971	
  0.192355	-0.00171494	  0.197209	-0.00169869	  0.193798	-0.00168614	  0.194454	-0.00169992	  0.194454	   -42.498	
  0.267979	-0.00170278	  0.272881	-0.00168672	  0.269473	-0.00167416	  0.270111	-0.00168788	  0.270111	  -42.1971	
  0.343503	-0.0016905	  0.348367	-0.00167464	  0.345127	-0.00166203	  0.345666	-0.00167572	  0.345666	   -41.893	
  0.419174	-0.00167805	  0.423972	-0.00166245	  0.420939	-0.00164988	  0.421362	-0.00166346	  0.421362	  -41.5866	
  0.494763	-0.00166558	  0.499471	-0.00165017	  0.496677	-0.00163766	   0.49697	-0.00165114	   0.49697	  -41.2784	
  0.570449	-0.00165302	  0.574991	-0.00163778	  0.572471	-0.00162529	  0.572637	-0.0016387	  0.572637	  -40.9675	
  0.646177	-0.0016403	   0.65054	-0.00162527	  0.648268	-0.00161284	  0.648329	-0.00162614	  0.648329	  -40.6534	
  0.721831	-0.00162752	  0.726001	-0.00161267	  0.723954	-0.00160033	  0.723929	-0.00161351	  0.723929	  -40.3377	
  0.797602	-0.00161469	  0.801515	-0.00159997	  0.799671	-0.00158773	  0.799596	-0.0016008	  0.799596	  -40.0199	
  0.873271	-0.00160169	  0.876922	-0.00158716	  0.875259	 -0.001575	  0.875151	-0.00158795	  0.875151	  -39.6988	
  0.948854	-0.00158864	  0.952294	-0.00157424	  0.950739	-0.00156218	  0.950629	-0.00157502	  0.950629	  -39.3755	
   1.02448	-0.00157551	    1.0277	-0.00156122	   1.02619	-0.00154924	   1.02612	-0.00156199	   1.02612	  -39.0498	
   1.09993	-0.0015622	   1.10292	-0.00154809	    1.1017	-0.00153618	   1.10152	-0.00154882	   1.10152	  -38.7206	
   1.17539	-0.00154881	   1.17821	-0.00153484	   1.17714	-0.00152302	   1.17691	-0.00153556	   1.17691	   -38.389	
   1.25076	-0.0015354	   1.25341	-0.0015215	   1.25241	-0.00150973	    1.2522	-0.00152221	    1.2522	  -38.0552	
   1.32605	-0.00152182	   1.32851	-0.00150804	   1.32768	-0.00149632	   1.32741	-0.00150872	   1.32741	  -37.7181	
    1.4014	-0.00150812	   1.40367	-0.00149446	   1.40298	-0.0014828	   1.40268	-0.00149513	   1.40268	  -37.3782	
   1.47642	-0.00149435	   1.47861	-0.00148077	   1.47804	-0.00146917	   1.47769	-0.00148143	   1.47769	  -37.0357	
    1.5511	-0.00148043	   1.55354	-0.00146697	   1.55307	-0.0014554	   1.55257	-0.0014676	   1.55257	    -36.69	
   1.62593	-0.00146642	   1.62841	-0.00145307	   1.62803	-0.00144153	   1.62745	-0.00145368	   1.62745	  -36.3419	
   1.70081	-0.00145233	   1.70305	-0.00143903	   1.70289	-0.00142755	   1.70225	-0.00143964	   1.70225	   -35.991	
   1.77563	-0.00143811	   1.77774	-0.00142489	   1.77778	-0.00141344	   1.77705	-0.00142548	   1.77705	   -35.637	
    1.8504	-0.00142379	   1.85231	-0.00141064	   1.85246	-0.00139923	   1.85172	-0.00141122	   1.85172	  -35.2805	
   1.92525	-0.00140941	   1.92676	-0.00139623	   1.92711	-0.00138495	   1.92637	-0.00139686	   1.92637	  -34.9216	
   2.00002	-0.00139489	    2.0012	-0.00138171	   2.00171	-0.00137055	   2.00098	-0.00138239	   2.00098	  -34.5596	
   2.07444	-0.00138021	   2.07541	-0.00136714	   2.07616	-0.00135597	   2.07534	-0.00136777	   2.07534	  -34.1943	
   2.14895	-0.00136545	   2.14965	-0.00135239	   2.15062	-0.00134133	   2.14974	-0.00135306	   2.14974	  -33.8265	
   2.22344	-0.00135061	   2.22378	-0.00133751	   2.22492	-0.00132669	   2.22405	-0.00133827	   2.22405	  -33.4567	
   2.29764	-0.00133559	   2.29773	-0.00132255	   2.29897	-0.00131182	   2.29811	-0.00132332	   2.29811	   -33.083	
   2.37166	-0.00132048	   2.37172	-0.00130742	   2.37304	-0.00129684	   2.37214	-0.00130825	   2.37214	  -32.7062	
   2.44575	-0.00130531	   2.44549	-0.00129215	   2.44686	-0.00128189	   2.44603	-0.00129312	   2.44603	  -32.3279	
   2.51981	-0.00128998	    2.5193	-0.00127678	    2.5207	-0.00126676	   2.51994	-0.00127784	   2.51994	   -31.946	
    2.5938	-0.00127454	   2.59304	-0.00126126	   2.59446	-0.00125147	   2.59377	-0.00126242	   2.59377	  -31.5606	
   2.66751	-0.00125904	   2.66657	-0.00124563	   2.66788	-0.00123619	   2.66732	-0.00124696	   2.66732	  -31.1739	
   2.74131	-0.0012434	   2.74015	-0.00122985	   2.74135	-0.00122076	   2.74093	-0.00123134	   2.74093	  -30.7835	
   2.81493	-0.00122763	   2.81357	-0.00121396	   2.81464	-0.00120515	   2.81438	-0.00121558	   2.81438	  -30.3895	
   2.88842	-0.00121181	   2.88679	-0.00119794	   2.88779	-0.00118951	   2.88767	-0.00119975	   2.88767	  -29.9938	
   2.96189	-0.00119586	   2.96003	-0.00118178	    2.9609	-0.00117376	   2.96094	-0.0011838	   2.96094	   -29.595	
   3.03516	-0.00117979	   3.03301	-0.00116551	   3.03375	-0.00115782	   3.03397	-0.0011677	   3.03397	  -29.1926	
   3.10827	-0.00116366	   3.10602	-0.00114911	   3.10662	-0.00114183	   3.10697	-0.00115153	   3.10697	  -28.7883	
    3.1813	-0.00114743	   3.17894	-0.0011326	    3.1794	-0.00112574	   3.17988	-0.00113526	   3.17988	  -28.3815	
   3.25409	-0.00113109	   3.25163	-0.00111601	   3.25196	-0.00110948	   3.25256	-0.00111886	   3.25256	  -27.9715	
   3.32692	-0.00111468	   3.32432	-0.00109927	   3.32456	-0.00109315	   3.32527	-0.00110237	   3.32527	  -27.5592	
   3.39958	-0.00109815	   3.39684	-0.00108242	   3.39699	-0.00107672	    3.3978	-0.00108577	    3.3978	  -27.1441	
    3.4721	-0.00108157	   3.46933	-0.0010655	   3.46923	-0.00106013	   3.47022	-0.00106907	   3.47022	  -26.7266	
   3.54462	-0.00106491	   3.54178	-0.00104852	   3.54148	-0.00104354	   3.54263	-0.00105232	   3.54263	  -26.3081	
   3.61689	-0.00104811	   3.61398	-0.00103144	   3.61354	-0.00102688	    3.6148	-0.00103548	    3.6148	  -25.8869	
   3.68894	-0.00103123	   3.68603	-0.00101423	   3.68551	  -0.00101	   3.68682	-0.00101849	   3.68682	  -25.4622	
   3.76093	-0.00101427	   3.75801	-0.000996991	    3.7574	-0.000993081	   3.75878	-0.00100145	   3.75878	  -25.0362	
   3.83261	-0.000997164	   3.82968	-0.000979703	   3.82904	-0.000976203	   3.83044	-0.000984357	   3.83044	  -24.6089	
   3.90419	-0.000979997	   3.90125	-0.000962303	   3.90067	-0.000959115	   3.90204	-0.000967138	   3.90204	  -24.1785	
   3.97565	-0.000962741	    3.9727	-0.000944869	   3.97233	-0.000941962	   3.97356	-0.000949857	   3.97356	  -23.7464	
   4.04681	-0.000945297	   4.04389	-0.000927405	   4.04409	-0.00092491	   4.04493	-0.000932537	   4.04493	  -23.3134	
   4.11793	-0.000927758	    4.1151	-0.000909835	   4.11546	-0.000907618	   4.11616	-0.00091507	   4.11616	  -22.8768	
   4.18888	-0.000910175	   4.18613	-0.000892211	   4.18641	-0.000890188	   4.18714	-0.000897525	   4.18714	  -22.4381	
   4.25959	-0.000892405	   4.25691	-0.000874562	   4.25726	-0.000872911	   4.25792	-0.000879959	   4.25792	   -21.999	
   4.33032	-0.000874501	    4.3277	-0.000856825	   4.32806	-0.000855466	    4.3287	-0.000862264	    4.3287	  -21.5566	
   4.40083	-0.000856553	   4.39826	-0.000839002	   4.39857	-0.00083782	   4.39922	-0.000844458	   4.39922	  -21.1115	
   4.47115	-0.000838437	   4.46862	-0.000821099	   4.46887	-0.000820275	   4.46955	-0.000826604	   4.46955	  -20.6651	
   4.54144	-0.000820171	   4.53895	-0.000803109	   4.53903	-0.00080263	   4.53981	-0.000808637	   4.53981	  -20.2159	
   4.61146	-0.000801868	     4.609	-0.000785041	   4.60891	-0.000784756	   4.60979	-0.000790555	   4.60979	  -19.7639	
   4.68125	-0.000783427	   4.67887	-0.00076692	   4.67845	-0.000766946	   4.67953	-0.000772431	   4.67953	  -19.3108	
   4.75099	-0.000764841	   4.74862	-0.000748703	   4.74778	-0.000749093	   4.74913	-0.000754212	   4.74913	  -18.8553	
   4.82046	-0.000746219	    4.8181	-0.000730361	   4.81704	-0.000730957	   4.81853	-0.000735846	   4.81853	  -18.3961	
   4.88979	-0.000727502	   4.88744	-0.000711945	    4.8861	-0.000712797	   4.88778	-0.000717415	   4.88778	  -17.9354	
   4.95897	-0.000708656	   4.95667	-0.000693469	   4.95498	-0.000694688	   4.95687	-0.000698937	   4.95687	  -17.4734	
   5.02782	-0.000689723	   5.02562	-0.000674867	    5.0237	-0.000676327	   5.02572	-0.000680306	   5.02572	  -17.0076	
   5.09638	-0.000670737	   5.09447	-0.000656183	   5.09224	-0.000657894	   5.09436	-0.000661605	   5.09436	  -16.5401	
   5.16484	-0.000651677	   5.16319	-0.000637443	   5.16068	-0.000639516	    5.1629	-0.000642879	    5.1629	   -16.072	
   5.23296	-0.000632531	   5.23155	-0.000618602	   5.22888	-0.000620935	   5.23113	-0.000624023	   5.23113	  -15.6006	
    5.3009	-0.000613305	   5.29984	-0.000599677	   5.29688	-0.000602256	    5.2992	-0.000605079	    5.2992	   -15.127	
   5.36872	-0.000594035	   5.36798	-0.000580701	   5.36475	-0.000583625	   5.36715	-0.000586121	   5.36715	   -14.653	
   5.43626	-0.000574715	    5.4358	-0.000561626	   5.43238	-0.000564829	   5.43481	-0.000567057	   5.43481	  -14.1764	
   5.50371	-0.000555326	   5.50329	-0.000542466	    5.4998	-0.000545899	   5.50226	-0.000547897	   5.50226	  -13.6974	
   5.57103	-0.00053588	   5.57064	-0.000523262	   5.56708	-0.000527022	   5.56958	-0.000528721	   5.56958	   -13.218	
     5.638	-0.000516368	   5.63763	-0.000503981	   5.63407	-0.000508068	   5.63657	-0.000509472	   5.63657	  -12.7368	
   5.70478	-0.00049679	   5.70426	-0.00048461	   5.70085	-0.000488926	    5.7033	-0.000490109	    5.7033	  -12.2527	
   5.77139	-0.000477145	   5.77077	-0.000465196	   5.76746	-0.000469833	   5.76987	-0.000470725	   5.76987	  -11.7681	
   5.83767	-0.000457419	   5.83701	-0.000445721	   5.83378	-0.000450709	   5.83615	-0.000451283	   5.83615	  -11.2821	
   5.90371	-0.000437636	    5.9029	-0.000426139	    5.8999	-0.00043137	   5.90217	-0.000431715	   5.90217	  -10.7929	
   5.96961	-0.000417792	   5.96871	-0.000406506	   5.96592	-0.000412052	   5.96808	-0.000412117	   5.96808	  -10.3029	
    6.0352	-0.000397843	   6.03456	-0.000386913	   6.03161	-0.000392707	   6.03379	-0.000392488	   6.03379	   -9.8122	
   6.10038	-0.00037785	   6.10012	-0.000367189	   6.09702	-0.000373153	   6.09917	-0.000372731	   6.09917	  -9.31827	
   6.16544	-0.000357797	   6.16492	-0.000347238	   6.16229	-0.000353577	   6.16422	-0.000352871	   6.16422	  -8.82177	
   6.23024	-0.000337651	   6.22946	-0.000327387	   6.22726	-0.000333993	   6.22899	-0.00033301	   6.22899	  -8.32525	
   6.29466	-0.000317462	    6.2942	-0.000307551	   6.29193	-0.000314216	    6.2936	-0.000313076	    6.2936	  -7.82691	
    6.3589	-0.000297238	   6.35862	-0.000287434	   6.35639	-0.000294381	   6.35797	-0.000293017	   6.35797	  -7.32544	
   6.42292	-0.00027694	   6.42279	-0.000267321	    6.4206	-0.000274543	    6.4221	-0.000272935	    6.4221	  -6.82337	
   6.48656	-0.000256603	   6.48671	-0.000247273	   6.48445	-0.00025454	   6.48591	-0.000252805	   6.48591	  -6.32014	
   6.55003	-0.000236239	   6.55052	-0.00022701	   6.54808	-0.000234455	   6.54954	-0.000232568	   6.54954	   -5.8142	
   6.61332	-0.000215823	   6.61412	-0.000206704	   6.61147	-0.000214379	   6.61297	-0.000212302	   6.61297	  -5.30755	
   6.67623	-0.00019538	    6.6773	-0.000186468	   6.67445	-0.000194206	     6.676	-0.000192018	     6.676	  -4.80045	
   6.73889	-0.000174926	   6.74029	-0.000166093	   6.73725	-0.000173904	   6.73881	-0.000171641	   6.73881	  -4.29102	
   6.80138	-0.000154428	   6.80302	-0.000145655	   6.79992	-0.000153562	   6.80144	-0.000151215	   6.80144	  -3.78037	
   6.86357	-0.000133905	    6.8654	-0.000125264	   6.86224	-0.00013321	   6.86374	-0.000130793	   6.86374	  -3.26983	
    6.9254	-0.00011338	    6.9274	-0.000104804	   6.92424	-0.000112774	   6.92568	-0.000110319	   6.92568	  -2.75798	
   6.98705	-9.28336e-05	   6.98923	-8.42997e-05	   6.98611	-9.22833e-05	   6.98746	-8.98055e-05	   6.98746	  -2.24514	
   7.04846	-7.22673e-05	   7.05078	-6.38157e-05	   7.04771	-7.18078e-05	   7.04899	-6.92969e-05	   7.04899	  -1.73242	
   7.10944	-5.16746e-05	   7.11193	-4.33112e-05	   7.10885	-5.1269e-05	   7.11007	-4.87516e-05	   7.11007	  -1.21879	
   7.17022	-3.1063e-05	   7.17288	-2.27551e-05	   7.16969	-3.0702e-05	   7.17093	-2.81734e-05	   7.17093	 -0.704334	
   7.23085	-1.04337e-05	   7.23365	-2.19246e-06	    7.2302	-1.0109e-05	   7.23157	-7.57838e-06	   7.23157	  -0.18946	
   7.29113	1.01799e-05	   7.29404	1.83623e-05	   7.29035	1.05307e-05	   7.29184	1.30243e-05	   7.29184	  0.325608	
   7.35109	3.08429e-05	   7.35402	3.89889e-05	   7.35036	3.11868e-05	   7.35182	3.36729e-05	   7.35182	  0.841821	
   7.41088	5.1547e-05	   7.41381	5.9643e-05	   7.41013	5.18947e-05	   7.41161	5.43616e-05	   7.41161	   1.35904	
   7.47043	7.22502e-05	   7.47333	8.02617e-05	   7.46953	7.26346e-05	    7.4711	7.50489e-05	    7.4711	   1.87622	
   7.52959	9.29761e-05	   7.53244	0.000100931	   7.52854	9.33846e-05	   7.53019	9.5764e-05	   7.53019	    2.3941	
   7.58844	0.000113727	   7.59118	0.000121644	   7.58739	0.000114201	     7.589	0.000116524	     7.589	    2.9131	
    7.6471	0.00013445	   7.64976	0.000142325	   7.64587	0.000135029	   7.64758	0.000137268	   7.64758	    3.4317	
   7.70544	0.000155192	   7.70801	0.000163042	   7.70391	0.000155856	   7.70579	0.00015803	   7.70579	   3.95074	
   7.76337	0.000176012	   7.76584	0.000183794	   7.76166	0.000176722	   7.76362	0.000178843	   7.76362	   4.47107	
   7.82109	0.000196792	   7.82344	0.000204516	   7.81913	0.000197592	   7.82122	0.000199633	   7.82122	   4.99084	
    7.8786	0.00021756	   7.88077	0.000225266	   7.87619	0.000218444	   7.87852	0.000220423	   7.87852	   5.51059	
   7.93573	0.000238406	   7.93771	0.000246024	   7.93288	0.000239341	   7.93544	0.000241257	   7.93544	   6.03142	
   7.99251	0.000259232	   7.99424	0.000266752	   7.98925	0.000260178	     7.992	0.000262054	     7.992	   6.55135	
   8.04911	0.000280027	    8.0506	0.000287493	   8.04541	0.000280993	   8.04838	0.000282838	   8.04838	   7.07094	
   8.10542	0.000300871	   8.10667	0.000308227	   8.10125	0.000301885	   8.10444	0.000303661	   8.10444	   7.59153	
    8.1613	0.00032172	   8.16231	0.000328928	   8.15669	0.000322701	    8.1601	0.00032445	    8.1601	   8.11124	
   8.21676	0.000342563	   8.21749	0.000349636	   8.21175	0.000343459	   8.21533	0.00034522	   8.21533	   8.63049	
   8.27204	0.000363402	   8.27238	0.00037033	   8.26659	0.000364284	   8.27034	0.000366005	   8.27034	   9.15013	
   8.32706	0.000384206	   8.32703	0.000390987	   8.32121	0.00038505	    8.3251	0.000386748	    8.3251	    9.6687	
   8.38164	0.000405027	   8.38127	0.000411652	   8.37543	0.000405743	   8.37945	0.000407474	   8.37945	   10.1868	
   8.43573	0.00042585	   8.43509	0.000432305	   8.42924	0.000426485	   8.43335	0.000428214	   8.43335	   10.7053	
   8.48969	0.000446609	   8.48867	0.000452914	   8.48283	0.000447185	   8.48707	0.000448903	   8.48707	   11.2226	
    8.5434	0.000467371	   8.54197	0.000473524	    8.5362	0.000467804	   8.54052	0.000469566	   8.54052	   11.7392	
   8.59668	0.000488127	   8.59488	0.00049413	   8.58917	0.000488457	   8.59357	0.000490238	   8.59357	    12.256	
   8.64949	0.000508812	   8.64734	0.000514688	   8.64159	0.000509086	   8.64614	0.000510862	   8.64614	   12.7715	
   8.70214	0.000529505	    8.6995	0.000535227	   8.69374	0.000529629	   8.69846	0.000531454	   8.69846	   13.2863	
   8.75449	0.000550191	   8.75147	0.000555764	   8.74569	0.000550183	   8.75055	0.000552046	   8.75055	   13.8012	
   8.80646	0.000570801	   8.80308	0.00057624	    8.7973	0.000570715	   8.80228	0.000572585	   8.80228	   14.3146	
   8.85787	0.000591411	   8.85421	0.000596664	   8.84855	0.000591153	   8.85354	0.000593076	   8.85354	   14.8269	
   8.90906	0.000612015	   8.90474	0.000617116	   8.89949	0.000611583	   8.90443	0.000613571	   8.90443	   15.3393	
   8.96002	0.000632547	   8.95498	0.000637506	   8.95029	0.000631999	    8.9551	0.000634017	    8.9551	   15.8504	
   9.01063	0.000653063	   9.00509	0.000657796	   9.00077	0.000652307	    9.0055	0.000654389	    9.0055	   16.3597	
   9.06075	0.000673574	   9.05482	0.00067813	   9.05079	0.000672574	   9.05545	0.000674759	   9.05545	    16.869	
    9.1103	0.000694016	   9.10421	0.000698341	   9.10035	0.000692832	   9.10495	0.000695063	   9.10495	   17.3766	
   9.15949	0.000714425	   9.15349	0.000718467	   9.14963	0.000712987	    9.1542	0.000715293	    9.1542	   17.8823	
    9.2084	0.000734829	   9.20209	0.000738634	   9.19862	0.000733076	   9.20304	0.000735513	   9.20304	   18.3878	
   9.25693	0.00075516	   9.25029	0.000758696	   9.24723	0.000753145	   9.25148	0.000755667	   9.25148	   18.8917	
   9.30493	0.000775427	   9.29821	0.000778634	   9.29532	0.000773114	   9.29949	0.000775725	   9.29949	   19.3931	
   9.35245	0.000795675	   9.34572	0.000798564	   9.34299	  0.000793	   9.34705	0.000795746	   9.34705	   19.8937	
    9.3996	0.000815855	   9.39277	0.000818469	    9.3905	0.000812868	   9.39429	0.000815731	   9.39429	   20.3933	
   9.44645	0.000835951	   9.43939	0.000838304	   9.43773	0.000832641	   9.44119	0.000835632	   9.44119	   20.8908	
   9.49292	0.000856005	   9.48565	0.00085804	   9.48456	0.000852287	   9.48771	0.000855444	   9.48771	   21.3861	
   9.53896	0.00087598	   9.53147	0.00087774	   9.53089	0.000871912	   9.53377	0.000875211	   9.53377	   21.8803	
   9.58462	0.000895857	   9.57683	0.000897419	   9.57665	0.000891461	   9.57937	0.000894912	   9.57937	   22.3728	
   9.62993	0.000915671	   9.62201	0.000917018	   9.62219	0.00091087	   9.62471	0.00091452	   9.62471	    22.863	
     9.675	0.000935402	   9.66697	0.000936561	   9.66746	0.000930219	   9.66981	0.000934061	   9.66981	   23.3515	
   9.71969	0.000955028	   9.71156	0.000956076	   9.71234	0.000949479	   9.71453	0.000953527	   9.71453	   23.8382	
   9.76386	0.000974571	   9.75568	0.00097551	   9.75675	0.00096858	   9.75876	0.000972887	   9.75876	   24.3222	
   9.80742	0.000994019	   9.79939	0.000994862	   9.80061	0.000987644	   9.80247	0.000992175	   9.80247	   24.8044	
   9.85063	0.00101336	   9.84271	0.00101416	   9.84411	0.00100667	   9.84582	 0.0010114	   9.84582	   25.2849	
   9.89365	0.00103261	    9.8858	0.00103338	    9.8874	 0.0010255	   9.88895	 0.0010305	   9.88895	   25.7624	
   9.93636	0.00105177	   9.92858	0.00105249	   9.93034	0.00104426	   9.93176	 0.0010495	   9.93176	   26.2376	
   9.97861	 0.0010708	   9.97092	0.00107151	   9.97282	  0.001063	   9.97412	0.00106844	   9.97412	   26.7109	
   10.0203	0.00108975	   10.0127	0.00109043	   10.0147	0.00108156	   10.0159	0.00108724	   10.0159	   27.1811	
   10.0616	0.00110864	   10.0541	0.00110924	   10.0561	0.00110002	   10.0573	0.00110596	   10.0573	   27.6491	
   10.1026	 0.0011274	   10.0952	0.00112796	   10.0972	0.00111846	   10.0984	0.00112461	   10.0984	   28.1152	
   10.1434	0.00114603	   10.1361	0.00114657	   10.1381	0.00113674	   10.1392	0.00114311	   10.1392	   28.5778	
   10.1838	0.00116461	   10.1767	0.00116506	   10.1787	0.00115489	   10.1797	0.00116152	   10.1797	   29.0379	
   10.2237	 0.0011831	   10.2168	0.00118345	   10.2187	0.00117302	   10.2197	0.00117986	   10.2197	   29.4964	
   10.2631	0.00120146	   10.2563	0.00120172	   10.2582	0.00119101	   10.2592	0.00119806	   10.2592	   29.9515	
   10.3023	0.00121971	   10.2952	0.00121989	   10.2971	0.00120885	   10.2982	0.00121615	   10.2982	   30.4037	
   10.3414	0.00123781	   10.3338	0.00123796	   10.3357	0.00122669	   10.3369	0.00123415	   10.3369	   30.8538	
   10.3798	0.00125583	    10.372	0.00125587	   10.3741	 0.0012444	   10.3753	0.00125203	   10.3753	   31.3009	
   10.4174	0.00127383	   10.4099	0.00127367	   10.4122	0.00126195	   10.4132	0.00126982	   10.4132	   31.7454	
   10.4548	0.00129166	   10.4474	0.00129141	   10.4498	0.00127948	   10.4507	0.00128752	   10.4507	   32.1879	
   10.4919	0.00130932	   10.4844	  0.001309	    10.487	0.00129691	   10.4877	0.00130507	   10.4877	   32.6269	
   10.5283	0.00132698	   10.5209	 0.0013265	   10.5236	0.00131419	   10.5242	0.00132256	   10.5242	    33.064	
   10.5642	0.00134457	   10.5574	0.00134388	   10.5599	0.00133143	   10.5605	0.00133996	   10.5605	   33.4991	
   10.5999	0.00136197	   10.5937	0.00136106	   10.5966	0.00134848	   10.5967	0.00135717	   10.5967	   33.9292	
   10.6353	0.00137934	   10.6289	0.00137818	   10.6327	0.00136542	   10.6323	0.00137432	   10.6323	   34.3579	
   10.6704	0.00139666	   10.6634	0.00139527	   10.6675	0.00138237	   10.6671	0.00139143	   10.6671	   34.7859	
   10.7051	0.00141378	   10.6978	 0.0014121	    10.702	0.00139913	   10.7016	0.00140834	   10.7016	   35.2084	
   10.7392	0.00143088	    10.732	0.00142882	   10.7363	0.00141564	   10.7359	0.00142512	   10.7359	   35.6279	
   10.7728	0.00144792	   10.7657	0.00144553	   10.7701	0.00143216	   10.7695	0.00144187	   10.7695	   36.0467	
   10.8058	0.00146476	   10.7989	0.00146201	   10.8033	 0.0014486	   10.8027	0.00145846	   10.8027	   36.4615	
   10.8384	0.00148151	   10.8318	0.00147835	   10.8361	0.00146478	   10.8354	0.00147488	   10.8354	    36.872	
   10.8707	 0.0014982	   10.8643	0.00149466	   10.8685	0.00148082	   10.8678	0.00149122	   10.8678	   37.2806	
   10.9027	0.00151469	   10.8964	0.00151078	   10.9006	0.00149684	   10.8999	0.00150744	   10.8999	   37.6859	
   10.9344	0.00153106	    10.928	0.00152672	   10.9322	0.00151268	   10.9316	0.00152349	   10.9316	   38.0872	
   10.9657	0.00154736	   10.9593	0.00154262	   10.9634	0.00152834	   10.9628	0.00153944	   10.9628	    38.486	
   10.9966	0.00156346	   10.9901	0.00155837	   10.9942	0.00154397	   10.9936	0.00155527	   10.9936	   38.8817	
   11.0269	0.00157942	   11.0204	0.00157394	   11.0244	0.00155944	   11.0239	0.00157093	   11.0239	   39.2734	
   11.0566	 0.0015953	     11.05	0.00158945	    11.054	0.00157474	   11.0535	 0.0015865	   11.0535	   39.6624	
   11.0859	0.00161099	   11.0792	0.00160484	   11.0829	0.00158997	   11.0827	0.00160193	   11.0827	   40.0483	
   11.1146	 0.0016265	   11.1079	0.00162003	   11.1115	0.00160507	   11.1113	 0.0016172	   11.1113	   40.4301	
   11.1432	0.00164192	   11.1361	0.00163515	   11.1397	   0.00162	   11.1396	0.00163236	   11.1396	   40.8089	
   11.1713	0.00165718	   11.1641	0.00165017	   11.1675	0.00163483	   11.1676	 0.0016474	   11.1676	   41.1849	
   11.1992	0.00167227	   11.1917	  0.001665	   11.1951	0.00164955	   11.1953	0.00166227	   11.1953	   41.5568	
   11.2268	0.00168725	    11.219	0.00167972	   11.2223	0.00166409	   11.2227	0.00167702	   11.2227	   41.9256	
   11.2539	 0.0017021	    11.246	0.00169438	   11.2491	0.00167854	   11.2497	0.00169167	   11.2497	   42.2918	
   11.2806	0.00171678	   11.2725	0.00170884	   11.2755	0.00169287	   11.2762	0.00170616	   11.2762	   42.6541	
   11.3067	0.00173135	   11.2984	0.00172318	   11.3013	0.00170703	   11.3022	0.00172052	   11.3022	    43.013	
   11.3323	 0.0017458	   11.3239	0.00173747	   11.3266	0.00172106	   11.3276	0.00173477	   11.3276	   43.3693	
   11.3574	0.00176007	   11.3487	0.00175157	   11.3512	0.00173498	   11.3524	0.00174888	   11.3524	   43.7219	
   11.3818	0.00177423	    11.373	0.00176553	   11.3754	0.00174874	   11.3767	0.00176283	   11.3767	   44.0708	
   11.4057	0.00178826	   11.3966	0.00177947	    11.399	0.00176235	   11.4004	0.00177669	   11.4004	   44.4174	
   11.4291	0.00180213	   11.4198	0.00179325	   11.4222	0.00177586	   11.4237	0.00179041	   11.4237	   44.7604	
    11.452	0.00181587	   11.4426	0.00180683	    11.445	0.00178916	   11.4466	0.00180395	   11.4466	   45.0988	
   11.4747	0.00182949	   11.4649	0.00182041	   11.4675	0.00180229	   11.4691	 0.0018174	   11.4691	   45.4349	
    11.497	0.00184295	    11.487	0.00183388	   11.4896	 0.0018154	   11.4912	0.00183074	   11.4912	   45.7686	
    11.519	0.00185627	   11.5088	0.00184713	   11.5113	0.00182828	    11.513	 0.0018439	    11.513	   46.0974	
   11.5406	0.00186948	   11.5303	0.00186032	   11.5326	0.00184097	   11.5345	0.00185692	   11.5345	   46.4231	
   11.5619	0.00188253	   11.5515	 0.0018734	   11.5536	0.00185361	   11.5557	0.00186985	   11.5557	   46.7462	
   11.5827	0.00189543	   11.5723	0.00188628	   11.5743	0.00186608	   11.5764	 0.0018826	   11.5764	    47.065	
   11.6031	0.00190822	   11.5927	0.00189903	   11.5944	0.00187827	   11.5967	0.00189518	   11.5967	   47.3794	
    11.623	0.00192086	   11.6126	0.00191166	   11.6142	0.00189046	   11.6166	0.00190766	   11.6166	   47.6915	
   11.6424	0.00193334	    11.632	0.00192414	   11.6334	0.00190257	    11.636	0.00192002	    11.636	   48.0004	
   11.6613	0.00194568	   11.6509	0.00193646	   11.6522	0.00191437	   11.6548	0.00193217	   11.6548	   48.3042	
   11.6796	0.00195788	   11.6693	0.00194863	   11.6703	0.00192611	   11.6731	0.00194421	   11.6731	   48.6051	
   11.6973	0.00196989	   11.6871	0.00196065	    11.688	0.00193785	   11.6908	0.00195613	   11.6908	   48.9032	
   11.7144	0.00198182	   11.7044	0.00197251	    11.705	0.00194932	   11.7079	0.00196788	   11.7079	    49.197	
    11.731	0.00199363	   11.7211	0.00198427	   11.7215	0.00196067	   11.7245	0.00197952	   11.7245	    49.488	
   11.7469	0.00200518	   11.7372	0.00199581	   11.7374	0.00197199	   11.7405	0.00199099	   11.7405	   49.7748	
   11.7623	 0.0020166	   11.7528	0.00200714	   11.7529	0.00198316	    11.756	 0.0020023	    11.756	   50.0575	
   11.7773	0.00202796	    11.768	0.00201836	   11.7678	0.00199422	    11.771	0.00201351	    11.771	   50.3378	
    11.792	 0.0020391	   11.7828	0.00202946	   11.7823	0.00200517	   11.7857	0.00202458	   11.7857	   50.6144	
   11.8064	0.00205002	   11.7972	0.00204037	   11.7963	 0.0020159	      11.8	0.00203543	      11.8	   50.8858	
     11.82	0.00206085	   11.8108	0.00205114	   11.8098	0.00202656	   11.8135	0.00204619	   11.8135	   51.1546	
   11.8333	0.00207162	    11.824	0.00206174	   11.8225	0.00203716	   11.8266	0.00205684	   11.8266	    51.421	
   11.8462	0.00208211	   11.8369	0.00207216	    11.835	0.00204752	   11.8394	0.00206726	   11.8394	   51.6816	
   11.8586	0.00209249	   11.8493	0.00208247	    11.847	0.00205774	   11.8516	0.00207757	   11.8516	   51.9392	
   11.8706	0.00210281	   11.8617	0.00209257	   11.8589	0.00206791	   11.8637	0.00208777	   11.8637	   52.1942	
   11.8822	0.00211291	   11.8737	0.00210253	   11.8703	0.00207784	   11.8754	0.00209776	   11.8754	    52.444	
   11.8934	0.00212288	    11.885	0.00211238	   11.8808	0.00208759	   11.8864	0.00210762	   11.8864	   52.6904	
   11.9041	0.00213279	   11.8957	0.00212202	   11.8914	 0.0020973	   11.8971	0.00211737	   11.8971	   52.9342	
   11.9141	 0.0021425	   11.9062	0.00213152	   11.9015	0.00210681	   11.9073	0.00212695	   11.9073	   53.1736	
   11.9237	0.00215211	   11.9162	0.00214094	   11.9109	0.00211613	   11.9169	 0.0021364	   11.9169	   53.4099	
   11.9328	0.00216162	   11.9256	 0.0021502	   11.9199	0.00212538	   11.9261	0.00214574	   11.9261	   53.6434	
   11.9413	0.00217094	   11.9344	0.00215932	   11.9286	0.00213451	   11.9347	0.00215492	   11.9347	    53.873	
   11.9493	0.00218016	   11.9428	0.00216836	   11.9368	0.00214344	    11.943	0.00216399	    11.943	   54.0997	
   11.9568	0.00218925	   11.9508	0.00217728	   11.9446	0.00215229	   11.9507	0.00217294	   11.9507	   54.3235	
   11.9637	0.00219817	   11.9583	0.00218607	    11.952	0.00216107	    11.958	0.00218177	    11.958	   54.5442	
     11.97	0.00220706	   11.9652	0.00219478	   11.9588	0.00216966	   11.9647	 0.0021905	   11.9647	   54.7625	
   11.9758	0.00221581	   11.9717	0.00220337	   11.9651	0.00217817	   11.9709	0.00219912	   11.9709	    54.978	
    11.981	0.00222432	   11.9776	0.00221185	   11.9708	0.00218659	   11.9765	0.00220759	   11.9765	   55.1897	
   11.9857	0.00223284	    11.983	0.00222024	   11.9759	0.00219488	   11.9815	0.00221599	   11.9815	   55.3997	
   11.9899	0.00224128	   11.9878	0.00222851	   11.9806	0.00220307	   11.9861	0.00222429	   11.9861	   55.6072	
   11.9936	0.00224948	   11.9921	0.00223667	   11.9847	0.00221119	   11.9901	0.00223245	   11.9901	   55.8112	
   11.9968	0.00225765	   11.9959	0.00224472	   11.9883	0.00221919	   11.9937	0.00224052	   11.9937	    56.013	
   11.9996	0.00226577	   11.9992	0.00225265	   11.9915	0.00222709	   11.9968	0.00224851	   11.9968	   56.2126	
    12.002	0.00227367	    12.002	0.00226046	   11.9942	0.00223493	   11.9994	0.00225635	   11.9994	   56.4088	
    12.004	0.00228147	   12.0045	0.00226815	   11.9965	0.00224265	   12.0017	0.00226409	   12.0017	   56.6023	
   12.0057	0.00228926	   12.0065	0.00227571	   11.9985	0.00225027	   12.0036	0.00227174	   12.0036	   56.7936	
    12.007	0.00229682	   12.0081	0.00228314	   12.0001	0.00225783	   12.0051	0.00227926	   12.0051	   56.9816	
    12.008	0.00230425	   12.0094	0.00229044	   12.0014	0.00226529	   12.0063	0.00228666	   12.0063	   57.1665	
   12.0088	0.00231164	   12.0103	0.00229761	   12.0023	0.00227264	   12.0071	0.00229396	   12.0071	   57.3491	
   12.0092	0.00231885	   12.0109	0.00230469	   12.0029	0.00227992	   12.0077	0.00230116	   12.0077	   57.5289	
   12.0094	0.00232591	   12.0112	0.00231169	   12.0032	0.00228713	    12.008	0.00230824	    12.008	    57.706	
   12.0092	0.00233291	   12.0111	 0.0023185	   12.0033	0.00229421	   12.0078	0.00231521	   12.0078	   57.8802	
   12.0086	0.00233975	   12.0106	0.00232523	   12.0028	0.00230118	   12.0073	0.00232205	   12.0073	   58.0513	
   12.0077	0.00234642	   12.0096	0.00233189	    12.002	0.00230812	   12.0064	0.00232881	   12.0064	   58.2203	
   12.0062	0.00235304	   12.0081	0.00233836	   12.0006	0.00231492	   12.0049	0.00233544	   12.0049	    58.386	
    12.004	0.00235952	   12.0059	0.00234473	   11.9985	0.00232158	   12.0028	0.00234194	   12.0028	   58.5485	
   12.0014	0.00236582	    12.003	0.00235102	   11.9958	0.00232819	   12.0001	0.00234834	   12.0001	   58.7086	
   11.9982	0.00237204	   11.9996	0.00235714	   11.9924	 0.0023347	   11.9967	0.00235463	   11.9967	   58.8658	
   11.9944	 0.0023782	   11.9955	0.00236317	   11.9885	0.00234105	   11.9928	0.00236081	   11.9928	   59.0202	
   11.9901	 0.0023842	    11.991	 0.0023691	   11.9842	0.00234736	   11.9884	0.00236688	   11.9884	   59.1721	
   11.9854	0.00239006	   11.9861	0.00237489	   11.9793	0.00235359	   11.9836	0.00237285	   11.9836	   59.3211	
   11.9803	0.00239587	   11.9808	0.00238056	   11.9741	0.00235967	   11.9784	 0.0023787	   11.9784	   59.4675	
   11.9748	0.00240154	    11.975	0.00238613	   11.9686	0.00236568	   11.9728	0.00238445	   11.9728	   59.6113	
   11.9691	0.00240707	   11.9688	0.00239159	   11.9628	0.00237166	   11.9669	 0.0023901	   11.9669	   59.7526	
   11.9634	0.00241255	   11.9624	0.00239692	   11.9566	0.00237746	   11.9608	0.00239564	   11.9608	   59.8911	
   11.9574	0.00241787	   11.9557	0.00240217	     11.95	0.00238318	   11.9544	0.00240107	   11.9544	   60.0268	
   11.9503	0.00242307	   11.9485	0.00240731	   11.9429	0.00238885	   11.9473	0.00240641	   11.9473	   60.1603	
   11.9424	0.00242831	   11.9408	0.00241235	   11.9352	0.00239437	   11.9395	0.00241168	   11.9395	   60.2919	
   11.9342	0.00243341	   11.9324	 0.0024173	   11.9268	 0.0023998	   11.9311	0.00241684	   11.9311	    60.421	
   11.9256	0.00243833	   11.9234	0.00242215	   11.9179	0.00240518	   11.9223	0.00242189	   11.9223	   60.5472	
   11.9167	0.00244332	   11.9139	0.00242691	   11.9085	0.00241036	    11.913	0.00242686	    11.913	   60.6716	
   11.9072	 0.0024482	    11.904	0.00243159	   11.8986	0.00241547	   11.9033	0.00243175	   11.9033	   60.7938	
   11.8974	0.00245289	   11.8938	0.00243618	   11.8885	0.00242054	   11.8932	0.00243654	   11.8932	   60.9134	
   11.8872	0.00245758	   11.8833	0.00244066	   11.8779	0.00242544	   11.8828	0.00244123	   11.8828	   61.0307	
   11.8764	 0.0024622	   11.8724	0.00244507	   11.8669	0.00243026	   11.8719	0.00244584	   11.8719	    61.146	
   11.8653	0.00246658	    11.861	0.00244935	   11.8554	0.00243501	   11.8606	0.00245032	   11.8606	   61.2579	
   11.8535	0.00247093	    11.849	0.00245363	   11.8432	0.00243958	   11.8486	0.00245471	   11.8486	   61.3679	
    11.841	0.00247522	   11.8364	0.00245787	   11.8304	0.00244407	   11.8359	0.00245905	   11.8359	   61.4763	
   11.8281	 0.0024793	   11.8232	0.00246187	    11.817	0.00244855	   11.8228	0.00246324	   11.8228	    61.581	
   11.8146	0.00248329	   11.8096	0.00246581	   11.8033	0.00245285	   11.8092	0.00246732	   11.8092	   61.6829	
   11.8008	0.00248723	   11.7956	0.00246979	   11.7892	0.00245704	   11.7952	0.00247135	   11.7952	   61.7839	
   11.7866	0.00249097	   11.7813	0.00247357	   11.7748	0.00246123	   11.7809	0.00247526	   11.7809	   61.8814	
   11.7721	 0.0024946	   11.7666	0.00247724	     11.76	0.00246528	   11.7662	0.00247904	   11.7662	   61.9761	
   11.7569	0.00249821	   11.7516	0.00248093	   11.7447	 0.0024692	   11.7511	0.00248278	   11.7511	   62.0695	
   11.7411	 0.0025016	    11.736	0.00248446	   11.7287	0.00247313	   11.7352	 0.0024864	   11.7352	   62.1599	
   11.7247	0.00250492	   11.7198	0.00248788	   11.7121	0.00247694	   11.7188	0.00248991	   11.7188	   62.2479	
   11.7078	0.00250819	   11.7032	 0.0024913	   11.6951	0.00248062	    11.702	0.00249337	    11.702	   62.3343	
   11.6905	0.00251123	   11.6862	0.00249459	   11.6778	0.00248429	   11.6848	 0.0024967	   11.6848	   62.4176	
   11.6727	0.00251427	   11.6685	0.00249776	   11.6601	0.00248787	   11.6671	0.00249997	   11.6671	   62.4992	
   11.6546	0.00251731	   11.6503	0.00250092	   11.6418	0.00249132	   11.6489	0.00250318	   11.6489	   62.5795	
   11.6358	0.00252015	   11.6317	0.00250401	    11.623	0.00249473	   11.6302	 0.0025063	   11.6302	   62.6574	
   11.6165	0.00252295	   11.6126	0.00250698	   11.6035	0.00249806	   11.6109	0.00250933	   11.6109	   62.7333	
   11.5967	0.00252575	   11.5931	0.00250989	   11.5836	0.00250127	   11.5911	 0.0025123	   11.5911	   62.8075	
   11.5765	 0.0025284	   11.5731	0.00251274	   11.5633	0.00250442	    11.571	0.00251518	    11.571	   62.8796	
   11.5559	0.00253099	   11.5527	0.00251549	   11.5426	0.00250748	   11.5504	0.00251799	   11.5504	   62.9497	
   11.5349	0.00253358	   11.5317	0.00251817	   11.5216	0.00251041	   11.5294	0.00252072	   11.5294	    63.018	
   11.5134	0.00253605	   11.5103	0.00252082	      11.5	0.00251329	   11.5079	0.00252339	   11.5079	   63.0846	
   11.4913	0.00253842	   11.4883	0.00252338	   11.4779	0.00251608	   11.4858	0.00252596	   11.4858	    63.149	
   11.4687	0.00254078	   11.4657	0.00252583	   11.4554	0.00251875	   11.4633	0.00252845	   11.4633	   63.2113	
   11.4457	0.00254305	   11.4428	0.00252827	   11.4325	0.00252135	   11.4403	0.00253089	   11.4403	   63.2722	
   11.4223	0.00254521	   11.4194	0.00253063	   11.4094	0.00252387	    11.417	0.00253324	    11.417	   63.3309	
   11.3984	0.00254735	   11.3958	0.00253288	   11.3859	0.00252629	   11.3933	0.00253551	   11.3933	   63.3877	
    11.374	 0.0025494	   11.3715	0.00253513	   11.3619	0.00252863	   11.3692	0.00253772	   11.3692	    63.443	
   11.3491	0.00255134	   11.3467	0.00253729	   11.3374	 0.0025309	   11.3444	0.00253984	   11.3444	   63.4961	
   11.3238	0.00255323	   11.3215	0.00253936	   11.3125	0.00253307	   11.3193	0.00254189	   11.3193	   63.5472	
   11.2981	0.00255506	   11.2959	0.00254142	   11.2872	0.00253515	   11.2937	0.00254388	   11.2937	    63.597	
   11.2721	0.00255679	   11.2699	0.00254341	   11.2617	0.00253717	   11.2679	0.00254579	   11.2679	   63.6447	
   11.2456	0.00255847	   11.2435	0.00254528	   11.2356	 0.0025391	   11.2415	0.00254762	   11.2415	   63.6904	
   11.2184	0.00256008	   11.2165	0.00254713	    11.209	0.00254093	   11.2146	0.00254938	   11.2146	   63.7345	
   11.1909	 0.0025616	   11.1891	0.00254893	   11.1819	0.00254273	   11.1873	0.00255109	   11.1873	   63.7772	
    11.163	0.00256308	   11.1613	0.00255062	   11.1545	0.00254441	   11.1596	 0.0025527	   11.1596	   63.8175	
   11.1348	0.00256447	   11.1333	0.00255227	   11.1267	 0.0025461	   11.1316	0.00255428	   11.1316	    63.857	
   11.1061	 0.0025658	   11.1048	0.00255387	   11.0983	0.00254777	   11.1031	0.00255581	   11.1031	   63.8953	
   11.0769	0.00256712	   11.0757	0.00255538	   11.0694	0.00254919	    11.074	0.00255723	    11.074	   63.9307	
   11.0473	0.00256835	   11.0462	0.00255684	     11.04	0.00255058	   11.0445	0.00255859	   11.0445	   63.9647	
   11.0174	0.00256948	   11.0163	0.00255828	   11.0103	0.00255205	   11.0146	0.00255994	   11.0146	   63.9984	
    10.987	0.00257064	   10.9861	0.00255961	   10.9801	0.00255328	   10.9844	0.00256118	   10.9844	   64.0294	
   10.9559	 0.0025718	   10.9554	0.00256086	   10.9494	0.00255439	   10.9535	0.00256235	   10.9535	   64.0588	
   10.9245	 0.0025728	   10.9241	0.00256214	   10.9181	0.00255557	   10.9222	0.00256351	   10.9222	   64.0877	
   10.8927	0.00257382	   10.8924	0.00256334	   10.8865	0.00255657	   10.8905	0.00256458	   10.8905	   64.1144	
   10.8604	0.00257483	   10.8605	0.00256442	   10.8546	0.00255742	   10.8585	0.00256556	   10.8585	   64.1389	
    10.828	0.00257567	   10.8281	0.00256551	   10.8223	0.00255832	   10.8261	 0.0025665	   10.8261	   64.1625	
   10.7949	0.00257651	   10.7952	0.00256655	   10.7894	0.00255908	   10.7932	0.00256738	   10.7932	   64.1845	
   10.7613	0.00257733	   10.7619	0.00256745	   10.7561	0.00255968	   10.7598	0.00256816	   10.7598	   64.2039	
   10.7275	0.00257794	   10.7282	0.00256836	   10.7225	0.00256032	   10.7261	0.00256887	   10.7261	   64.2218	
   10.6933	0.00257855	   10.6942	0.00256922	   10.6886	0.00256089	    10.692	0.00256955	    10.692	   64.2389	
   10.6585	0.00257917	   10.6595	0.00256996	   10.6542	0.00256132	   10.6574	0.00257015	   10.6574	   64.2537	
   10.6232	0.00257955	   10.6244	0.00257069	   10.6193	0.00256183	   10.6223	0.00257069	   10.6223	   64.2672	
   10.5876	0.00257986	   10.5889	0.00257133	   10.5844	0.00256221	    10.587	0.00257113	    10.587	   64.2784	
   10.5515	0.00258022	   10.5533	0.00257187	   10.5493	0.00256241	   10.5514	 0.0025715	   10.5514	   64.2875	
    10.515	0.00258037	    10.517	0.00257238	   10.5131	0.00256283	   10.5151	0.00257186	   10.5151	   64.2965	
   10.4781	0.00258042	   10.4803	0.00257282	   10.4764	0.00256326	   10.4783	0.00257216	   10.4783	   64.3041	
   10.4409	0.00258052	   10.4432	0.00257314	   10.4397	0.00256334	   10.4413	0.00257233	   10.4413	   64.3083	
   10.4033	0.00258047	   10.4057	0.00257339	   10.4024	0.00256358	   10.4038	0.00257248	   10.4038	    64.312	
   10.3653	0.00258028	   10.3678	0.00257361	   10.3646	0.00256394	   10.3659	0.00257261	   10.3659	   64.3152	
   10.3268	0.00258014	   10.3293	0.00257371	   10.3263	0.00256401	   10.3275	0.00257262	   10.3275	   64.3155	
    10.288	0.00257991	   10.2905	0.00257374	   10.2876	0.00256414	   10.2887	 0.0025726	   10.2887	   64.3149	
    10.249	0.00257953	   10.2514	0.00257373	   10.2486	0.00256442	   10.2497	0.00257256	   10.2497	   64.3141	
   10.2095	0.00257922	   10.2119	0.00257364	    10.209	0.00256444	   10.2101	0.00257243	   10.2101	   64.3108	
   10.1695	0.00257885	   10.1719	 0.0025735	   10.1689	0.00256441	   10.1701	0.00257225	   10.1701	   64.3063	
   10.1292	0.00257835	   10.1317	0.00257328	   10.1285	0.00256453	   10.1298	0.00257205	   10.1298	   64.3013	
   10.0886	0.00257789	   10.0909	0.00257296	   10.0878	0.00256444	   10.0891	0.00257176	   10.0891	    64.294	
   10.0474	0.00257742	   10.0497	0.00257261	   10.0466	0.00256421	   10.0479	0.00257142	   10.0479	   64.2854	
   10.0058	0.00257679	    10.008	 0.0025722	   10.0049	0.00256411	   10.0062	0.00257104	   10.0062	   64.2759	
   9.96393	0.00257622	   9.96603	0.00257167	   9.96295	0.00256386	    9.9643	0.00257058	    9.9643	   64.2645	
   9.92185	0.00257565	   9.92368	 0.0025711	   9.92043	0.00256343	   9.92199	0.00257006	   9.92199	   64.2515	
   9.87924	0.00257498	   9.88082	0.00257051	   9.87742	0.00256314	   9.87916	0.00256954	   9.87916	   64.2385	
   9.83627	 0.0025743	   9.83758	0.00256979	   9.83405	 0.0025627	   9.83597	0.00256893	   9.83597	   64.2233	
   9.79299	0.00257363	   9.79406	  0.002569	   9.79051	0.00256204	   9.79252	0.00256822	   9.79252	   64.2056	
   9.74919	0.00257288	   9.75011	0.00256821	   9.74655	0.00256149	   9.74862	0.00256753	   9.74862	   64.1882	
   9.70492	0.00257216	   9.70568	0.00256733	   9.70212	0.00256089	   9.70424	0.00256679	   9.70424	   64.1699	
   9.66036	0.00257141	   9.66092	0.00256634	   9.65741	0.00256005	   9.65956	0.00256593	   9.65956	   64.1483	
    9.6155	0.00257056	   9.61585	0.00256535	   9.61239	0.00255923	   9.61458	0.00256505	   9.61458	   64.1262	
   9.57005	0.00256974	   9.57026	0.00256427	   9.56685	0.00255842	   9.56905	0.00256415	   9.56905	   64.1037	
   9.52424	 0.0025689	    9.5243	0.00256309	   9.52093	0.00255739	   9.52316	0.00256313	   9.52316	   64.0782	
    9.4782	0.00256798	   9.47796	0.00256189	   9.47463	0.00255635	   9.47693	0.00256208	   9.47693	   64.0519	
   9.43167	0.00256707	   9.43109	0.00256063	   9.42786	0.00255534	    9.4302	0.00256101	    9.4302	   64.0253	
   9.38469	0.00256612	   9.38378	0.00255927	   9.38064	0.00255411	   9.38304	0.00255983	   9.38304	   63.9958	
   9.33746	0.00256506	   9.33624	 0.0025579	   9.33319	0.00255285	   9.33563	 0.0025586	   9.33563	    63.965	
   9.28984	0.00256401	   9.28845	0.00255648	   9.28536	0.00255162	   9.28788	0.00255737	   9.28788	   63.9343	
    9.2417	0.00256295	   9.24018	0.00255496	   9.23711	0.00255024	   9.23967	0.00255605	   9.23967	   63.9012	
   9.19325	0.00256178	   9.19162	0.00255344	   9.18857	0.00254873	   9.19115	0.00255465	   9.19115	   63.8662	
   9.14453	0.00256059	   9.14294	0.00255187	   9.13985	0.00254727	   9.14244	0.00255324	   9.14244	   63.8311	
   9.09538	 0.0025594	   9.09414	0.00255015	   9.09071	 0.0025457	   9.09341	0.00255175	   9.09341	   63.7937	
   9.04585	0.00255813	   9.04462	0.00254848	   9.04118	0.00254399	   9.04389	 0.0025502	   9.04389	    63.755	
   8.99611	 0.0025568	   8.99437	 0.0025469	   8.99144	0.00254229	   8.99397	0.00254867	   8.99397	   63.7167	
   8.94589	0.00255548	   8.94404	0.00254511	   8.94125	0.00254055	   8.94373	0.00254705	   8.94373	   63.6761	
   8.89525	0.00255409	    8.8934	0.00254324	   8.89065	0.00253864	    8.8931	0.00254533	    8.8931	   63.6332	
   8.84441	0.00255265	    8.8423	 0.0025415	   8.83983	0.00253678	   8.84218	0.00254364	   8.84218	   63.5911	
   8.79311	0.00255118	   8.79076	0.00253959	   8.78874	0.00253487	   8.79087	0.00254188	   8.79087	    63.547	
   8.74137	0.00254964	   8.73878	0.00253757	   8.73719	0.00253281	   8.73911	   0.00254	   8.73911	   63.5001	
   8.68939	0.00254804	    8.6866	0.00253564	   8.68538	0.00253075	   8.68712	0.00253814	   8.68712	   63.4536	
   8.63719	0.00254644	   8.63405	0.00253358	   8.63322	0.00252871	   8.63482	0.00253624	   8.63482	    63.406	
   8.58451	0.00254473	    8.5811	0.00253136	   8.58068	0.00252653	   8.58209	0.00253421	   8.58209	   63.3553	
   8.53157	0.00254296	   8.52791	 0.0025292	   8.52786	0.00252431	   8.52911	0.00253216	   8.52911	   63.3039	
   8.47827	0.00254117	   8.47439	0.00252703	   8.47476	0.00252207	   8.47581	0.00253009	   8.47581	   63.2522	
   8.42454	0.00253931	    8.4204	0.00252468	   8.42115	0.00251977	   8.42203	0.00252792	   8.42203	   63.1981	
   8.37054	0.00253734	   8.36617	0.00252228	   8.36719	0.00251746	   8.36797	 0.0025257	   8.36797	   63.1424	
   8.31627	0.00253535	   8.31169	0.00251992	   8.31306	0.00251512	   8.31367	0.00252346	   8.31367	   63.0865	
   8.26149	0.00253331	   8.25672	0.00251744	   8.25871	0.00251272	   8.25897	0.00252116	   8.25897	    63.029	
   8.20645	0.00253113	   8.20151	 0.0025149	   8.20394	0.00251029	   8.20397	0.00251877	   8.20397	   62.9693	
   8.15119	0.00252892	   8.14605	0.00251235	   8.14886	0.00250782	    8.1487	0.00251636	    8.1487	   62.9091	
   8.09549	0.00252668	   8.09011	 0.0025097	   8.09361	0.00250534	   8.09307	0.00251391	   8.09307	   62.8477	
   8.03952	0.00252432	   8.03394	0.00250699	   8.03773	 0.0025028	   8.03706	0.00251137	   8.03706	   62.7843	
   7.98334	0.00252192	   7.97758	0.00250426	   7.98157	0.00250024	   7.98083	0.00250881	   7.98083	   62.7202	
   7.92668	0.00251951	    7.9208	0.00250143	   7.92505	0.00249764	   7.92417	0.00250619	   7.92417	   62.6548	
   7.86976	0.00251698	   7.86379	0.00249853	    7.8683	0.00249498	   7.86728	0.00250349	   7.86728	   62.5874	
   7.81259	 0.0025144	   7.80655	0.00249559	    7.8111	0.00249229	   7.81008	0.00250076	   7.81008	   62.5189	
   7.75496	 0.0025118	   7.74891	0.00249257	   7.75357	0.00248954	   7.75248	0.00249797	   7.75248	   62.4493	
    7.6971	0.00250912	   7.69105	0.00248946	    7.6958	0.00248673	   7.69465	 0.0024951	   7.69465	   62.3776	
   7.63891	0.00250637	   7.63292	 0.0024863	   7.63766	0.00248389	    7.6365	0.00249219	    7.6365	   62.3047	
   7.58029	0.00250361	   7.57436	0.00248309	   7.57907	0.00248099	   7.57791	0.00248923	   7.57791	   62.2308	
   7.52147	0.00250078	   7.51562	0.00247979	   7.52027	0.00247804	   7.51912	 0.0024862	   7.51912	   62.1551	
   7.46234	0.00249787	   7.45661	0.00247643	   7.46118	0.00247501	   7.46004	 0.0024831	   7.46004	   62.0776	
   7.40287	0.00249494	    7.3972	0.00247304	   7.40167	0.00247192	   7.40058	0.00247996	   7.40058	   61.9991	
   7.34324	0.00249195	   7.33765	0.00246955	   7.34189	 0.0024688	   7.34093	0.00247677	   7.34093	   61.9192	
   7.28323	0.00248886	   7.27776	0.00246598	   7.28177	0.00246561	   7.28092	0.00247349	   7.28092	   61.8371	
   7.22288	0.00248577	   7.21752	 0.0024624	   7.22129	0.00246231	   7.22056	0.00247016	   7.22056	    61.754	
    7.1623	0.00248259	   7.15712	0.00245876	    7.1607	0.00245899	   7.16004	0.00246678	   7.16004	   61.6695	
    7.1014	0.00247929	   7.09638	0.00245502	   7.09981	0.00245562	    7.0992	0.00246331	    7.0992	   61.5827	
    7.0402	0.00247599	   7.03533	0.00245127	   7.03861	0.00245217	   7.03805	0.00245981	   7.03805	   61.4952	
   6.97878	0.00247262	   6.97412	0.00244747	   6.97723	0.00244867	   6.97671	0.00245625	   6.97671	   61.4062	
   6.91694	 0.0024691	   6.91256	0.00244357	    6.9155	0.00244508	     6.915	0.00245258	     6.915	   61.3146	
   6.85486	 0.0024656	   6.85076	0.00243966	   6.85352	0.00244144	   6.85305	 0.0024489	   6.85305	   61.2225	
   6.79264	0.00246198	   6.78879	0.00243571	   6.79131	0.00243776	   6.79091	0.00244515	   6.79091	   61.1288	
   6.73005	0.00245824	   6.72643	0.00243167	   6.72871	  0.002434	   6.72839	 0.0024413	   6.72839	   61.0325	
   6.66729	0.00245451	   6.66388	0.00242761	   6.66593	0.00243017	    6.6657	0.00243743	    6.6657	   60.9357	
    6.6043	0.00245072	   6.60124	0.00242351	   6.60289	0.00242629	   6.60281	0.00243351	   6.60281	   60.8377	
   6.54096	0.00244676	   6.53821	0.00241933	    6.5395	0.00242232	   6.53956	0.00242947	   6.53956	   60.7368	
   6.47753	0.00244277	   6.47495	0.00241511	   6.47593	 0.0024183	   6.47614	0.00242539	   6.47614	   60.6348	
   6.41377	0.00243876	   6.41135	0.00241085	   6.41209	0.00241422	    6.4124	0.00242128	    6.4124	    60.532	
   6.34973	0.00243461	   6.34746	0.00240649	   6.34796	0.00241006	   6.34838	0.00241705	   6.34838	   60.4263	
   6.28556	0.00243038	   6.28313	0.00240212	   6.28369	0.00240582	   6.28413	0.00241277	   6.28413	   60.3193	
   6.22104	0.00242616	   6.21857	0.00239768	   6.21911	0.00240153	   6.21957	0.00240846	   6.21957	   60.2114	
   6.15632	0.00242179	   6.15386	0.00239313	   6.15432	0.00239715	   6.15483	0.00240402	   6.15483	   60.1005	
   6.09138	0.00241731	   6.08887	0.00238857	   6.08935	 0.0023927	   6.08987	0.00239953	   6.08987	   59.9882	
   6.02613	0.00241286	   6.02393	0.00238394	   6.02401	0.00238818	   6.02469	0.00239499	   6.02469	   59.8748	
   5.96077	0.00240831	   5.95849	0.00237915	   5.95856	0.00238358	   5.95927	0.00239035	   5.95927	   59.7587	
    5.8951	 0.0024036	   5.89285	0.00237441	   5.89284	0.00237889	    5.8936	0.00238563	    5.8936	   59.6409	
   5.82916	0.00239887	   5.82719	0.00236959	   5.82685	0.00237416	   5.82773	0.00238087	   5.82773	   59.5218	
   5.76315	0.00239409	   5.76115	0.00236459	   5.76072	0.00236935	   5.76167	0.00237601	   5.76167	   59.4003	
    5.6968	0.00238917	   5.69477	0.00235959	    5.6943	0.00236444	   5.69529	0.00237107	   5.69529	   59.2766	
   5.63028	0.00238422	   5.62827	0.00235456	   5.62769	0.00235947	   5.62875	0.00236608	   5.62875	    59.152	
   5.56355	0.00237922	    5.5616	0.00234936	   5.56087	0.00235445	   5.56201	0.00236101	   5.56201	   59.0253	
   5.49648	0.00237408	   5.49469	0.00234412	   5.49376	0.00234933	   5.49498	0.00235584	   5.49498	   58.8961	
   5.42929	 0.0023689	   5.42753	0.00233887	   5.42657	0.00234414	    5.4278	0.00235064	    5.4278	   58.7659	
   5.36178	0.00236367	   5.36016	0.00233346	   5.35909	0.00233891	   5.36034	0.00234535	   5.36034	   58.6336	
   5.29405	0.00235832	   5.29254	0.00232797	   5.29139	0.00233358	   5.29266	0.00233996	   5.29266	   58.4989	
    5.2261	 0.0023529	   5.22474	0.00232253	   5.22354	0.00232818	    5.2248	0.00233454	    5.2248	   58.3634	
   5.15779	0.00234743	   5.15661	0.00231693	   5.15531	0.00232275	   5.15657	0.00232904	   5.15657	   58.2259	
   5.08932	0.00234186	   5.08836	0.00231126	   5.08697	0.00231722	   5.08822	0.00232345	   5.08822	   58.0862	
   5.02061	 0.0023362	   5.01988	0.00230564	   5.01845	0.00231162	   5.01965	0.00231782	   5.01965	   57.9455	
   4.95166	0.00233048	   4.95113	0.00229986	   4.94966	0.00230595	   4.95081	 0.0023121	   4.95081	   57.8024	
   4.88267	0.00232468	   4.88227	  0.002294	   4.88076	0.00230018	    4.8819	0.00230628	    4.8819	   57.6571	
   4.81335	0.00231879	     4.813	0.00228817	   4.81155	0.00229438	   4.81263	0.00230044	   4.81263	   57.5111	
   4.74391	0.00231284	   4.74359	0.00228223	   4.74219	0.00228849	   4.74323	0.00229452	   4.74323	    57.363	
   4.67429	0.00230681	   4.67395	 0.0022762	   4.67269	0.00228246	   4.67364	0.00228849	   4.67364	   57.2123	
   4.60441	 0.0023007	   4.60403	0.00227021	    4.6029	0.00227639	   4.60378	0.00228243	   4.60378	   57.0608	
   4.53453	0.00229451	   4.53411	0.00226412	   4.53303	0.00227027	   4.53389	 0.0022763	   4.53389	   56.9075	
    4.4644	0.00228827	   4.46382	0.00225794	   4.46283	0.00226402	   4.46368	0.00227007	   4.46368	   56.7518	
   4.39411	0.00228193	   4.39338	0.00225177	   4.39248	0.00225773	   4.39332	0.00226381	   4.39332	   56.5952	
   4.32359	0.00227553	   4.32276	0.00224555	   4.32202	0.00225138	   4.32279	0.00225749	   4.32279	   56.4372	
   4.25279	0.00226906	   4.25186	0.00223921	   4.25127	0.00224494	   4.25197	0.00225107	   4.25197	   56.2768	
   4.18192	0.00226249	   4.18089	0.00223287	   4.18038	0.00223845	   4.18106	 0.0022446	   4.18106	   56.1151	
    4.1109	0.00225585	   4.10988	0.00222648	   4.10921	0.00223189	   4.10999	0.00223807	   4.10999	   55.9518	
   4.03978	0.00224913	    4.0387	0.00221997	   4.03789	0.00222523	   4.03879	0.00223144	   4.03879	   55.7861	
    3.9686	0.00224231	   3.96747	0.00221342	   3.96646	0.00221851	   3.96751	0.00222475	   3.96751	   55.6187	
   3.89718	0.00223542	   3.89594	0.00220681	   3.89474	0.00221173	   3.89595	0.00221799	   3.89595	   55.4497	
   3.82575	0.00222846	   3.82439	0.00220008	   3.82302	0.00220487	   3.82438	0.00221113	   3.82438	   55.2784	
   3.75403	 0.0022214	   3.75261	0.00219333	   3.75113	0.00219792	   3.75259	0.00220422	   3.75259	   55.1054	
   3.68216	0.00221427	   3.68068	0.00218652	   3.67908	0.00219091	   3.68064	0.00219723	   3.68064	   54.9308	
   3.61012	0.00220706	    3.6087	 0.0021796	   3.60704	0.00218387	   3.60862	0.00219018	   3.60862	   54.7545	
   3.53785	0.00219976	   3.53713	 0.0021726	   3.53507	0.00217674	   3.53669	0.00218303	   3.53669	   54.5759	
   3.46558	0.00219239	   3.46544	0.00216551	   3.46361	0.00216944	   3.46488	0.00217578	   3.46488	   54.3945	
   3.39333	0.00218494	   3.39305	0.00215837	   3.39154	0.00216212	   3.39264	0.00216848	   3.39264	   54.2119	
   3.32123	0.00217736	   3.32035	0.00215122	   3.31856	0.00215479	   3.32005	0.00216112	   3.32005	   54.0281	
    3.2488	 0.0021698	   3.24771	0.00214389	   3.24578	0.00214725	   3.24743	0.00215364	   3.24743	   53.8411	
    3.1759	0.00216217	   3.17507	0.00213647	   3.17305	0.00213961	   3.17467	0.00214608	   3.17467	   53.6521	
   3.10301	0.00215436	   3.10224	0.00212907	   3.10008	0.00213197	   3.10177	0.00213847	   3.10177	   53.4617	
   3.03021	0.00214656	   3.02939	0.00212152	   3.02686	0.00212415	   3.02882	0.00213074	   3.02882	   53.2686	
   2.95721	0.00213872	   2.95638	0.00211381	   2.95355	0.00211625	   2.95571	0.00212293	   2.95571	   53.0732	
   2.88401	0.00213074	   2.88333	0.00210612	   2.88023	 0.0021083	   2.88252	0.00211505	   2.88252	   52.8763	
   2.81055	 0.0021227	   2.81009	0.00209833	   2.80674	0.00210018	   2.80913	0.00210707	   2.80913	   52.6768	
   2.73709	0.00211464	   2.73679	0.00209036	   2.73316	0.00209198	   2.73568	0.00209899	   2.73568	   52.4748	
   2.66329	0.00210642	   2.66332	0.00208236	   2.65959	0.00208375	   2.66207	0.00209084	   2.66207	   52.2711	
   2.58939	 0.0020981	    2.5897	0.00207432	   2.58589	0.00207534	   2.58833	0.00208259	   2.58833	   52.0647	
   2.51545	0.00208975	   2.51601	0.00206607	   2.51207	0.00206686	   2.51451	0.00207423	   2.51451	   51.8557	
   2.44128	0.00208128	   2.44211	0.00205777	     2.438	0.00205836	   2.44046	 0.0020658	   2.44046	   51.6451	
   2.36716	0.00207265	   2.36821	0.00204943	   2.36397	 0.0020497	   2.36645	0.00205726	   2.36645	   51.4316	
   2.29274	0.00206391	   2.29408	0.00204089	   2.28981	0.00204095	   2.29221	0.00204858	   2.29221	   51.2146	
   2.21825	 0.0020551	   2.21984	0.00203225	   2.21555	 0.0020322	   2.21788	0.00203985	   2.21788	   50.9963	
   2.14368	0.00204618	   2.14555	0.00202361	   2.14129	0.00202332	   2.14351	0.00203103	   2.14351	   50.7759	
   2.06892	0.00203709	   2.07102	0.00201476	    2.0668	0.00201431	   2.06891	0.00202205	   2.06891	   50.5513	
   1.99425	0.00202792	   1.99648	 0.0020058	   1.99231	0.00200531	   1.99435	0.00201301	   1.99435	   50.3253	
   1.91942	0.00201862	   1.92177	0.00199686	   1.91753	0.00199621	   1.91957	 0.0020039	   1.91957	   50.0974	
   1.84456	0.00200915	   1.84698	0.00198772	   1.84268	0.00198698	   1.84474	0.00199462	   1.84474	   49.8654	
   1.76965	 0.0019996	   1.77223	0.00197844	   1.76788	0.00197773	   1.76992	0.00198525	   1.76992	   49.6314	
   1.69457	0.00198992	   1.69737	0.00196916	   1.69293	0.00196839	   1.69496	0.00197582	   1.69496	   49.3956	
    1.6196	0.00198009	   1.62259	0.00195973	   1.61807	0.00195892	   1.62009	0.00196624	   1.62009	   49.1561	
   1.54456	0.00197017	    1.5477	0.00195014	   1.54317	0.00194941	   1.54515	0.00195657	   1.54515	   48.9143	
   1.46951	0.00196015	   1.47276	0.00194054	   1.46822	0.00193982	   1.47016	0.00194684	   1.47016	    48.671	
   1.39439	0.00195001	   1.39777	0.00193086	   1.39334	0.00193009	   1.39517	0.00193699	   1.39517	   48.4247	
   1.31913	0.00193978	    1.3226	0.00192099	   1.31827	0.00192029	      1.32	0.00192702	      1.32	   48.1756	
   1.24395	0.00192946	   1.24753	0.00191106	   1.24329	0.00191038	   1.24493	0.00191697	   1.24493	   47.9242	
    1.1686	0.00191903	   1.17236	0.00190107	   1.16816	0.00190037	   1.16971	0.00190683	   1.16971	   47.6707	
   1.09326	0.00190852	   1.09716	0.00189094	     1.093	0.00189028	   1.09447	0.00189658	   1.09447	   47.4145	
   1.01793	0.00189792	   1.02188	 0.0018807	   1.01782	0.00187999	   1.01921	 0.0018862	   1.01921	   47.1551	
  0.942532	0.00188722	  0.946503	0.00187037	  0.942473	0.00186959	  0.943836	0.00187573	  0.943836	   46.8932	
  0.867059	0.00187643	  0.871186	0.00185993	  0.867194	0.00185917	   0.86848	0.00186517	   0.86848	   46.6293	
    0.7917	0.00186556	  0.795791	0.00184938	  0.791837	0.00184856	   0.79311	 0.0018545	   0.79311	   46.3626	
  0.716413	0.00185458	  0.720387	0.00183875	  0.716472	0.00183778	  0.717757	 0.0018437	  0.717757	   46.0926	
  0.640992	 0.0018435	  0.645037	0.00182802	  0.641212	0.00182698	  0.642414	0.00183283	  0.642414	   45.8208	
  0.565562	0.00183234	  0.569594	0.00181717	  0.565804	0.00181609	  0.566987	0.00182186	  0.566987	   45.5466	
  0.490235	0.00182104	  0.494228	0.00180618	  0.490526	0.00180497	  0.491663	0.00181073	  0.491663	   45.2682	
  0.414964	0.00180964	  0.418844	0.00179508	  0.415225	0.00179381	  0.416345	0.00179951	  0.416345	   44.9877	
  0.339604	0.00179815	  0.343454	0.00178393	  0.339914	0.00178265	  0.340991	0.00178824	  0.340991	    44.706	
   0.26431	0.00178653	   0.26805	0.00177263	  0.264752	0.00177127	  0.265704	0.00177681	  0.265704	   44.4202	
  0.189051	 0.0017748	   0.19251	0.00176119	  0.189487	 0.0017598	   0.19035	0.00176527	   0.19035	   44.1316	
  0.113889	  0.001763	  0.117014	0.00174969	  0.114295	0.00174835	  0.115066	0.00175368	  0.115066	    43.842	
 0.0386892	0.00175107	 0.0415939	0.00173806	 0.0390431	0.00173671	 0.0397754	0.00174195	 0.0397754	   43.5486	
-0.0365004	0.00173901	-0.0338204	 0.0017263	-0.0362183	0.00172495	 -0.035513	0.00173009	 -0.035513	   43.2521	
 -0.111581	0.00172689	 -0.109182	0.00171443	 -0.111499	0.00171319	 -0.110754	0.00171817	 -0.110754	   42.9542	
 -0.186742	0.00171465	 -0.184827	0.00170249	 -0.186867	0.00170123	 -0.186145	0.00170612	 -0.186145	    42.653	
 -0.261864	0.00170228	 -0.260259	0.00169038	 -0.262509	0.00168916	 -0.261544	0.00169394	 -0.261544	   42.3485	
 -0.337081	0.00168982	 -0.335611	0.00167819	 -0.338002	0.00167708	 -0.336898	0.00168169	 -0.336898	   42.0424	
 -0.412286	0.00167728	 -0.411059	0.00166594	 -0.413429	0.00166484	 -0.412258	0.00166935	 -0.412258	   41.7338	
 -0.487774	0.00166466	 -0.486427	0.00165349	 -0.488627	0.00165243	  -0.48761	0.00165686	  -0.48761	   41.4215	
 -0.563249	 0.0016519	 -0.561586	0.00164092	 -0.563799	0.00163999	 -0.562878	0.00164427	 -0.562878	   41.1068	
 -0.638502	0.00163904	 -0.636619	0.00162835	 -0.639202	0.00162746	 -0.638108	0.00163162	 -0.638108	   40.7904	
 -0.713693	0.00162614	 -0.711882	0.00161559	 -0.714041	0.00161475	 -0.713205	0.00161883	 -0.713205	   40.4707	
 -0.788869	 0.0016131	 -0.787088	0.00160266	  -0.78897	0.00160197	 -0.788309	0.00160591	 -0.788309	   40.1478	
 -0.863712	0.00159997	 -0.862182	0.00158974	 -0.864222	0.00158913	 -0.863372	0.00159295	 -0.863372	   39.8237	
 -0.938447	 0.0015868	  -0.93742	0.00157665	 -0.939405	0.00157614	 -0.938424	0.00157986	 -0.938424	   39.4966	
  -1.01324	0.00157347	  -1.01269	0.00156336	  -1.01446	0.00156304	  -1.01346	0.00156662	  -1.01346	   39.1656	
  -1.08806	0.00156008	  -1.08776	0.00155009	  -1.08954	0.00154991	  -1.08846	0.00155336	  -1.08846	   38.8339	
  -1.16263	0.00154673	  -1.16273	0.00153668	  -1.16459	0.00153659	  -1.16331	   0.00154	  -1.16331	   38.5001	
  -1.23722	0.00153312	  -1.23776	0.00152309	  -1.23953	0.00152317	  -1.23817	0.00152646	  -1.23817	   38.1615	
  -1.31184	0.00151938	  -1.31279	 0.0015095	  -1.31439	0.00150982	    -1.313	 0.0015129	    -1.313	   37.8224	
  -1.38636	0.00150576	   -1.3877	0.00149581	  -1.38925	0.00149627	  -1.38777	0.00149928	  -1.38777	    37.482	
  -1.46074	0.00149195	  -1.46259	0.00148195	  -1.46416	0.00148252	   -1.4625	0.00148547	   -1.4625	   37.1368	
  -1.53519	 0.0014779	  -1.53746	0.00146807	    -1.539	0.00146885	  -1.53722	0.00147161	  -1.53722	   36.7902	
  -1.60954	0.00146397	  -1.61221	0.00145412	  -1.61366	0.00145509	   -1.6118	0.00145773	   -1.6118	   36.4432	
  -1.68399	0.00144991	  -1.68687	0.00143999	  -1.68836	0.00144111	  -1.68641	0.00144367	  -1.68641	   36.0917	
  -1.75838	0.00143555	  -1.76145	0.00142582	  -1.76298	0.00142717	  -1.76093	0.00142951	  -1.76093	   35.7378	
  -1.83272	0.00142127	  -1.83591	0.00141159	  -1.83753	0.00141318	  -1.83539	0.00141535	  -1.83539	   35.3837	
  -1.90709	0.00140694	  -1.91034	0.00139718	   -1.9121	0.00139898	  -1.90984	0.00140103	  -1.90984	   35.0258	
  -1.98137	 0.0013923	  -1.98463	0.00138265	  -1.98658	0.00138477	  -1.98419	0.00138657	  -1.98419	   34.6643	
  -2.05566	0.00137762	  -2.05898	0.00136815	  -2.06105	0.00137054	  -2.05856	 0.0013721	  -2.05856	   34.3026	
   -2.1299	0.00136291	  -2.13328	 0.0013535	  -2.13547	0.00135609	  -2.13288	 0.0013575	  -2.13288	   33.9375	
  -2.20396	0.00134798	  -2.20734	0.00133863	  -2.20963	0.00134158	  -2.20698	0.00134273	  -2.20698	   33.5683	
  -2.27814	0.00133301	  -2.28136	0.00132376	   -2.2838	0.00132703	   -2.2811	0.00132793	   -2.2811	   33.1983	
  -2.35221	0.00131793	  -2.35524	0.00130881	  -2.35782	0.00131228	  -2.35509	0.00131301	  -2.35509	   32.8252	
  -2.42609	0.00130259	    -2.429	0.00129366	  -2.43188	0.00129742	  -2.42899	0.00129789	  -2.42899	   32.4472	
  -2.49999	 0.0012872	  -2.50279	0.00127848	  -2.50594	0.00128255	  -2.50291	0.00128274	  -2.50291	   32.0686	
  -2.57368	0.00127176	  -2.57639	0.00126324	  -2.57979	0.00126746	  -2.57662	0.00126749	  -2.57662	   31.6872	
  -2.64737	0.00125607	  -2.64995	0.00124781	  -2.65357	0.00125224	   -2.6503	0.00125204	   -2.6503	    31.301	
  -2.72098	0.00124028	  -2.72343	0.00123232	  -2.72726	  0.001237	  -2.72389	0.00123653	  -2.72389	   30.9133	
  -2.79439	0.00122444	  -2.79673	0.00121679	  -2.80084	0.00122156	  -2.79732	0.00122093	  -2.79732	   30.5232	
  -2.86782	0.00120839	  -2.87001	 0.0012011	  -2.87438	0.00120594	  -2.87074	0.00120514	  -2.87074	   30.1285	
  -2.94111	0.00119221	  -2.94312	0.00118531	  -2.94773	0.00119031	  -2.94399	0.00118928	  -2.94399	    29.732	
  -3.01443	  0.001176	  -3.01613	0.00116947	  -3.02099	0.00117452	  -3.01718	0.00117333	  -3.01718	   29.3333	
  -3.08772	0.00115961	  -3.08914	0.00115351	  -3.09422	0.00115856	  -3.09036	0.00115723	  -3.09036	   28.9306	
  -3.16077	0.00114307	  -3.16193	0.00113741	  -3.16722	0.00114258	  -3.16331	0.00114102	  -3.16331	   28.5255	
  -3.23373	0.00112651	  -3.23468	0.00112127	  -3.24019	0.00112646	   -3.2362	0.00112474	   -3.2362	   28.1186	
  -3.30658	 0.0011098	  -3.30733	0.00110502	  -3.31305	0.00111019	  -3.30899	0.00110834	  -3.30899	   27.7084	
  -3.37923	0.00109295	  -3.37976	0.00108859	   -3.3857	0.00109388	  -3.38156	0.00109181	  -3.38156	   27.2952	
  -3.45193	0.00107606	  -3.45221	0.00107214	   -3.4583	0.00107746	  -3.45415	0.00107522	  -3.45415	   26.8805	
  -3.52444	0.00105907	   -3.5245	0.00105559	  -3.53071	0.00106089	  -3.52655	0.00105852	  -3.52655	   26.4629	
  -3.59676	0.00104193	  -3.59659	0.00103886	  -3.60284	0.00104427	  -3.59873	0.00104169	  -3.59873	   26.0422	
    -3.669	0.00102476	  -3.66858	0.00102209	  -3.67491	0.00102756	  -3.67083	 0.0010248	  -3.67083	   25.6201	
  -3.74104	0.00100749	  -3.74035	0.00100525	  -3.74674	0.00101072	  -3.74271	0.00100782	  -3.74271	   25.1955	
  -3.81297	0.000990089	   -3.8121	0.000988253	   -3.8184	0.00099382	  -3.81449	0.000990721	  -3.81449	    24.768	
  -3.88483	0.000972637	  -3.88381	0.000971213	  -3.88994	0.000976829	  -3.88619	0.00097356	  -3.88619	    24.339	
  -3.95635	0.000955103	  -3.95531	0.000954114	  -3.96122	0.000959696	  -3.95762	0.000956305	  -3.95762	   23.9076	
  -4.02792	0.000937452	  -4.02677	0.000936888	  -4.03243	0.00094252	  -4.02904	0.000938953	  -4.02904	   23.4738	
  -4.09934	0.000919731	  -4.09812	0.000919593	  -4.10353	0.000925262	  -4.10033	0.000921529	  -4.10033	   23.0382	
  -4.17058	0.00090192	  -4.16919	0.000902236	  -4.17437	0.000907844	  -4.17138	  0.000904	  -4.17138	      22.6	
  -4.24174	0.000883989	  -4.24017	0.000884784	  -4.24518	0.000890354	  -4.24236	0.000886376	  -4.24236	   22.1594	
   -4.3127	0.000866028	  -4.31097	0.000867226	  -4.31583	0.000872843	  -4.31316	0.000868699	  -4.31316	   21.7175	
  -4.38326	0.000848007	  -4.38151	0.000849614	  -4.38627	0.000855191	  -4.38368	0.000850937	  -4.38368	   21.2734	
  -4.45377	0.000829858	  -4.45208	0.000831918	  -4.45668	0.00083739	  -4.45418	0.000833055	  -4.45418	   20.8264	
  -4.52368	0.000811603	  -4.52242	0.000814112	  -4.52688	0.000819589	  -4.52433	0.000815101	  -4.52433	   20.3775	
   -4.5932	0.000793235	  -4.59251	0.000796241	  -4.59678	0.000801709	  -4.59416	0.000797062	  -4.59416	   19.9265	
  -4.66291	0.000774812	  -4.66247	0.000778291	  -4.66667	0.000783642	  -4.66401	0.000778915	  -4.66401	   19.4729	
  -4.73272	0.000756361	  -4.73217	0.000760228	   -4.7363	0.00076551	  -4.73373	 0.0007607	  -4.73373	   19.0175	
  -4.80217	0.000737718	  -4.80164	0.000742089	  -4.80571	0.000747356	  -4.80317	0.000742388	  -4.80317	   18.5597	
  -4.87146	0.000718963	  -4.87101	0.000723869	  -4.87502	0.000729036	   -4.8725	0.000723956	   -4.8725	   18.0989	
  -4.94061	0.000700187	   -4.9401	0.000705542	  -4.94405	0.000710613	  -4.94159	0.000705448	  -4.94159	   17.6362	
  -5.00955	0.000681284	  -5.00905	0.000687134	  -5.01278	0.000692159	  -5.01046	0.000686859	  -5.01046	   17.1715	
  -5.07818	0.000662265	  -5.07787	0.000668649	  -5.08146	0.000673569	  -5.07917	0.000668161	  -5.07917	    16.704	
  -5.14652	0.000643166	  -5.14638	0.000650063	  -5.14985	0.000654794	  -5.14758	0.000649341	  -5.14758	   16.2335	
  -5.21461	0.000623995	  -5.21455	0.000631388	  -5.21789	0.000635997	  -5.21568	0.00063046	  -5.21568	   15.7615	
  -5.28263	0.000604724	  -5.28259	0.000612652	  -5.28582	0.000617094	  -5.28368	0.00061149	  -5.28368	   15.2872	
  -5.35039	0.000585329	  -5.35034	0.000593835	  -5.35347	0.000598025	   -5.3514	0.000592396	   -5.3514	   14.8099	
  -5.41796	0.000565904	  -5.41786	0.000574898	    -5.421	0.000578928	  -5.41894	0.000573243	  -5.41894	   14.3311	
  -5.48544	0.000546391	   -5.4853	0.000555893	   -5.4884	0.00055972	  -5.48638	0.000554001	  -5.48638	     13.85	
  -5.55261	0.000526763	  -5.55244	0.000536811	  -5.55551	0.000540335	  -5.55352	0.000534636	  -5.55352	   13.3659	
  -5.61952	0.000507075	  -5.61929	0.000517615	  -5.62227	0.000520934	  -5.62036	0.000515208	  -5.62036	   12.8802	
  -5.68631	0.000487373	  -5.68603	0.000498305	  -5.68898	0.000501443	   -5.6871	0.000495707	   -5.6871	   12.3927	
  -5.75283	0.000467569	  -5.75248	0.000479033	   -5.7554	0.000481792	  -5.75357	0.000476132	  -5.75357	   11.9033	
  -5.81923	0.00044768	  -5.81865	0.000459638	  -5.82161	0.000462112	  -5.81983	0.000456476	  -5.81983	   11.4119	
  -5.88554	0.000427786	  -5.88472	0.000440018	  -5.88771	0.000442383	  -5.88599	0.000436729	  -5.88599	   10.9182	
  -5.95155	0.000407825	  -5.95052	0.000420394	  -5.95354	0.000422515	  -5.95187	0.000416911	  -5.95187	   10.4228	
   -6.0173	0.000387794	   -6.0159	0.00040075	  -6.01904	0.000402606	  -6.01741	0.00039705	  -6.01741	   9.92625	
  -6.08299	0.00036772	  -6.08126	0.000380879	  -6.08447	0.000382673	  -6.08291	0.000377091	  -6.08291	   9.42727	
  -6.14839	0.000347614	  -6.14638	0.000360958	  -6.14965	0.000362623	  -6.14814	0.000357065	  -6.14814	   8.92662	
   -6.2134	0.000327428	  -6.21115	0.000341039	  -6.21447	0.000342525	  -6.21301	0.000336997	  -6.21301	   8.42493	
  -6.27812	0.000307177	  -6.27577	0.000320914	  -6.27905	0.00032241	  -6.27765	0.000316834	  -6.27765	   7.92085	
  -6.34261	0.000286919	  -6.34019	0.000300717	  -6.34342	 0.0003022	  -6.34207	0.000296612	  -6.34207	    7.4153	
  -6.40666	0.000266589	   -6.4042	0.000280561	  -6.40737	0.000281945	  -6.40608	0.000276365	  -6.40608	   6.90912	
  -6.47048	0.000246182	   -6.4681	0.000260216	  -6.47113	0.000261683	  -6.46991	0.000256027	  -6.46991	   6.40068	
  -6.53413	0.000225772	  -6.53184	0.000239739	  -6.53475	0.000241346	  -6.53357	0.000235619	  -6.53357	   5.89047	
  -6.59739	0.000205295	  -6.59527	0.000219339	    -6.598	0.000220964	  -6.59688	0.000215199	  -6.59688	   5.37998	
  -6.66038	0.00018474	  -6.65837	0.000198825	  -6.66095	0.000200581	   -6.6599	0.000194715	   -6.6599	   4.86789	
   -6.7232	0.000164181	  -6.72137	0.000178134	  -6.72381	0.000180141	  -6.72279	0.000174152	  -6.72279	    4.3538	
   -6.7857	0.000143564	  -6.78406	0.000157498	  -6.78636	0.000159626	  -6.78537	0.000153563	  -6.78537	   3.83907	
   -6.8478	0.000122874	  -6.84639	0.000136807	  -6.84848	0.000139151	  -6.84756	0.000132944	  -6.84756	    3.3236	
  -6.90975	0.000102182	  -6.90854	0.00011595	  -6.91042	0.000118673	  -6.90957	0.000112268	  -6.90957	   2.80671	
  -6.97147	8.14568e-05	  -6.97044	9.5112e-05	  -6.97214	9.80232e-05	  -6.97135	9.15307e-05	  -6.97135	   2.28827	
  -7.03279	6.06628e-05	   -7.0319	7.43029e-05	  -7.03344	7.73606e-05	  -7.03271	7.07754e-05	  -7.03271	   1.76939	
   -7.0938	3.98664e-05	  -7.09305	5.33636e-05	  -7.09444	5.67723e-05	  -7.09376	5.00008e-05	  -7.09376	   1.25002	
  -7.15465	1.90542e-05	  -7.15399	3.23736e-05	  -7.15521	3.60879e-05	  -7.15462	2.91719e-05	  -7.15462	  0.729298	
  -7.21515	-1.81559e-06	  -7.21459	1.14146e-05	  -7.21554	1.52803e-05	  -7.21509	8.2931e-06	  -7.21509	  0.207328	
  -7.27516	-2.26828e-05	   -7.2747	-9.61799e-06	  -7.27531	-5.48024e-06	  -7.27506	-1.25937e-05	  -7.27506	 -0.314842	
  -7.33502	-4.35442e-05	  -7.33467	-3.0695e-05	  -7.33533	-2.62141e-05	  -7.33501	-3.34845e-05	  -7.33501	 -0.837111	
  -7.39464	-6.44525e-05	   -7.3944	-5.17381e-05	  -7.39534	-4.70406e-05	  -7.39479	-5.44104e-05	  -7.39479	  -1.36026	
  -7.45386	-8.53566e-05	  -7.45375	-7.28269e-05	   -7.4548	-6.78776e-05	  -7.45414	-7.53537e-05	  -7.45414	  -1.88384	
  -7.51273	-0.000106229	  -7.51284	-9.39274e-05	  -7.51389	-8.8692e-05	  -7.51315	-9.62829e-05	  -7.51315	  -2.40707	
  -7.57148	-0.000127135	  -7.57174	-0.000114985	  -7.57286	-0.000109567	  -7.57203	-0.000117229	  -7.57203	  -2.93073	
   -7.6299	-0.000148041	  -7.63032	-0.00013612	  -7.63151	-0.000130505	  -7.63058	-0.000138222	  -7.63058	  -3.45555	
  -7.68792	-0.000168906	  -7.68856	-0.000157248	   -7.6897	-0.00015142	  -7.68873	-0.000159191	  -7.68873	  -3.97979	
  -7.74558	-0.00018983	  -7.74673	-0.000178304	  -7.74753	-0.000172325	  -7.74661	-0.000180153	  -7.74661	  -4.50383	
  -7.80305	-0.000210736	  -7.80468	-0.000199437	  -7.80513	-0.000193303	  -7.80429	-0.000201158	  -7.80429	  -5.02896	
  -7.86021	-0.000231595	  -7.86222	-0.00022059	  -7.86236	-0.00021426	   -7.8616	-0.000222148	   -7.8616	  -5.55371	
  -7.91748	-0.000252492	  -7.91924	-0.000241663	   -7.9191	-0.000235218	  -7.91861	-0.000243124	  -7.91861	   -6.0781	
   -7.9744	-0.000273391	  -7.97609	-0.000262786	   -7.9757	-0.000256247	   -7.9754	-0.000264141	   -7.9754	  -6.60353	
  -8.03088	-0.000294225	  -8.03268	-0.000283938	  -8.03208	-0.000277297	  -8.03188	-0.000285153	  -8.03188	  -7.12883	
  -8.08699	-0.000315093	  -8.08889	-0.000305003	  -8.08805	-0.000298319	  -8.08798	-0.000306138	  -8.08798	  -7.65345	
  -8.14249	-0.000335998	   -8.1447	-0.000326074	  -8.14356	-0.000319377	  -8.14358	-0.000327149	  -8.14358	  -8.17874	
  -8.19803	-0.000356813	  -8.20023	-0.000347175	  -8.19878	-0.00034046	  -8.19901	-0.000348149	  -8.19901	  -8.70373	
  -8.25328	-0.000377672	  -8.25545	-0.000368192	  -8.25377	-0.000361489	  -8.25417	-0.000369118	  -8.25417	  -9.22794	
  -8.30799	-0.000398572	  -8.31021	-0.000389181	  -8.30835	-0.000382545	  -8.30885	-0.000390099	  -8.30885	  -9.75247	
  -8.36248	-0.000419411	  -8.36455	-0.000410184	  -8.36247	-0.000403634	  -8.36317	-0.000411077	  -8.36317	  -10.2769	
  -8.41675	-0.000440305	  -8.41864	-0.000431107	  -8.41628	-0.000424665	  -8.41722	-0.000432026	  -8.41722	  -10.8006	
  -8.47069	-0.0004612	  -8.47247	-0.00045199	  -8.46982	-0.000445696	  -8.47099	-0.000452962	  -8.47099	  -11.3241	
  -8.52428	-0.000482002	  -8.52586	-0.000472894	  -8.52297	-0.000466748	  -8.52437	-0.000473881	  -8.52437	   -11.847	
  -8.57768	-0.000502836	  -8.57878	-0.000493696	  -8.57574	-0.000487727	   -8.5774	-0.000494753	   -8.5774	  -12.3688	
  -8.63068	-0.000523695	  -8.63152	-0.000514441	   -8.6283	-0.000508672	  -8.63017	-0.000515603	  -8.63017	  -12.8901	
  -8.68336	-0.000544446	  -8.68402	-0.000535202	  -8.68061	-0.000529604	  -8.68267	-0.000536417	  -8.68267	  -13.4104	
  -8.73567	-0.000565185	  -8.73613	-0.000555878	  -8.73256	-0.000550457	  -8.73478	-0.000557173	  -8.73478	  -13.9293	
   -8.7875	-0.000585946	  -8.78778	-0.000576482	   -8.7841	-0.000571245	  -8.78646	-0.000577891	  -8.78646	  -14.4473	
  -8.83896	-0.000606584	   -8.8391	-0.000596998	  -8.83538	-0.000591976	  -8.83781	-0.000598519	  -8.83781	   -14.963	
  -8.89021	-0.000627185	  -8.89022	-0.000617554	  -8.88645	-0.000612656	  -8.88896	-0.000619132	  -8.88896	  -15.4783	
  -8.94108	-0.000647802	  -8.94099	-0.000638095	  -8.93719	-0.000633285	  -8.93975	-0.000639728	  -8.93975	  -15.9932	
  -8.99148	-0.000668288	  -8.99125	-0.000658469	  -8.98745	-0.000653811	  -8.99006	-0.000660189	  -8.99006	  -16.5047	
  -9.04142	-0.00068871	  -9.04119	-0.000678822	  -9.03735	-0.000674254	  -9.03998	-0.000680595	  -9.03998	  -17.0149	
  -9.09116	-0.000709128	  -9.09088	-0.00069919	  -9.08705	-0.000694671	   -9.0897	-0.000700996	   -9.0897	  -17.5249	
   -9.1406	-0.000729426	   -9.1403	-0.000719436	  -9.13648	-0.000715006	  -9.13913	-0.000721289	  -9.13913	  -18.0322	
   -9.1896	-0.00074965	  -9.18929	-0.000739608	  -9.18551	-0.000735251	  -9.18813	-0.000741503	  -9.18813	  -18.5376	
  -9.23802	-0.000769819	  -9.23775	-0.000759782	  -9.23405	-0.000755451	  -9.23661	-0.000761684	  -9.23661	  -19.0421	
  -9.28609	-0.000789875	  -9.28593	-0.000779902	   -9.2822	-0.0007756	  -9.28474	-0.000781792	  -9.28474	  -19.5448	
  -9.33398	-0.000809887	  -9.33383	-0.000799909	  -9.33021	-0.00079567	  -9.33267	-0.000801822	  -9.33267	  -20.0455	
  -9.38153	-0.000829852	  -9.38139	-0.00081989	  -9.37791	-0.00081569	  -9.38028	-0.000821811	  -9.38028	  -20.5453	
  -9.42861	-0.00084964	  -9.42834	-0.000839939	  -9.42515	-0.000835671	  -9.42737	-0.00084175	  -9.42737	  -21.0437	
   -9.4753	-0.000869366	  -9.47505	-0.000859857	  -9.47182	-0.00085557	  -9.47406	-0.000861598	  -9.47406	  -21.5399	
  -9.52172	-0.000889115	  -9.52179	-0.000879654	  -9.51819	-0.00087539	  -9.52057	-0.000881386	  -9.52057	  -22.0347	
  -9.56787	-0.00090872	   -9.5681	-0.000899526	  -9.56435	-0.000895204	  -9.56677	-0.00090115	  -9.56677	  -22.5287	
  -9.61367	-0.000928222	  -9.61373	-0.000919349	  -9.61018	-0.000914967	  -9.61253	-0.000920846	  -9.61253	  -23.0211	
  -9.65899	-0.000947749	  -9.65899	-0.000939015	  -9.65556	-0.000934588	  -9.65785	-0.000940451	  -9.65785	  -23.5113	
  -9.70386	-0.000967177	  -9.70393	-0.000958699	  -9.70037	-0.000954245	  -9.70272	-0.00096004	  -9.70272	   -24.001	
  -9.74833	-0.000986493	  -9.74841	-0.000978345	  -9.74493	-0.000973843	  -9.74722	-0.00097956	  -9.74722	   -24.489	
  -9.79256	-0.00100582	  -9.79247	-0.000997825	  -9.78933	-0.000993209	  -9.79145	-0.000998952	  -9.79145	  -24.9738	
  -9.83646	-0.00102507	  -9.83623	-0.00101727	  -9.83337	-0.00101261	  -9.83535	-0.00101832	  -9.83535	   -25.458	
  -9.87992	-0.0010442	  -9.87956	-0.00103666	  -9.87688	-0.00103202	  -9.87879	-0.00103763	  -9.87879	  -25.9407	
  -9.92286	-0.00106329	  -9.92235	-0.0010559	  -9.91995	-0.00105114	  -9.92172	-0.00105678	  -9.92172	  -26.4194	
  -9.96534	-0.00108235	  -9.96454	-0.00107504	  -9.96264	-0.00107021	  -9.96417	-0.00107587	  -9.96417	  -26.8967	
  -10.0076	-0.00110129	  -10.0065	-0.00109411	   -10.005	-0.0010893	  -10.0064	-0.0010949	  -10.0064	  -27.3725	
  -10.0496	-0.00112012	  -10.0483	-0.00111302	  -10.0469	-0.0011081	  -10.0482	-0.00111375	  -10.0482	  -27.8437	
  -10.0912	-0.00113889	  -10.0897	-0.00113177	  -10.0883	-0.00112678	  -10.0897	-0.00113248	  -10.0897	   -28.312	
  -10.1323	-0.00115759	  -10.1306	-0.00115045	  -10.1296	-0.00114544	  -10.1308	-0.00115116	  -10.1308	   -28.779	
   -10.173	-0.00117616	   -10.171	 -0.001169	  -10.1703	-0.00116386	  -10.1715	-0.00116967	  -10.1715	  -29.2419	
  -10.2133	-0.00119464	   -10.211	-0.00118736	  -10.2106	-0.00118214	  -10.2116	-0.00118805	  -10.2116	  -29.7011	
  -10.2532	-0.00121303	  -10.2507	-0.00120568	  -10.2505	-0.0012004	  -10.2515	-0.00120637	  -10.2515	  -30.1593	
  -10.2929	-0.00123129	  -10.2899	-0.00122388	    -10.29	-0.00121843	  -10.2909	-0.00122454	  -10.2909	  -30.6134	
  -10.3322	-0.00124943	  -10.3289	-0.00124188	  -10.3291	-0.00123627	  -10.3301	-0.00124253	  -10.3301	  -31.0631	
   -10.371	-0.00126749	  -10.3674	-0.00125974	  -10.3679	-0.00125412	  -10.3688	-0.00126045	  -10.3688	  -31.5112	
  -10.4092	-0.00128541	  -10.4054	-0.00127758	   -10.406	-0.00127174	  -10.4069	-0.00127824	  -10.4069	  -31.9561	
  -10.4469	-0.00130317	  -10.4429	-0.00129528	  -10.4437	-0.00128921	  -10.4445	-0.00129589	  -10.4445	  -32.3972	
  -10.4842	-0.00132087	    -10.48	-0.00131282	  -10.4808	-0.00130669	  -10.4817	-0.00131346	  -10.4817	  -32.8365	
  -10.5214	-0.00133848	   -10.517	-0.00133025	  -10.5177	-0.00132398	  -10.5187	-0.0013309	  -10.5187	  -33.2725	
  -10.5582	-0.00135589	  -10.5536	-0.00134755	  -10.5544	-0.00134108	  -10.5554	-0.00134818	  -10.5554	  -33.7044	
  -10.5946	-0.00137322	  -10.5899	-0.00136473	  -10.5907	-0.0013582	  -10.5917	-0.00136538	  -10.5917	  -34.1346	
  -10.6305	-0.00139046	  -10.6256	-0.00138182	  -10.6264	-0.00137518	  -10.6275	-0.00138249	  -10.6275	  -34.5622	
  -10.6659	-0.00140753	  -10.6609	-0.00139877	  -10.6617	-0.00139194	  -10.6628	-0.00139941	  -10.6628	  -34.9853	
  -10.7005	-0.0014245	  -10.6957	-0.00141555	  -10.6966	-0.00140864	  -10.6976	-0.00141623	  -10.6976	  -35.4058	
  -10.7347	-0.00144135	  -10.7301	-0.00143223	  -10.7309	-0.0014253	  -10.7319	-0.00143296	  -10.7319	   -35.824	
  -10.7686	-0.00145804	  -10.7641	-0.00144878	  -10.7649	-0.00144173	  -10.7659	-0.00144952	  -10.7659	  -36.2379	
  -10.8021	-0.00147463	  -10.7979	-0.00146515	  -10.7987	-0.00145807	  -10.7996	-0.00146595	  -10.7996	  -36.6487	
  -10.8354	-0.0014911	  -10.8314	-0.0014814	  -10.8321	-0.00147436	   -10.833	-0.00148229	   -10.833	  -37.0572	
  -10.8681	-0.00150744	  -10.8644	-0.00149752	  -10.8651	-0.00149044	  -10.8659	-0.00149847	  -10.8659	  -37.4617	
  -10.9004	-0.00152365	   -10.897	-0.00151346	  -10.8976	-0.00150639	  -10.8983	-0.0015145	  -10.8983	  -37.8625	
  -10.9321	-0.00153974	   -10.929	-0.00152929	  -10.9295	-0.00152229	  -10.9302	-0.00153044	  -10.9302	  -38.2609	
  -10.9631	-0.00155568	  -10.9604	-0.00154502	  -10.9608	-0.00153802	  -10.9615	-0.00154624	  -10.9615	   -38.656	
  -10.9938	-0.0015715	  -10.9913	-0.00156055	  -10.9915	-0.00155357	  -10.9922	-0.00156188	  -10.9922	  -39.0469	
  -11.0241	-0.00158719	  -11.0218	-0.00157598	  -11.0217	-0.00156908	  -11.0225	-0.00157742	  -11.0225	  -39.4354	
  -11.0541	-0.00160275	  -11.0519	-0.00159134	  -11.0516	-0.00158445	  -11.0525	-0.00159285	  -11.0525	  -39.8212	
  -11.0838	-0.00161818	  -11.0817	-0.00160651	  -11.0812	-0.00159963	  -11.0822	-0.00160811	  -11.0822	  -40.2027	
  -11.1131	-0.00163347	  -11.1111	-0.00162159	  -11.1105	-0.00161476	  -11.1116	-0.00162327	  -11.1116	  -40.5818	
   -11.142	-0.00164863	  -11.1401	-0.00163658	  -11.1393	-0.00162976	  -11.1405	-0.00163832	  -11.1405	  -40.9581	
  -11.1704	-0.00166366	  -11.1686	-0.0016514	  -11.1678	-0.00164457	  -11.1689	-0.00165321	  -11.1689	  -41.3303	
  -11.1983	-0.00167854	  -11.1966	-0.00166612	  -11.1957	-0.00165931	  -11.1968	-0.00166799	  -11.1968	  -41.6998	
  -11.2256	-0.0016933	  -11.2239	-0.00168076	   -11.223	-0.00167394	  -11.2242	-0.00168267	  -11.2242	  -42.0666	
  -11.2523	-0.0017079	   -11.251	-0.00169522	  -11.2498	-0.00168838	   -11.251	-0.00169717	   -11.251	  -42.4291	
  -11.2785	-0.00172235	  -11.2775	-0.00170959	  -11.2759	-0.00170271	  -11.2773	-0.00171155	  -11.2773	  -42.7888	
  -11.3042	-0.00173666	  -11.3034	-0.00172386	  -11.3015	-0.00171694	   -11.303	-0.00172582	   -11.303	  -43.1455	
  -11.3297	-0.00175081	  -11.3289	-0.0017379	  -11.3267	-0.00173098	  -11.3284	-0.0017399	  -11.3284	  -43.4975	
  -11.3548	-0.00176485	  -11.3538	-0.00175188	  -11.3516	-0.0017449	  -11.3534	-0.00175388	  -11.3534	   -43.847	
  -11.3796	-0.00177871	  -11.3784	-0.00176579	  -11.3764	-0.00175871	  -11.3781	-0.00176774	  -11.3781	  -44.1934	
  -11.4041	-0.00179242	  -11.4028	-0.00177943	  -11.4008	-0.00177234	  -11.4026	-0.0017814	  -11.4026	   -44.535	
  -11.4282	-0.00180605	  -11.4265	-0.00179298	  -11.4249	-0.00178584	  -11.4265	-0.00179496	  -11.4265	  -44.8739	
  -11.4519	-0.0018195	  -11.4497	-0.00180648	  -11.4485	-0.00179924	    -11.45	-0.00180841	    -11.45	  -45.2102	
  -11.4751	-0.00183277	  -11.4726	-0.00181973	  -11.4718	-0.00181247	  -11.4732	-0.00182166	  -11.4732	  -45.5414	
  -11.4977	-0.00184597	  -11.4951	-0.00183285	  -11.4945	-0.00182555	  -11.4958	-0.00183479	  -11.4958	  -45.8697	
  -11.5199	-0.00185903	   -11.517	-0.0018459	  -11.5167	-0.00183854	  -11.5178	-0.00184782	  -11.5178	  -46.1956	
  -11.5414	-0.00187189	  -11.5384	-0.00185874	  -11.5383	-0.00185133	  -11.5394	-0.00186065	  -11.5394	  -46.5163	
  -11.5624	-0.00188465	  -11.5593	-0.00187141	  -11.5594	-0.00186397	  -11.5604	-0.00187334	  -11.5604	  -46.8336	
  -11.5829	-0.0018973	  -11.5798	-0.00188401	  -11.5798	-0.00187658	  -11.5808	-0.00188597	  -11.5808	  -47.1492	
  -11.6029	-0.00190976	  -11.5996	-0.00189642	  -11.5997	-0.00188902	  -11.6007	-0.0018984	  -11.6007	  -47.4599	
  -11.6223	-0.00192208	  -11.6189	-0.00190864	  -11.6191	-0.00190129	  -11.6201	-0.00191067	  -11.6201	  -47.7668	
  -11.6412	-0.0019343	  -11.6377	-0.00192079	  -11.6379	-0.00191353	  -11.6389	-0.00192288	  -11.6389	  -48.0719	
  -11.6596	-0.00194634	  -11.6561	-0.00193277	  -11.6563	-0.00192563	  -11.6573	-0.00193491	  -11.6573	  -48.3728	
  -11.6775	-0.00195824	  -11.6741	-0.00194455	  -11.6743	-0.00193757	  -11.6753	-0.00194679	  -11.6753	  -48.6697	
  -11.6952	-0.00197003	  -11.6917	-0.00195627	  -11.6919	-0.00194945	  -11.6929	-0.00195858	  -11.6929	  -48.9646	
  -11.7125	-0.00198166	   -11.709	-0.00196784	   -11.709	-0.00196122	  -11.7102	-0.00197024	  -11.7102	   -49.256	
  -11.7294	-0.00199314	  -11.7259	-0.00197921	  -11.7258	-0.00197286	   -11.727	-0.00198174	   -11.727	  -49.5435	
  -11.7461	-0.00200449	  -11.7425	-0.00199053	  -11.7423	-0.00198442	  -11.7436	-0.00199314	  -11.7436	  -49.8286	
  -11.7625	-0.00201569	  -11.7586	-0.00200175	  -11.7584	-0.00199584	  -11.7599	-0.00200443	  -11.7599	  -50.1107	
  -11.7786	-0.00202677	  -11.7744	-0.00201275	  -11.7742	-0.00200715	  -11.7757	-0.00201556	  -11.7757	  -50.3889	
  -11.7943	-0.0020377	  -11.7899	-0.00202367	  -11.7895	-0.00201839	  -11.7912	-0.00202659	  -11.7912	  -50.6647	
  -11.8095	-0.00204845	  -11.8051	-0.00203453	  -11.8044	-0.00202951	  -11.8063	-0.0020375	  -11.8063	  -50.9375	
  -11.8244	-0.0020591	  -11.8198	-0.00204516	  -11.8188	-0.00204049	   -11.821	-0.00204825	   -11.821	  -51.2062	
  -11.8388	-0.00206958	  -11.8342	-0.00205572	  -11.8325	-0.00205136	  -11.8352	-0.00205889	  -11.8352	  -51.4722	
  -11.8528	-0.00207991	  -11.8482	-0.0020662	  -11.8459	-0.00206214	   -11.849	-0.00206942	   -11.849	  -51.7355	
  -11.8664	-0.00209013	  -11.8618	-0.00207649	  -11.8588	-0.00207275	  -11.8623	-0.00207979	  -11.8623	  -51.9948	
  -11.8796	-0.00210021	  -11.8749	-0.00208669	  -11.8712	-0.00208324	  -11.8752	-0.00209005	  -11.8752	  -52.2512	
  -11.8923	-0.00211015	  -11.8876	-0.0020968	  -11.8831	-0.00209364	  -11.8876	-0.0021002	  -11.8876	  -52.5049	
  -11.9044	-0.00211998	  -11.8998	-0.00210674	  -11.8947	-0.00210384	  -11.8997	-0.00211019	  -11.8997	  -52.7547	
  -11.9162	-0.00212967	  -11.9116	-0.00211656	   -11.906	-0.00211391	  -11.9112	-0.00212005	  -11.9112	  -53.0012	
  -11.9275	-0.00213924	  -11.9229	-0.00212631	  -11.9168	-0.00212387	  -11.9224	-0.00212981	  -11.9224	  -53.2451	
  -11.9383	-0.00214869	  -11.9338	-0.0021359	  -11.9273	-0.00213365	  -11.9331	-0.00213941	  -11.9331	  -53.4853	
  -11.9487	 -0.002158	  -11.9443	-0.00214536	  -11.9375	-0.00214327	  -11.9435	-0.00214888	  -11.9435	  -53.7219	
  -11.9586	-0.00216719	  -11.9543	-0.00215473	  -11.9472	-0.0021528	  -11.9534	-0.00215824	  -11.9534	  -53.9559	
   -11.968	-0.00217626	  -11.9637	-0.00216394	  -11.9566	-0.00216214	  -11.9628	-0.00216745	  -11.9628	  -54.1862	
   -11.977	-0.0021852	  -11.9728	 -0.002173	  -11.9655	-0.00217132	  -11.9718	-0.00217651	  -11.9718	  -54.4127	
  -11.9856	-0.00219403	  -11.9814	-0.00218194	  -11.9741	-0.00218035	  -11.9803	-0.00218544	  -11.9803	   -54.636	
  -11.9936	-0.00220274	  -11.9889	-0.00219083	  -11.9815	-0.00218931	   -11.988	-0.00219429	   -11.988	  -54.8573	
  -12.0013	-0.00221133	  -11.9961	-0.00219956	  -11.9886	-0.00219816	  -11.9953	-0.00220302	  -11.9953	  -55.0755	
  -12.0084	-0.00221982	  -12.0028	-0.00220808	  -11.9956	-0.00220681	  -12.0023	-0.00221157	  -12.0023	  -55.2892	
  -12.0151	-0.00222819	  -12.0092	-0.00221652	   -12.002	-0.00221535	  -12.0088	-0.00222002	  -12.0088	  -55.5005	
  -12.0213	-0.00223644	  -12.0148	-0.0022249	  -12.0078	-0.00222385	  -12.0147	-0.0022284	  -12.0147	  -55.7099	
   -12.027	-0.00224458	  -12.0198	-0.0022331	   -12.013	-0.00223219	  -12.0199	-0.00223662	  -12.0199	  -55.9155	
  -12.0321	-0.00225261	  -12.0242	-0.00224118	  -12.0175	-0.00224041	  -12.0246	-0.00224473	  -12.0246	  -56.1183	
  -12.0369	-0.0022605	  -12.0281	-0.00224921	  -12.0215	-0.00224859	  -12.0288	-0.00225277	  -12.0288	  -56.3191	
   -12.041	-0.00226827	  -12.0315	-0.00225711	  -12.0249	-0.00225659	  -12.0325	-0.00226066	  -12.0325	  -56.5164	
  -12.0444	-0.00227591	  -12.0341	-0.00226486	  -12.0277	-0.00226447	  -12.0354	-0.00226841	  -12.0354	  -56.7103	
   -12.047	-0.00228346	  -12.0363	-0.00227257	  -12.0301	-0.00227234	  -12.0378	-0.00227612	  -12.0378	   -56.903	
  -12.0489	-0.00229094	  -12.0379	-0.00228018	   -12.032	-0.00228003	  -12.0396	-0.00228372	  -12.0396	  -57.0929	
  -12.0506	-0.00229819	   -12.039	-0.00228762	  -12.0333	-0.00228755	   -12.041	-0.00229112	   -12.041	   -57.278	
  -12.0519	-0.00230533	  -12.0396	-0.00229499	  -12.0339	-0.00229502	  -12.0418	-0.00229845	  -12.0418	  -57.4612	
  -12.0525	-0.00231248	  -12.0395	-0.00230229	   -12.034	-0.00230234	   -12.042	-0.0023057	   -12.042	  -57.6425	
  -12.0524	-0.00231943	   -12.039	-0.00230942	  -12.0335	-0.00230946	  -12.0416	-0.00231277	  -12.0416	  -57.8193	
  -12.0517	-0.00232621	   -12.038	-0.00231648	  -12.0325	-0.00231651	  -12.0408	-0.00231973	  -12.0408	  -57.9934	
  -12.0505	-0.00233302	  -12.0365	-0.00232343	  -12.0311	-0.00232343	  -12.0394	-0.00232663	  -12.0394	  -58.1657	
  -12.0488	-0.00233964	  -12.0346	-0.00233024	  -12.0293	-0.00233012	  -12.0376	-0.00233334	  -12.0376	  -58.3334	
  -12.0466	-0.00234611	  -12.0323	-0.00233699	  -12.0272	-0.00233674	  -12.0354	-0.00233995	  -12.0354	  -58.4987	
   -12.044	-0.00235265	  -12.0296	-0.0023436	  -12.0247	-0.00234325	  -12.0328	-0.0023465	  -12.0328	  -58.6625	
  -12.0409	-0.00235905	  -12.0266	-0.00235006	  -12.0218	-0.00234955	  -12.0298	-0.00235289	  -12.0298	  -58.8222	
  -12.0375	-0.00236526	  -12.0232	-0.00235649	  -12.0186	-0.00235574	  -12.0264	-0.00235916	  -12.0264	  -58.9791	
  -12.0337	-0.00237153	  -12.0195	-0.00236277	  -12.0149	-0.00236188	  -12.0227	-0.0023654	  -12.0227	  -59.1349	
  -12.0293	-0.00237771	  -12.0153	-0.00236889	  -12.0107	-0.00236783	  -12.0184	-0.00237148	  -12.0184	  -59.2869	
  -12.0245	-0.0023837	  -12.0104	-0.00237496	  -12.0058	-0.00237366	  -12.0136	-0.00237744	  -12.0136	   -59.436	
   -12.019	-0.0023897	   -12.005	-0.00238091	  -12.0004	-0.00237944	  -12.0081	-0.00238335	  -12.0081	  -59.5838	
  -12.0129	-0.00239563	  -11.9989	-0.00238668	  -11.9945	-0.00238506	  -12.0021	-0.00238913	  -12.0021	  -59.7281	
  -12.0062	-0.00240135	  -11.9922	-0.00239239	  -11.9879	-0.00239056	  -11.9954	-0.00239477	  -11.9954	  -59.8692	
  -11.9989	-0.00240705	   -11.985	-0.00239801	  -11.9809	-0.00239599	  -11.9883	-0.00240035	  -11.9883	  -60.0087	
  -11.9912	-0.00241267	  -11.9774	-0.00240349	  -11.9735	-0.00240134	  -11.9807	-0.00240583	  -11.9807	  -60.1459	
   -11.983	-0.00241809	  -11.9695	-0.00240888	  -11.9657	-0.00240658	  -11.9727	-0.00241118	  -11.9727	  -60.2796	
  -11.9745	-0.00242345	  -11.9612	-0.00241417	  -11.9577	-0.00241172	  -11.9644	-0.00241645	  -11.9644	  -60.4112	
  -11.9656	-0.0024287	  -11.9526	-0.00241937	  -11.9492	-0.00241677	  -11.9558	-0.00242161	  -11.9558	  -60.5403	
  -11.9563	-0.00243378	  -11.9437	-0.00242445	  -11.9403	-0.00242169	  -11.9468	-0.00242664	  -11.9468	  -60.6661	
  -11.9464	-0.00243882	  -11.9343	-0.00242945	  -11.9308	-0.00242658	  -11.9372	-0.00243161	  -11.9372	  -60.7903	
  -11.9359	-0.0024437	  -11.9243	-0.00243436	  -11.9208	-0.00243139	   -11.927	-0.00243648	   -11.927	  -60.9121	
  -11.9247	-0.00244838	  -11.9136	-0.00243919	  -11.9101	-0.00243605	  -11.9162	-0.00244121	  -11.9162	  -61.0301	
   -11.913	-0.00245301	  -11.9024	-0.00244392	   -11.899	-0.00244065	  -11.9048	-0.00244586	  -11.9048	  -61.1464	
  -11.9009	-0.00245752	  -11.8908	-0.00244858	  -11.8874	-0.00244521	   -11.893	-0.00245044	   -11.893	  -61.2609	
  -11.8883	-0.00246184	  -11.8787	-0.00245315	  -11.8754	-0.00244962	  -11.8808	-0.00245487	  -11.8808	  -61.3718	
  -11.8754	-0.00246609	  -11.8664	-0.00245762	  -11.8631	-0.00245395	  -11.8683	-0.00245922	  -11.8683	  -61.4805	
  -11.8622	-0.00247026	  -11.8536	-0.00246199	  -11.8504	-0.00245821	  -11.8554	-0.00246349	  -11.8554	  -61.5871	
  -11.8486	-0.00247427	  -11.8404	-0.0024663	   -11.837	-0.00246239	   -11.842	-0.00246765	   -11.842	  -61.6913	
  -11.8346	-0.0024782	  -11.8266	-0.00247053	  -11.8231	-0.00246652	  -11.8281	-0.00247175	  -11.8281	  -61.7938	
  -11.8199	-0.00248208	  -11.8122	-0.00247464	  -11.8087	-0.0024705	  -11.8136	-0.00247574	  -11.8136	  -61.8935	
  -11.8047	-0.00248584	  -11.7973	-0.00247864	  -11.7937	-0.00247436	  -11.7986	-0.00247961	  -11.7986	  -61.9903	
  -11.7891	-0.00248951	  -11.7819	-0.0024826	  -11.7783	-0.00247821	  -11.7831	-0.00248344	  -11.7831	   -62.086	
  -11.7731	-0.00249315	  -11.7662	-0.00248644	  -11.7626	-0.00248193	  -11.7673	-0.00248718	  -11.7673	  -62.1794	
  -11.7567	-0.00249668	  -11.7501	-0.00249021	  -11.7465	-0.00248553	  -11.7511	-0.00249081	  -11.7511	  -62.2701	
    -11.74	-0.00250011	   -11.734	-0.00249384	  -11.7301	-0.00248909	  -11.7347	-0.00249435	  -11.7347	  -62.3587	
  -11.7228	-0.0025035	  -11.7173	-0.00249738	  -11.7135	-0.00249252	  -11.7178	-0.0024978	  -11.7178	   -62.445	
   -11.705	-0.0025068	  -11.6999	-0.00250086	  -11.6962	-0.00249586	  -11.7004	-0.00250117	  -11.7004	  -62.5293	
  -11.6866	-0.00250998	  -11.6823	-0.00250419	  -11.6785	-0.00249918	  -11.6825	-0.00250445	  -11.6825	  -62.6113	
  -11.6678	-0.00251311	   -11.664	-0.00250745	    -11.66	-0.00250236	  -11.6639	-0.00250764	  -11.6639	   -62.691	
  -11.6486	-0.00251615	  -11.6449	-0.00251063	  -11.6413	-0.00250543	   -11.645	-0.00251074	   -11.645	  -62.7684	
  -11.6292	-0.00251907	  -11.6256	-0.00251366	  -11.6222	-0.00250847	  -11.6257	-0.00251373	  -11.6257	  -62.8432	
  -11.6093	-0.00252192	  -11.6061	-0.00251664	  -11.6021	-0.00251141	  -11.6058	-0.00251665	  -11.6058	  -62.9164	
  -11.5889	-0.00252469	  -11.5858	-0.00251954	  -11.5818	-0.00251424	  -11.5855	-0.00251949	  -11.5855	  -62.9873	
  -11.5679	-0.00252735	   -11.565	-0.00252227	  -11.5613	-0.00251701	  -11.5648	-0.00252221	  -11.5648	  -63.0552	
  -11.5465	-0.00252993	   -11.544	-0.00252495	  -11.5403	-0.0025197	  -11.5436	-0.00252486	  -11.5436	  -63.1215	
  -11.5248	-0.0025324	  -11.5225	-0.00252761	  -11.5188	-0.0025223	   -11.522	-0.00252744	   -11.522	  -63.1859	
  -11.5025	-0.00253481	  -11.5005	-0.0025301	  -11.4969	-0.00252481	     -11.5	-0.0025299	     -11.5	  -63.2476	
  -11.4797	-0.00253715	   -11.478	-0.0025325	  -11.4745	-0.00252726	  -11.4774	-0.00253231	  -11.4774	  -63.3076	
  -11.4564	-0.00253937	  -11.4553	-0.00253491	  -11.4516	-0.00252963	  -11.4544	-0.00253464	  -11.4544	   -63.366	
  -11.4328	-0.00254155	   -11.432	-0.00253719	  -11.4282	-0.0025319	   -11.431	-0.00253688	   -11.431	   -63.422	
  -11.4087	-0.00254364	  -11.4082	-0.00253937	  -11.4044	-0.00253412	  -11.4071	-0.00253904	  -11.4071	   -63.476	
  -11.3841	-0.0025456	  -11.3841	-0.00254154	  -11.3802	-0.00253626	  -11.3828	-0.00254114	  -11.3828	  -63.5284	
  -11.3591	-0.00254752	  -11.3597	-0.00254362	  -11.3556	-0.00253832	  -11.3581	-0.00254315	  -11.3581	  -63.5788	
  -11.3337	-0.00254932	  -11.3346	-0.00254565	  -11.3304	-0.00254032	  -11.3329	-0.0025451	  -11.3329	  -63.6274	
  -11.3079	-0.00255101	   -11.309	-0.00254764	  -11.3046	-0.00254224	  -11.3072	-0.00254696	  -11.3072	  -63.6741	
  -11.2818	-0.00255267	  -11.2829	-0.00254951	  -11.2785	-0.00254409	  -11.2811	-0.00254876	  -11.2811	  -63.7189	
  -11.2553	-0.0025542	  -11.2565	-0.00255134	  -11.2519	-0.00254588	  -11.2546	-0.00255048	  -11.2546	  -63.7619	
  -11.2285	-0.00255563	  -11.2298	-0.00255315	  -11.2249	-0.00254762	  -11.2277	-0.00255213	  -11.2277	  -63.8034	
  -11.2013	-0.00255703	  -11.2025	-0.00255487	  -11.1973	-0.00254926	  -11.2004	-0.00255372	  -11.2004	   -63.843	
  -11.1736	-0.00255831	  -11.1748	-0.00255652	  -11.1691	-0.00255084	  -11.1725	-0.00255523	  -11.1725	  -63.8806	
  -11.1454	-0.00255949	  -11.1466	-0.00255816	  -11.1405	-0.00255237	  -11.1441	-0.00255667	  -11.1441	  -63.9168	
  -11.1168	-0.00256061	  -11.1179	-0.00255969	  -11.1116	-0.00255382	  -11.1154	-0.00255804	  -11.1154	  -63.9511	
   -11.088	-0.00256171	  -11.0888	-0.00256115	  -11.0823	-0.00255521	  -11.0864	-0.00255935	  -11.0864	  -63.9839	
  -11.0587	-0.0025627	  -11.0592	-0.0025626	  -11.0525	-0.00255655	  -11.0568	-0.00256062	  -11.0568	  -64.0154	
  -11.0288	-0.00256361	  -11.0291	-0.00256391	  -11.0222	-0.00255782	  -11.0267	-0.00256178	  -11.0267	  -64.0445	
  -10.9986	-0.00256448	  -10.9986	-0.00256514	  -10.9914	-0.00255901	  -10.9962	-0.00256288	  -10.9962	   -64.072	
   -10.968	-0.00256522	  -10.9678	-0.00256639	  -10.9605	-0.00256019	  -10.9654	-0.00256393	  -10.9654	  -64.0983	
   -10.937	-0.00256592	  -10.9365	-0.00256752	   -10.929	-0.00256121	  -10.9342	-0.00256488	  -10.9342	   -64.122	
  -10.9056	-0.00256664	  -10.9048	-0.00256856	  -10.8971	-0.00256217	  -10.9025	-0.00256579	  -10.9025	  -64.1447	
  -10.8736	-0.00256722	  -10.8725	-0.00256961	  -10.8647	-0.00256321	  -10.8703	-0.00256668	  -10.8703	   -64.167	
  -10.8412	-0.00256771	  -10.8398	-0.00257056	   -10.832	-0.00256411	  -10.8377	-0.00256746	  -10.8377	  -64.1865	
  -10.8086	-0.00256828	  -10.8068	-0.00257141	  -10.7991	-0.00256487	  -10.8048	-0.00256819	  -10.8048	  -64.2047	
  -10.7753	-0.00256877	  -10.7733	-0.00257226	  -10.7657	-0.00256573	  -10.7715	-0.00256892	  -10.7715	   -64.223	
  -10.7416	-0.00256913	  -10.7392	-0.00257303	  -10.7318	-0.0025665	  -10.7375	-0.00256955	  -10.7375	  -64.2388	
  -10.7074	-0.00256958	  -10.7047	-0.0025737	  -10.6975	-0.00256713	  -10.7032	-0.00257014	  -10.7032	  -64.2534	
  -10.6729	-0.00257008	    -10.67	-0.00257437	  -10.6629	-0.0025678	  -10.6686	-0.00257075	  -10.6686	  -64.2687	
   -10.638	-0.00257044	   -10.635	-0.00257496	  -10.6279	-0.00256841	  -10.6336	-0.00257127	  -10.6336	  -64.2818	
  -10.6026	-0.00257079	  -10.5993	-0.00257547	  -10.5924	-0.00256888	  -10.5981	-0.00257171	  -10.5981	  -64.2928	
  -10.5667	-0.00257119	  -10.5633	-0.00257594	  -10.5564	-0.00256933	  -10.5621	-0.00257215	  -10.5621	  -64.3038	
  -10.5304	-0.00257149	   -10.527	-0.00257637	  -10.5201	-0.00256976	  -10.5258	-0.00257254	  -10.5258	  -64.3135	
   -10.494	-0.00257173	  -10.4904	-0.0025767	  -10.4835	-0.00257007	  -10.4893	-0.00257283	  -10.4893	  -64.3208	
  -10.4569	-0.00257202	  -10.4532	-0.00257697	  -10.4463	-0.00257031	  -10.4521	-0.0025731	  -10.4521	  -64.3275	
  -10.4194	-0.00257223	  -10.4155	-0.00257725	  -10.4087	-0.00257056	  -10.4145	-0.00257334	  -10.4145	  -64.3336	
  -10.3815	-0.00257234	  -10.3776	-0.0025774	  -10.3708	-0.0025707	  -10.3767	-0.00257348	  -10.3767	   -64.337	
  -10.3434	-0.00257246	  -10.3394	-0.00257744	  -10.3325	-0.00257077	  -10.3384	-0.00257356	  -10.3384	   -64.339	
  -10.3047	-0.00257253	  -10.3006	-0.00257751	  -10.2936	-0.00257089	  -10.2996	-0.00257364	  -10.2996	  -64.3411	
  -10.2655	-0.00257249	  -10.2614	-0.00257751	  -10.2543	-0.00257088	  -10.2604	-0.00257363	  -10.2604	  -64.3407	
   -10.226	-0.00257242	  -10.2218	-0.00257739	  -10.2148	-0.00257074	  -10.2209	-0.00257352	  -10.2209	  -64.3379	
  -10.1861	-0.00257229	   -10.182	-0.00257726	  -10.1748	-0.00257064	  -10.1809	-0.0025734	  -10.1809	  -64.3349	
  -10.1456	-0.00257203	  -10.1415	-0.00257708	  -10.1343	-0.00257046	  -10.1405	-0.00257319	  -10.1405	  -64.3297	
  -10.1048	-0.00257173	  -10.1008	-0.00257678	  -10.0934	-0.00257012	  -10.0997	-0.00257287	  -10.0997	  -64.3218	
  -10.0637	-0.00257137	  -10.0598	-0.00257646	  -10.0523	-0.00256977	  -10.0586	-0.00257253	  -10.0586	  -64.3133	
  -10.0222	-0.0025709	  -10.0184	-0.0025761	  -10.0106	-0.00256938	  -10.0171	-0.00257213	  -10.0171	  -64.3032	
  -9.98022	-0.00257037	  -9.97641	-0.00257561	  -9.96842	-0.00256887	  -9.97502	-0.00257162	  -9.97502	  -64.2905	
  -9.93784	-0.00256981	  -9.93409	-0.00257511	  -9.92594	-0.00256831	  -9.93262	-0.00257108	  -9.93262	  -64.2769	
  -9.89521	-0.00256914	  -9.89145	-0.00257457	  -9.88319	-0.00256774	  -9.88995	-0.00257048	  -9.88995	  -64.2621	
  -9.85204	-0.00256841	   -9.8482	-0.00257392	  -9.83988	-0.00256705	  -9.84671	-0.00256979	  -9.84671	  -64.2448	
  -9.80839	-0.00256765	  -9.80449	-0.00257325	  -9.79616	-0.00256632	  -9.80301	-0.00256907	  -9.80301	  -64.2268	
  -9.76445	-0.0025668	  -9.76052	-0.00257254	  -9.75221	-0.00256558	  -9.75906	-0.00256831	  -9.75906	  -64.2077	
  -9.72008	-0.00256588	  -9.71616	-0.00257173	  -9.70781	-0.00256474	  -9.71468	-0.00256745	  -9.71468	  -64.1863	
  -9.67524	-0.00256494	  -9.67134	-0.00257091	   -9.6629	-0.00256384	  -9.66983	-0.00256656	  -9.66983	  -64.1641	
  -9.63002	-0.00256393	  -9.62617	-0.00257002	  -9.61767	-0.00256296	  -9.62462	-0.00256563	  -9.62462	  -64.1409	
  -9.58455	-0.00256284	  -9.58067	-0.00256903	  -9.57226	-0.00256197	  -9.57916	-0.00256461	  -9.57916	  -64.1154	
  -9.53851	-0.00256175	  -9.53452	-0.00256802	  -9.52629	-0.00256093	  -9.53311	-0.00256356	  -9.53311	  -64.0891	
  -9.49201	-0.0025606	  -9.48794	-0.00256692	  -9.47992	-0.00255989	  -9.48662	-0.00256247	  -9.48662	  -64.0618	
  -9.44519	-0.00255937	  -9.44092	-0.00256574	  -9.43334	-0.00255877	  -9.43982	-0.00256129	  -9.43982	  -64.0323	
    -9.398	-0.00255812	  -9.39351	-0.00256451	  -9.38628	-0.00255757	   -9.3926	-0.00256007	   -9.3926	  -64.0017	
  -9.34986	-0.00255687	  -9.34587	-0.0025632	  -9.33874	-0.00255638	  -9.34482	-0.00255882	  -9.34482	  -63.9705	
  -9.30127	-0.00255557	  -9.29776	-0.0025618	  -9.29093	-0.00255511	  -9.29665	-0.00255749	  -9.29665	  -63.9373	
  -9.25301	-0.00255418	   -9.2492	-0.00256035	  -9.24288	-0.00255375	  -9.24836	-0.00255609	  -9.24836	  -63.9024	
  -9.20436	-0.00255279	  -9.20035	-0.00255882	  -9.19428	-0.00255238	  -9.19966	-0.00255466	  -9.19966	  -63.8665	
  -9.15504	-0.0025514	  -9.15115	-0.00255718	  -9.14534	-0.00255094	  -9.15051	-0.00255317	  -9.15051	  -63.8293	
  -9.10535	-0.00254995	  -9.10171	-0.0025555	  -9.09616	-0.0025494	  -9.10107	-0.00255161	  -9.10107	  -63.7904	
  -9.05545	-0.00254846	  -9.05175	-0.00255373	  -9.04642	-0.00254783	  -9.05121	-0.00255001	  -9.05121	  -63.7502	
  -9.00519	-0.00254695	  -9.00134	-0.0025519	  -8.99631	-0.00254621	  -9.00095	-0.00254836	  -9.00095	  -63.7089	
   -8.9546	-0.00254541	  -8.95071	-0.00255007	  -8.94586	-0.00254449	  -8.95039	-0.00254666	  -8.95039	  -63.6664	
   -8.9037	-0.00254383	  -8.89989	-0.00254813	  -8.89494	-0.00254274	  -8.89951	-0.0025449	  -8.89951	  -63.6225	
  -8.85244	-0.00254222	  -8.84868	-0.00254608	  -8.84361	-0.00254098	  -8.84825	-0.00254309	  -8.84825	  -63.5773	
  -8.80093	-0.00254055	  -8.79724	-0.00254405	  -8.79209	-0.00253908	  -8.79675	-0.00254123	  -8.79675	  -63.5307	
  -8.74915	-0.00253884	  -8.74543	-0.00254199	  -8.74029	-0.00253708	  -8.74496	-0.0025393	  -8.74496	  -63.4826	
  -8.69691	-0.00253705	  -8.69315	-0.00253982	  -8.68805	-0.00253517	   -8.6927	-0.00253735	   -8.6927	  -63.4337	
  -8.64439	-0.00253526	  -8.64061	-0.00253762	  -8.63552	-0.00253318	  -8.64017	-0.00253536	  -8.64017	  -63.3839	
  -8.59162	-0.00253344	  -8.58769	-0.00253542	  -8.58258	-0.00253103	  -8.58729	-0.0025333	  -8.58729	  -63.3324	
  -8.53842	-0.00253148	  -8.53427	-0.00253312	  -8.52928	-0.00252894	  -8.53399	-0.00253118	  -8.53399	  -63.2795	
  -8.48491	-0.00252956	  -8.48059	-0.00253079	  -8.47573	-0.00252673	  -8.48041	-0.00252903	  -8.48041	  -63.2257	
  -8.43114	-0.00252768	  -8.42676	-0.00252847	  -8.42182	-0.00252442	  -8.42657	-0.00252686	  -8.42657	  -63.1715	
  -8.37688	-0.00252563	  -8.37245	-0.00252607	  -8.36723	-0.00252218	  -8.37219	-0.00252463	  -8.37219	  -63.1156	
   -8.3223	-0.00252358	  -8.31787	-0.00252362	  -8.31251	-0.00251975	  -8.31756	-0.00252232	  -8.31756	  -63.0579	
  -8.26758	-0.00252158	  -8.26306	-0.00252122	  -8.25782	-0.00251716	  -8.26282	-0.00251999	  -8.26282	  -62.9997	
  -8.21231	-0.00251944	  -8.20779	-0.00251876	  -8.20259	-0.00251467	  -8.20756	-0.00251763	  -8.20756	  -62.9406	
  -8.15673	-0.0025173	  -8.15224	-0.00251615	  -8.14685	-0.00251206	  -8.15194	-0.00251517	  -8.15194	  -62.8792	
  -8.10096	-0.00251519	  -8.09652	-0.00251361	  -8.09082	-0.00250916	   -8.0961	-0.00251265	   -8.0961	  -62.8163	
  -8.04476	-0.00251295	  -8.04044	-0.00251108	  -8.03454	-0.00250633	  -8.03991	-0.00251012	  -8.03991	   -62.753	
  -7.98825	-0.00251066	  -7.98408	-0.00250839	  -7.97802	-0.00250354	  -7.98345	-0.00250753	  -7.98345	  -62.6882	
  -7.93157	-0.00250838	  -7.92746	-0.00250566	  -7.92124	-0.00250047	  -7.92675	-0.00250483	  -7.92675	  -62.6209	
  -7.87451	 -0.002506	  -7.87038	-0.00250297	    -7.864	-0.00249738	  -7.86963	-0.00250212	  -7.86963	  -62.5529	
  -7.81717	-0.00250352	  -7.81304	-0.00250014	  -7.80654	-0.00249441	  -7.81225	-0.00249935	  -7.81225	  -62.4839	
  -7.75956	-0.00250103	  -7.75541	-0.0024972	  -7.74889	-0.00249117	  -7.75462	-0.00249647	  -7.75462	  -62.4117	
  -7.70154	-0.00249845	   -7.6973	-0.00249437	  -7.69079	-0.00248788	  -7.69655	-0.00249357	  -7.69655	  -62.3392	
  -7.64327	-0.00249577	  -7.63897	-0.00249144	  -7.63251	-0.00248476	  -7.63825	-0.00249066	  -7.63825	  -62.2665	
  -7.58475	-0.00249306	  -7.58043	-0.00248834	  -7.57389	-0.00248141	  -7.57969	-0.00248761	  -7.57969	  -62.1901	
  -7.52582	-0.00249027	  -7.52146	-0.00248529	  -7.51488	-0.00247794	  -7.52072	-0.0024845	  -7.52072	  -62.1125	
  -7.46666	-0.00248737	  -7.46229	-0.00248221	   -7.4556	-0.00247463	  -7.46152	-0.0024814	  -7.46152	  -62.0351	
  -7.40725	-0.00248443	   -7.4029	-0.00247896	  -7.39608	-0.00247117	  -7.40208	-0.00247819	  -7.40208	  -61.9547	
  -7.34741	-0.00248142	   -7.3431	-0.0024757	  -7.33621	-0.00246752	  -7.34224	-0.00247488	  -7.34224	   -61.872	
  -7.28739	-0.00247832	  -7.28309	-0.00247239	  -7.27622	 -0.002464	  -7.28224	-0.00247157	  -7.28224	  -61.7893	
  -7.22705	-0.00247518	  -7.22285	-0.00246894	  -7.21593	-0.00246042	  -7.22194	-0.00246818	  -7.22194	  -61.7045	
  -7.16639	-0.00247197	  -7.16225	-0.00246545	  -7.15531	-0.00245662	  -7.16132	-0.00246468	  -7.16132	   -61.617	
  -7.10554	-0.00246866	  -7.10143	-0.00246191	  -7.09457	-0.00245288	  -7.10051	-0.00246115	  -7.10051	  -61.5288	
  -7.04428	-0.00246531	  -7.04022	-0.00245824	  -7.03335	-0.00244914	  -7.03928	-0.00245756	  -7.03928	  -61.4391	
  -6.98269	-0.00246189	  -6.97876	-0.00245451	  -6.97193	-0.00244519	  -6.97779	-0.00245386	  -6.97779	  -61.3465	
  -6.92103	-0.00245837	  -6.91719	-0.00245074	  -6.91038	-0.00244124	   -6.9162	-0.00245011	   -6.9162	  -61.2528	
  -6.85896	-0.00245478	  -6.85524	-0.00244684	  -6.84842	-0.00243732	  -6.85421	-0.00244631	  -6.85421	  -61.1578	
  -6.79664	-0.00245114	  -6.79304	-0.00244288	  -6.78625	-0.00243322	  -6.79197	-0.00244241	  -6.79197	  -61.0603	
  -6.73404	-0.00244742	  -6.73063	-0.00243889	  -6.72391	-0.00242909	  -6.72952	-0.00243847	  -6.72952	  -60.9617	
  -6.67116	-0.00244362	   -6.6678	-0.00243479	  -6.66117	-0.00242499	  -6.66671	-0.00243447	  -6.66671	  -60.8617	
  -6.60798	-0.00243976	  -6.60479	-0.00243062	  -6.59828	-0.00242074	  -6.60368	-0.00243037	  -6.60368	  -60.7594	
  -6.54449	-0.00243582	   -6.5416	-0.00242645	  -6.53513	-0.00241643	  -6.54041	-0.00242624	  -6.54041	  -60.6559	
  -6.48071	-0.00243181	  -6.47811	-0.00242215	  -6.47165	-0.00241216	  -6.47682	-0.00242204	  -6.47682	   -60.551	
  -6.41713	-0.00242769	  -6.41446	-0.00241777	  -6.40805	-0.00240777	  -6.41321	-0.00241774	  -6.41321	  -60.4435	
  -6.35304	-0.00242357	  -6.35053	-0.00241343	  -6.34414	-0.0024033	  -6.34924	-0.00241343	  -6.34924	  -60.3359	
  -6.28877	-0.00241934	  -6.28631	-0.00240902	  -6.27998	-0.00239887	  -6.28502	-0.00240908	  -6.28502	  -60.2269	
  -6.22425	-0.00241499	  -6.22186	-0.00240448	  -6.21557	-0.00239436	  -6.22056	-0.00240461	  -6.22056	  -60.1152	
  -6.15905	-0.0024107	  -6.15702	-0.00239996	  -6.15084	-0.00238977	  -6.15564	-0.00240014	  -6.15564	  -60.0036	
  -6.09391	-0.00240633	  -6.09199	-0.00239539	  -6.08594	-0.00238515	  -6.09061	-0.00239563	  -6.09061	  -59.8906	
  -6.02886	-0.00240182	  -6.02666	-0.00239072	  -6.02078	-0.00238048	  -6.02543	-0.00239101	  -6.02543	  -59.7752	
  -5.96322	-0.00239736	  -5.96098	-0.00238607	  -5.95528	-0.0023758	  -5.95983	-0.00238641	  -5.95983	  -59.6604	
  -5.89731	-0.00239285	  -5.89517	-0.00238138	  -5.88971	-0.00237108	  -5.89406	-0.00238177	  -5.89406	  -59.5443	
  -5.83123	-0.00238819	  -5.82915	-0.00237652	  -5.82385	-0.00236624	  -5.82808	-0.00237698	  -5.82808	  -59.4246	
  -5.76499	-0.00238351	  -5.76288	-0.0023717	  -5.75776	-0.00236139	  -5.76188	-0.0023722	  -5.76188	   -59.305	
  -5.69839	-0.00237883	  -5.69651	-0.00236687	  -5.69151	-0.00235652	  -5.69547	-0.0023674	  -5.69547	  -59.1851	
  -5.63162	-0.00237404	  -5.62976	-0.00236181	  -5.62491	-0.00235153	  -5.62876	-0.00236246	  -5.62876	  -59.0615	
  -5.56463	-0.00236913	  -5.56264	-0.00235675	  -5.55817	-0.00234653	  -5.56181	-0.00235747	  -5.56181	  -58.9367	
  -5.49737	-0.00236423	  -5.49507	-0.00235177	  -5.49139	-0.0023415	  -5.49461	-0.0023525	  -5.49461	  -58.8125	
   -5.4298	-0.00235926	  -5.42764	-0.00234653	   -5.4244	-0.00233632	  -5.42728	-0.00234737	  -5.42728	  -58.6843	
  -5.36201	-0.00235416	  -5.36039	-0.00234118	  -5.35702	-0.00233112	  -5.35981	-0.00234215	  -5.35981	  -58.5538	
  -5.29386	-0.00234902	  -5.29276	-0.00233595	  -5.28934	-0.00232588	  -5.29199	-0.00233695	  -5.29199	  -58.4238	
  -5.22553	-0.00234383	  -5.22492	-0.00233053	  -5.22163	-0.00232048	  -5.22403	-0.00233161	  -5.22403	  -58.2903	
  -5.15694	-0.00233849	  -5.15712	-0.00232492	  -5.15359	-0.00231502	  -5.15588	-0.00232614	  -5.15588	  -58.1535	
  -5.08803	-0.00233311	  -5.08894	-0.0023194	  -5.08511	-0.00230949	  -5.08736	-0.00232067	  -5.08736	  -58.0167	
  -5.01905	-0.00232768	   -5.0206	-0.00231376	  -5.01667	-0.00230386	  -5.01877	-0.0023151	  -5.01877	  -57.8775	
  -4.94988	-0.00232214	  -4.95202	-0.00230789	  -4.94796	-0.00229818	  -4.94996	-0.0023094	  -4.94996	   -57.735	
   -4.8805	-0.00231652	  -4.88318	-0.00230204	  -4.87899	-0.00229239	  -4.88089	-0.00230365	  -4.88089	  -57.5913	
  -4.81107	-0.00231083	  -4.81426	-0.00229618	   -4.8098	-0.00228648	  -4.81171	-0.00229783	  -4.81171	  -57.4457	
  -4.74129	-0.00230507	  -4.74498	-0.00229009	  -4.74059	-0.00228055	  -4.74229	-0.0022919	  -4.74229	  -57.2975	
  -4.67141	-0.00229926	  -4.67558	-0.00228397	  -4.67118	-0.0022745	  -4.67272	-0.00228591	  -4.67272	  -57.1477	
  -4.60138	-0.00229336	  -4.60597	-0.00227788	  -4.60147	-0.00226832	  -4.60294	-0.00227985	  -4.60294	  -56.9963	
  -4.53112	-0.0022874	   -4.5361	-0.00227157	  -4.53153	-0.00226214	  -4.53292	-0.0022737	  -4.53292	  -56.8425	
  -4.46079	-0.00228137	  -4.46607	-0.0022652	  -4.46152	-0.0022558	  -4.46279	-0.00226746	  -4.46279	  -56.6864	
  -4.39008	-0.00227523	  -4.39568	-0.0022589	  -4.39118	-0.00224935	  -4.39232	-0.00226116	  -4.39232	   -56.529	
  -4.31929	-0.00226907	  -4.32518	-0.00225241	  -4.32074	-0.00224288	  -4.32173	-0.00225479	  -4.32173	  -56.3697	
   -4.2484	-0.00226285	  -4.25449	-0.00224583	  -4.25014	-0.00223629	  -4.25101	-0.00224833	  -4.25101	  -56.2082	
  -4.17728	-0.0022565	  -4.18354	-0.00223934	  -4.17936	-0.00222959	  -4.18006	-0.00224181	  -4.18006	  -56.0452	
  -4.10613	-0.00225008	   -4.1125	-0.00223266	  -4.10854	-0.00222286	  -4.10906	-0.0022352	  -4.10906	  -55.8801	
  -4.03487	-0.00224363	  -4.04121	-0.00222589	  -4.03748	-0.00221604	  -4.03785	-0.00222852	  -4.03785	   -55.713	
  -3.96348	-0.00223705	  -3.96975	-0.00221918	   -3.9663	-0.0022091	  -3.96651	-0.00222178	  -3.96651	  -55.5444	
  -3.89199	-0.00223038	  -3.89822	-0.0022123	  -3.89496	-0.0022021	  -3.89506	-0.00221493	  -3.89506	  -55.3732	
   -3.8203	-0.00222368	  -3.82643	-0.00220529	  -3.82337	-0.00219505	  -3.82337	-0.00220801	  -3.82337	  -55.2002	
  -3.74856	-0.00221686	   -3.7546	-0.00219833	  -3.75174	-0.00218791	  -3.75163	-0.00220103	  -3.75163	  -55.0258	
  -3.67659	-0.00220993	  -3.68253	-0.00219123	  -3.67982	-0.00218066	  -3.67965	-0.00219394	  -3.67965	  -54.8485	
   -3.6045	-0.00220294	  -3.61035	-0.00218397	  -3.60779	-0.00217335	  -3.60755	-0.00218675	  -3.60755	  -54.6689	
  -3.53231	-0.00219585	   -3.5381	-0.00217674	  -3.53567	-0.00216598	  -3.53536	-0.00217953	  -3.53536	  -54.4881	
  -3.45986	-0.00218864	   -3.4656	-0.00216939	  -3.46329	-0.00215852	  -3.46292	-0.00217218	  -3.46292	  -54.3046	
  -3.38744	-0.00218135	  -3.39312	-0.0021618	  -3.39089	-0.00215096	  -3.39048	-0.0021647	  -3.39048	  -54.1176	
  -3.31499	-0.00217398	  -3.32046	-0.00215427	  -3.31827	-0.00214335	  -3.31791	-0.0021572	  -3.31791	    -53.93	
  -3.24241	-0.00216651	  -3.24769	-0.00214671	  -3.24555	-0.00213565	  -3.24522	-0.00214963	  -3.24522	  -53.7406	
  -3.16976	-0.0021589	  -3.17496	-0.00213886	  -3.17267	-0.00212787	  -3.17246	-0.00214188	  -3.17246	  -53.5469	
  -3.09685	-0.00215118	  -3.10202	-0.00213101	  -3.09956	-0.00212001	  -3.09948	-0.00213407	  -3.09948	  -53.3517	
  -3.02397	-0.00214345	  -3.02905	-0.00212318	   -3.0265	-0.00211209	  -3.02651	-0.00212624	  -3.02651	   -53.156	
  -2.95081	-0.0021356	  -2.95581	-0.00211509	  -2.95314	-0.00210408	  -2.95325	-0.00211826	  -2.95325	  -52.9564	
  -2.87754	-0.00212758	  -2.88246	-0.00210696	  -2.87971	-0.00209599	  -2.87991	-0.00211017	  -2.87991	  -52.7543	
  -2.80413	-0.00211949	  -2.80913	-0.00209886	  -2.80617	-0.00208782	  -2.80647	-0.00210206	  -2.80647	  -52.5514	
   -2.7306	-0.00211134	   -2.7356	-0.00209054	  -2.73242	-0.00207957	  -2.73287	-0.00209382	  -2.73287	  -52.3455	
  -2.65711	-0.00210304	  -2.66212	-0.00208214	  -2.65859	-0.00207125	  -2.65927	-0.00208548	  -2.65927	  -52.1369	
  -2.58343	-0.00209464	  -2.58837	-0.00207379	  -2.58467	-0.00206286	  -2.58549	-0.0020771	  -2.58549	  -51.9274	
  -2.50966	-0.00208618	  -2.51454	-0.00206525	   -2.5107	-0.0020544	  -2.51163	-0.00206861	  -2.51163	  -51.7153	
  -2.43576	-0.00207761	  -2.44058	-0.0020566	  -2.43658	-0.00204582	  -2.43764	-0.00206001	  -2.43764	  -51.5003	
  -2.36165	-0.00206893	  -2.36641	 -0.002048	   -2.3623	-0.00203718	  -2.36345	-0.00205137	  -2.36345	  -51.2842	
  -2.28761	-0.00206016	  -2.29221	-0.00203924	  -2.28801	-0.00202849	  -2.28928	-0.00204263	  -2.28928	  -51.0657	
  -2.21339	-0.0020513	  -2.21793	-0.00203038	  -2.21364	-0.00201968	  -2.21498	-0.00203378	  -2.21498	  -50.8446	
   -2.1391	-0.00204236	  -2.14359	-0.00202154	  -2.13923	-0.00201078	  -2.14064	-0.00202489	  -2.14064	  -50.6224	
  -2.06486	-0.00203334	  -2.06931	-0.00201251	  -2.06471	-0.00200182	  -2.06629	-0.00201589	  -2.06629	  -50.3972	
  -1.99043	-0.00202419	  -1.99492	-0.00200329	  -1.99009	-0.00199272	  -1.99181	-0.00200673	  -1.99181	  -50.1683	
  -1.91597	-0.00201497	  -1.92028	-0.00199413	  -1.91547	-0.00198355	  -1.91724	-0.00199755	  -1.91724	  -49.9387	
  -1.84134	-0.00200566	  -1.84549	-0.00198483	  -1.84068	-0.00197432	   -1.8425	-0.00198827	   -1.8425	  -49.7068	
  -1.76668	-0.00199635	  -1.77072	-0.00197543	  -1.76589	-0.00196487	  -1.76776	-0.00197889	  -1.76776	  -49.4721	
