# User: ACHyster
# File name: C:/ACHYSTER/ACHyster SENS/SHAMS/CoFe2O4-1gl-water-15 Glycerol- Sens-07-03-2023/CoFe2O4-1gl-water-15 Glycerol- 10_100F- 12kAm -Sens-07-03-20230002#1.txt
# Saved at: ma. mar. 7 15:00:16 2023
# Hyster Loop (3 iterations). Intensity: 12.0 kA/m; Tuned frequency: 29.5 kHz
# Units x axis: (kA/m)
# Units y axis: "Repeats y" & "Average y" (10^(-3)Am^2); "Mass avg y" (Am^2/kg)
# Magnetic mass: 4e-05 g
# Parameter      	Repeat   1	Repeat   2	Repeat   3	Average   	Sigma     
# H_C (kA/m)     	       8.8	       8.8	       8.8	       8.8	       0.0
# M_R (Am^2/kg)  	      44.7	      45.0	      44.7	      44.8	       0.1
# M_max (Am^2/kg)	      43.8	      43.4	      43.4	      43.5	       0.2
# Area (mJ/kg)   	    2065.4	    2066.3	    2056.1	    2062.6	       4.6
# SAR (W/g)      	      60.9	      61.0	      60.7	      60.8	       0.1
#Repeat 1 x	Repeat 1 y	Repeat 2 x	Repeat 2 y	Repeat 3 x	Repeat 3 y	Average x 	Average y 	Mass avg x 	Mass avg y 
  -1.73107	-0.00196138	  -1.72492	-0.00197603	  -1.72608	-0.00196539	  -1.72736	-0.0019676	  -1.72736	    -49.19	
   -1.6561	-0.00195447	  -1.64994	-0.00196904	   -1.6513	-0.00195847	  -1.65245	-0.00196066	  -1.65245	  -49.0166	
  -1.58123	-0.00194747	  -1.57498	-0.00196199	  -1.57661	-0.00195145	  -1.57761	-0.00195364	  -1.57761	  -48.8409	
  -1.50628	-0.00194047	  -1.49982	-0.00195483	  -1.50177	-0.00194435	  -1.50262	-0.00194655	  -1.50262	  -48.6637	
  -1.43128	-0.00193347	  -1.42464	-0.00194757	  -1.42688	-0.00193718	   -1.4276	-0.0019394	   -1.4276	  -48.4851	
  -1.35614	-0.00192638	   -1.3495	-0.00194025	  -1.35186	-0.00192993	   -1.3525	-0.00193219	   -1.3525	  -48.3047	
  -1.28084	-0.00191911	  -1.27421	-0.00193288	  -1.27669	-0.00192263	  -1.27724	-0.00192487	  -1.27724	  -48.1219	
   -1.2055	-0.00191171	  -1.19897	-0.00192543	  -1.20148	-0.00191526	  -1.20198	-0.00191747	  -1.20198	  -47.9367	
  -1.13014	-0.00190432	  -1.12355	-0.00191786	  -1.12616	-0.00190778	  -1.12661	-0.00190999	  -1.12661	  -47.7497	
  -1.05475	-0.00189693	  -1.04813	-0.00191023	  -1.05083	-0.00190021	  -1.05124	-0.00190246	  -1.05124	  -47.5614	
 -0.979368	-0.00188943	 -0.972808	-0.00190254	 -0.975585	-0.00189262	 -0.975921	-0.00189486	 -0.975921	  -47.3716	
 -0.903913	-0.00188176	 -0.897425	-0.0018948	 -0.900199	-0.00188499	 -0.900512	-0.00188718	 -0.900512	  -47.1796	
 -0.828577	-0.00187401	 -0.822088	-0.00188696	 -0.824856	-0.00187726	 -0.825174	-0.00187941	 -0.825174	  -46.9852	
 -0.753106	-0.00186627	 -0.746558	-0.00187903	 -0.749316	-0.00186939	  -0.74966	-0.00187156	  -0.74966	   -46.789	
 -0.677623	-0.0018585	 -0.671035	-0.00187102	 -0.673782	-0.00186146	 -0.674147	-0.00186366	 -0.674147	  -46.5914	
   -0.6021	-0.00185059	 -0.595635	-0.00186295	 -0.598296	-0.00185351	 -0.598677	-0.00185569	 -0.598677	  -46.3921	
 -0.526438	-0.00184254	   -0.5201	-0.00185481	  -0.52268	-0.00184552	 -0.523073	-0.00184762	 -0.523073	  -46.1906	
 -0.450827	-0.00183443	  -0.44462	-0.00184656	 -0.447204	-0.00183741	  -0.44755	-0.00183946	  -0.44755	  -45.9866	
   -0.3751	-0.00182631	 -0.369097	-0.00183822	 -0.371611	-0.00182918	 -0.371936	-0.00183123	 -0.371936	  -45.7808	
  -0.29938	-0.00181814	 -0.293577	-0.00182983	 -0.296024	-0.00182088	 -0.296327	-0.00182295	 -0.296327	  -45.5738	
 -0.223784	-0.00180985	 -0.218247	-0.00182139	  -0.22056	-0.00181256	 -0.220864	-0.0018146	 -0.220864	   -45.365	
 -0.148056	-0.00180143	 -0.142775	-0.00181287	 -0.145043	-0.00180416	 -0.145291	-0.00180615	 -0.145291	  -45.1538	
-0.0723953	-0.00179296	-0.0674305	-0.00180422	-0.0696563	-0.00179564	-0.0698274	-0.00179761	-0.0698274	  -44.9402	
0.00343895	-0.00178448	0.00794297	-0.00179548	0.00575746	-0.00178701	0.00571313	-0.00178899	0.00571313	  -44.7248	
 0.0792559	-0.00177593	 0.0833295	-0.00178668	 0.0811825	-0.00177834	  0.081256	-0.00178032	  0.081256	  -44.5079	
   0.15504	-0.00176725	  0.158631	-0.00177784	  0.156359	-0.0017696	  0.156677	-0.00177156	  0.156677	  -44.2891	
  0.230867	-0.00175845	  0.234085	-0.00176891	  0.231626	-0.0017608	  0.232193	-0.00176272	  0.232193	   -44.068	
  0.306627	-0.00174961	  0.309419	-0.00175989	  0.306872	-0.00175193	   0.30764	-0.00175381	   0.30764	  -43.8453	
  0.382346	-0.00174074	  0.384817	-0.00175079	  0.382193	-0.00174299	  0.383119	-0.00174484	  0.383119	   -43.621	
  0.458056	-0.00173175	  0.460233	-0.00174162	   0.45754	-0.00173397	   0.45861	-0.00173578	   0.45861	  -43.3945	
  0.533784	-0.00172263	  0.535548	-0.00173239	  0.532795	-0.00172484	  0.534043	-0.00172662	  0.534043	  -43.1655	
  0.609632	-0.00171343	  0.611018	-0.00172308	  0.608133	-0.00171562	  0.609594	-0.00171738	  0.609594	  -42.9344	
  0.685328	-0.00170423	  0.686371	-0.00171369	  0.683368	-0.00170633	  0.685022	-0.00170808	  0.685022	   -42.702	
   0.76103	-0.00169496	  0.761762	-0.00170421	  0.758575	-0.00169699	  0.760456	-0.00169872	  0.760456	   -42.468	
  0.836724	-0.00168551	  0.837176	-0.00169466	  0.833824	-0.00168758	  0.835908	-0.00168925	  0.835908	  -42.2313	
   0.91223	-0.0016759	  0.912512	-0.00168505	  0.908853	-0.00167807	  0.911199	-0.00167967	  0.911199	  -41.9918	
  0.987792	-0.00166626	  0.988008	-0.00167535	   0.98399	-0.00166845	  0.986597	-0.00167002	  0.986597	  -41.7506	
    1.0633	-0.00165666	   1.06339	-0.00166556	   1.05905	-0.00165876	   1.06191	-0.00166033	   1.06191	  -41.5083	
   1.13891	-0.00164697	   1.13874	-0.00165568	   1.13395	-0.00164902	    1.1372	-0.00165055	    1.1372	  -41.2638	
   1.21452	-0.00163706	   1.21411	-0.00164572	   1.20892	-0.00163919	   1.21252	-0.00164066	   1.21252	  -41.0164	
   1.28996	-0.00162701	   1.28934	-0.0016357	   1.28372	-0.00162926	   1.28767	-0.00163066	   1.28767	  -40.7664	
   1.36533	-0.00161698	   1.36467	-0.00162559	   1.35866	-0.00161923	   1.36288	-0.0016206	   1.36288	   -40.515	
   1.44058	-0.00160695	    1.4399	-0.00161538	   1.43355	-0.00160914	   1.43801	-0.00161049	   1.43801	  -40.2622	
    1.5157	-0.00159676	   1.51493	-0.00160507	   1.50836	-0.00159897	     1.513	-0.00160027	     1.513	  -40.0067	
   1.59086	-0.00158639	   1.59003	-0.00159469	   1.58318	-0.00158871	   1.58802	-0.00158993	   1.58802	  -39.7483	
   1.66581	-0.00157595	   1.66493	-0.00158424	   1.65784	-0.00157837	   1.66286	-0.00157952	   1.66286	  -39.4879	
   1.74063	-0.00156553	   1.73971	-0.0015737	   1.73251	-0.00156793	   1.73762	-0.00156905	   1.73762	  -39.2263	
    1.8154	-0.00155507	   1.81446	-0.00156305	   1.80717	-0.0015574	   1.81234	-0.00155851	   1.81234	  -38.9626	
   1.89002	-0.00154444	   1.88892	-0.00155229	   1.88165	-0.00154679	   1.88686	-0.00154784	   1.88686	   -38.696	
   1.96475	-0.00153365	   1.96343	-0.00154145	    1.9562	-0.00153612	   1.96146	-0.00153707	   1.96146	  -38.4268	
   2.03932	-0.00152283	   2.03781	-0.00153057	   2.03063	-0.00152536	   2.03592	-0.00152625	   2.03592	  -38.1563	
   2.11384	-0.00151201	    2.1121	-0.00151959	   2.10499	-0.0015145	   2.11031	-0.00151536	   2.11031	  -37.8841	
   2.18836	-0.00150108	   2.18641	-0.00150851	   2.17938	-0.00150356	   2.18472	-0.00150438	   2.18472	  -37.6096	
   2.26268	-0.00148999	   2.26049	-0.00149734	   2.25355	-0.00149253	   2.25891	-0.00149329	   2.25891	  -37.3322	
   2.33698	-0.00147878	   2.33467	-0.00148607	   2.32783	-0.00148141	   2.33316	-0.00148209	   2.33316	  -37.0521	
   2.41118	-0.00146755	   2.40877	-0.0014747	   2.40204	-0.00147018	   2.40733	-0.00147081	   2.40733	  -36.7703	
    2.4851	-0.00145629	   2.48262	-0.00146331	   2.47601	-0.00145888	   2.48125	-0.0014595	   2.48125	  -36.4874	
   2.55909	-0.00144491	   2.55648	-0.00145193	   2.55008	-0.00144749	   2.55522	-0.00144811	   2.55522	  -36.2027	
   2.63289	-0.00143337	   2.63017	-0.00144043	   2.62397	-0.00143601	   2.62901	-0.0014366	   2.62901	  -35.9151	
   2.70658	-0.00142176	   2.70378	-0.00142875	   2.69771	-0.00142446	   2.70269	-0.00142499	   2.70269	  -35.6247	
   2.78025	-0.00141016	   2.77739	-0.00141695	   2.77145	-0.00141283	   2.77636	-0.00141331	   2.77636	  -35.3328	
   2.85372	-0.00139849	   2.85075	-0.00140516	   2.84502	-0.00140112	   2.84983	-0.00140159	   2.84983	  -35.0397	
   2.92719	-0.00138663	   2.92398	-0.00139337	   2.91853	-0.00138928	   2.92323	-0.00138976	   2.92323	  -34.7439	
   3.00054	-0.00137458	   2.99714	-0.00138145	   2.99196	-0.00137733	   2.99654	-0.00137779	   2.99654	  -34.4446	
    3.0736	-0.00136251	   3.07018	-0.00136937	   3.06512	-0.00136533	   3.06963	-0.00136574	   3.06963	  -34.1434	
   3.14673	-0.00135051	   3.14323	-0.00135721	   3.13837	-0.00135328	   3.14278	-0.00135367	   3.14278	  -33.8417	
   3.21974	-0.00133845	   3.21612	-0.00134506	   3.21145	-0.00134113	   3.21577	-0.00134155	   3.21577	  -33.5386	
   3.29256	-0.00132616	   3.28893	-0.00133285	   3.28436	-0.0013289	   3.28862	-0.0013293	   3.28862	  -33.2326	
   3.36536	-0.00131368	   3.36174	-0.0013205	   3.35721	-0.00131662	   3.36144	-0.00131693	   3.36144	  -32.9233	
    3.4379	-0.00130122	   3.43431	-0.00130802	   3.42982	-0.00130425	   3.43401	-0.0013045	   3.43401	  -32.6124	
   3.51045	-0.00128885	   3.50684	-0.00129547	   3.50232	-0.00129174	   3.50654	-0.00129202	   3.50654	  -32.3005	
   3.58291	-0.00127638	    3.5793	-0.00128291	   3.57477	-0.00127913	   3.57899	-0.00127947	   3.57899	  -31.9868	
   3.65518	-0.00126366	   3.65158	-0.00127026	   3.64691	-0.00126647	   3.65122	-0.0012668	   3.65122	  -31.6699	
   3.72729	-0.00125081	   3.72365	-0.00125747	   3.71901	-0.00125375	   3.72332	-0.00125401	   3.72332	  -31.3502	
   3.79924	-0.00123803	   3.79559	-0.00124455	   3.79099	-0.00124091	   3.79527	-0.00124117	   3.79527	  -31.0292	
   3.87098	-0.00122532	   3.86724	-0.00123159	    3.8627	-0.00122795	   3.86697	-0.00122829	   3.86697	  -30.7072	
    3.9425	-0.00121246	   3.93879	-0.0012186	   3.93431	-0.00121491	   3.93853	-0.00121532	   3.93853	  -30.3831	
   4.01384	-0.00119937	   4.01017	-0.00120552	   4.00575	-0.00120183	   4.00992	-0.00120224	   4.00992	   -30.056	
   4.08491	-0.00118623	   4.08139	-0.0011923	   4.07687	-0.00118866	   4.08106	-0.00118906	   4.08106	  -29.7266	
   4.15592	-0.00117314	   4.15241	-0.00117897	   4.14788	-0.00117537	   4.15207	-0.00117583	   4.15207	  -29.3957	
   4.22669	-0.00116003	   4.22321	-0.0011656	   4.21868	-0.00116199	   4.22286	-0.00116254	   4.22286	  -29.0635	
    4.2973	-0.00114676	   4.29387	-0.00115217	   4.28927	-0.00114855	   4.29348	-0.00114916	   4.29348	  -28.7289	
   4.36788	-0.00113332	    4.3645	-0.00113862	   4.35978	-0.00113505	   4.36405	-0.00113566	   4.36405	  -28.3916	
   4.43818	-0.00111984	   4.43488	-0.00112494	   4.43019	-0.00112144	   4.43442	-0.00112208	   4.43442	  -28.0519	
   4.50832	-0.0011064	   4.50518	-0.00111116	   4.50029	-0.00110772	   4.50459	-0.00110843	   4.50459	  -27.7107	
   4.57838	-0.00109289	   4.57535	-0.00109735	    4.5702	-0.00109393	   4.57464	-0.00109473	   4.57464	  -27.3681	
   4.64814	-0.00107921	    4.6453	-0.00108349	   4.63994	-0.0010801	   4.64446	-0.00108093	   4.64446	  -27.0234	
   4.71788	-0.00106543	   4.71508	-0.00106951	   4.70954	-0.00106618	   4.71417	-0.00106704	   4.71417	   -26.676	
   4.78751	-0.00105165	   4.78478	-0.00105541	     4.779	-0.0010521	   4.78376	-0.00105306	   4.78376	  -26.3264	
   4.85681	-0.00103784	   4.85422	-0.00104126	   4.84816	-0.00103792	   4.85306	-0.00103901	   4.85306	  -25.9752	
   4.92613	-0.0010239	   4.92352	-0.00102707	   4.91714	-0.00102374	   4.92226	-0.0010249	   4.92226	  -25.6226	
    4.9953	-0.00100983	   4.99271	-0.00101283	   4.98605	-0.00100954	   4.99135	-0.00101073	   4.99135	  -25.2683	
    5.0642	-0.00099573	   5.06154	-0.000998474	   5.05464	-0.000995232	   5.06013	-0.000996479	   5.06013	   -24.912	
   5.13288	-0.000981657	   5.13033	-0.000984033	   5.12308	-0.000980764	   5.12876	-0.000982151	   5.12876	  -24.5538	
   5.20141	-0.000967491	   5.19889	-0.000969545	   5.19143	-0.000966215	   5.19725	-0.00096775	   5.19725	  -24.1938	
   5.26958	-0.000953164	   5.26711	-0.000955016	   5.25955	-0.000951673	   5.26541	-0.000953284	   5.26541	  -23.8321	
   5.33761	-0.000938773	   5.33504	-0.000940408	   5.32742	-0.000937102	   5.33336	-0.000938761	   5.33336	   -23.469	
   5.40549	-0.000924416	   5.40286	-0.000925702	   5.39504	-0.000922401	   5.40113	-0.000924173	   5.40113	  -23.1043	
   5.47301	-0.000910032	   5.47041	-0.000910936	   5.46234	-0.000907559	   5.46859	-0.000909509	   5.46859	  -22.7377	
   5.54028	-0.000895478	   5.53772	-0.000896146	    5.5293	-0.000892669	   5.53577	-0.000894765	   5.53577	  -22.3691	
   5.60742	-0.000880756	   5.60492	-0.000881297	   5.59619	-0.000877788	   5.60285	-0.000879947	   5.60285	  -21.9987	
    5.6743	-0.000866015	   5.67187	-0.000866336	    5.6628	-0.000862847	   5.66966	-0.000865066	   5.66966	  -21.6266	
   5.74098	-0.000851328	   5.73856	-0.000851292	   5.72928	-0.000847759	   5.73627	-0.000850126	   5.73627	  -21.2532	
   5.80754	-0.000836593	   5.80498	-0.000836217	   5.79569	-0.000832548	   5.80274	-0.00083512	   5.80274	   -20.878	
   5.87377	-0.000821683	   5.87109	-0.000821108	   5.86182	-0.000817319	   5.86889	-0.000820037	   5.86889	  -20.5009	
    5.9397	-0.000806625	   5.93677	-0.000805908	   5.92763	-0.000802116	    5.9347	-0.000804883	    5.9347	  -20.1221	
   6.00554	-0.000791566	   6.00233	-0.000790616	   5.99326	-0.000786863	   6.00038	-0.000789682	   6.00038	   -19.742	
   6.07108	-0.00077655	   6.06763	-0.000775281	   6.05864	-0.000771465	   6.06579	-0.000774432	   6.06579	  -19.3608	
   6.13633	-0.000761445	   6.13253	-0.000759931	   6.12365	-0.000755952	   6.13084	-0.000759109	   6.13084	  -18.9777	
   6.20144	-0.000746155	   6.19726	-0.000744521	   6.18858	-0.000740412	   6.19576	-0.000743696	   6.19576	  -18.5924	
   6.26627	-0.000730757	   6.26177	-0.000729018	    6.2533	-0.000724864	   6.26045	-0.000728213	   6.26045	  -18.2053	
    6.3308	-0.00071538	   6.32594	-0.000713443	   6.31768	-0.00070925	   6.32481	-0.000712691	   6.32481	  -17.8173	
   6.39516	-0.000700011	   6.38994	-0.000697841	   6.38161	-0.000693531	    6.3889	-0.000697127	    6.3889	  -17.4282	
    6.4593	-0.000684515	   6.45376	-0.000682214	   6.44539	-0.000677732	   6.45282	-0.000681487	   6.45282	  -17.0372	
   6.52302	-0.000668838	   6.51721	-0.000666515	   6.50882	-0.000661909	   6.51635	-0.000665754	   6.51635	  -16.6438	
   6.58653	-0.000653089	   6.58051	-0.000650721	   6.57205	-0.000646071	    6.5797	-0.00064996	    6.5797	   -16.249	
   6.64988	-0.000637383	   6.64361	-0.000634869	   6.63519	-0.000630187	   6.64289	-0.000634146	   6.64289	  -15.8537	
   6.71287	-0.00062168	    6.7064	-0.000618994	   6.69803	-0.000614221	   6.70577	-0.000618298	   6.70577	  -15.4575	
   6.77547	-0.000605843	   6.76892	-0.000603081	   6.76056	-0.00059819	   6.76831	-0.000602371	   6.76831	  -15.0593	
   6.83798	-0.000589831	   6.83133	-0.000587097	   6.82291	-0.000582141	   6.83074	-0.000586356	   6.83074	  -14.6589	
   6.90021	-0.000573761	   6.89348	-0.000571038	   6.88503	-0.000566081	   6.89291	-0.000570293	   6.89291	  -14.2573	
   6.96209	-0.000557737	   6.95519	-0.000554945	   6.94674	-0.000549972	   6.95467	-0.000554218	   6.95467	  -13.8554	
    7.0238	-0.000541701	   7.01669	-0.000538838	   7.00818	-0.000533786	   7.01622	-0.000538108	   7.01622	  -13.4527	
   7.08529	-0.000525545	   7.07802	-0.000522685	   7.06941	-0.000517553	   7.07757	-0.000521928	   7.07757	  -13.0482	
   7.14654	-0.000509264	   7.13899	-0.000506453	    7.1303	-0.000501308	   7.13861	-0.000505675	   7.13861	  -12.6419	
   7.20755	-0.000492962	   7.19964	-0.000490149	   7.19084	-0.00048504	   7.19934	-0.000489384	   7.19934	  -12.2346	
   7.26834	-0.000476694	   7.26013	-0.000473809	     7.251	-0.000468715	   7.25982	-0.000473073	   7.25982	  -11.8268	
    7.3288	-0.000460394	   7.32035	-0.000457436	   7.31096	-0.000452333	   7.32004	-0.000456721	   7.32004	   -11.418	
   7.38884	-0.000443999	   7.38012	-0.000441006	   7.37051	-0.000435912	   7.37982	-0.000440305	   7.37982	  -11.0076	
   7.44863	-0.000427538	   7.43957	-0.000424519	   7.42977	-0.000419463	   7.43932	-0.00042384	   7.43932	   -10.596	
   7.50821	-0.000411069	   7.49878	-0.000408015	   7.48893	-0.000402979	   7.49864	-0.000407354	   7.49864	  -10.1839	
   7.56738	-0.000394576	   7.55766	-0.000391488	    7.5478	-0.000386443	   7.55761	-0.000390836	   7.55761	  -9.77089	
   7.62623	-0.000378015	   7.61612	-0.000374891	   7.60627	-0.000369855	   7.61621	-0.000374254	   7.61621	  -9.35634	
   7.68499	-0.000361392	   7.67456	-0.000358198	   7.66453	-0.000353234	   7.67469	-0.000357608	   7.67469	  -8.94021	
   7.74345	-0.000344756	   7.73278	-0.000341461	   7.72261	-0.000336591	   7.73295	-0.000340936	   7.73295	   -8.5234	
   7.80146	-0.000328128	    7.7906	-0.000324768	   7.78033	-0.000319922	    7.7908	-0.000324273	    7.7908	  -8.10681	
   7.85912	-0.000311463	     7.848	-0.000308068	    7.8376	-0.000303218	   7.84824	-0.000307583	   7.84824	  -7.68958	
   7.91655	-0.000294708	   7.90515	-0.000291237	    7.8945	-0.000286468	    7.9054	-0.000290804	    7.9054	   -7.2701	
   7.97365	-0.000277878	   7.96205	-0.000274283	   7.95119	-0.000269681	    7.9623	-0.000273947	    7.9623	  -6.84868	
   8.03026	-0.000261068	   8.01851	-0.000257367	   8.00751	-0.000252878	   8.01876	-0.000257104	   8.01876	  -6.42761	
   8.08637	-0.000244304	   8.07446	-0.000240531	   8.06328	-0.000236066	    8.0747	-0.0002403	    8.0747	  -6.00751	
   8.14224	-0.0002275	   8.13032	-0.000223656	   8.11884	-0.000219224	   8.13047	-0.00022346	   8.13047	   -5.5865	
   8.19779	-0.000210588	   8.18591	-0.000206621	   8.17419	-0.000202329	   8.18596	-0.000206513	   8.18596	  -5.16282	
   8.25294	-0.000193632	   8.24106	-0.000189499	   8.22915	-0.000185394	   8.24105	-0.000189509	   8.24105	  -4.73772	
   8.30759	-0.000176736	   8.29576	-0.000172434	   8.28364	-0.000168482	   8.29566	-0.000172551	   8.29566	  -4.31377	
    8.3621	-0.000159878	   8.35036	-0.000155433	   8.33801	-0.000151605	   8.35016	-0.000155639	   8.35016	  -3.89096	
   8.41629	-0.000142936	    8.4047	-0.000138387	   8.39216	-0.000134672	   8.40438	-0.000138665	   8.40438	  -3.46662	
   8.47002	-0.000125882	   8.45859	-0.000121235	   8.44592	-0.00011762	   8.45818	-0.000121579	   8.45818	  -3.03948	
   8.52334	-0.000108827	   8.51197	-0.000104054	   8.49929	-0.000100525	   8.51153	-0.000104469	   8.51153	  -2.61172	
   8.57654	-9.18403e-05	   8.56519	-8.69306e-05	   8.55262	-8.34876e-05	   8.56478	-8.74195e-05	   8.56478	  -2.18549	
   8.62945	-7.48481e-05	   8.61816	-6.98423e-05	   8.60566	-6.64663e-05	   8.61776	-7.03856e-05	   8.61776	  -1.75964	
   8.68199	-5.7763e-05	   8.67073	-5.26966e-05	   8.65841	-4.93511e-05	   8.67038	-5.32702e-05	   8.67038	  -1.33176	
   8.73408	-4.06094e-05	   8.72288	-3.54808e-05	   8.71083	-3.21687e-05	    8.7226	-3.60863e-05	    8.7226	 -0.902157	
   8.78599	-2.3478e-05	    8.7749	-1.82812e-05	    8.7629	-1.503e-05	    8.7746	-1.89297e-05	    8.7746	 -0.473244	
   8.83764	-6.38652e-06	    8.8267	-1.18609e-06	   8.81469	2.03899e-06	   8.82635	-1.84454e-06	   8.82635	-0.0461135	
   8.88889	1.07408e-05	   8.87813	1.58915e-05	   8.86622	1.91328e-05	   8.87774	1.5255e-05	   8.87774	  0.381375	
   8.93958	2.7944e-05	   8.92903	3.31063e-05	   8.91733	3.6322e-05	   8.92864	3.24574e-05	   8.92864	  0.811436	
   8.99002	4.51709e-05	   8.97949	5.04253e-05	   8.96801	5.35309e-05	   8.97917	4.9709e-05	   8.97917	   1.24273	
   9.04028	6.2356e-05	   9.02964	6.76468e-05	   9.01824	7.06606e-05	   9.02939	6.68878e-05	   9.02939	    1.6722	
   9.09019	7.95177e-05	    9.0795	8.46946e-05	   9.06799	8.7744e-05	   9.07923	8.39854e-05	   9.07923	   2.09964	
   9.13971	9.67189e-05	   9.12893	0.00010173	   9.11751	0.000104881	   9.12872	0.00010111	   9.12872	   2.52775	
   9.18881	0.000113974	   9.17793	0.000118912	   9.16656	0.000122086	   9.17777	0.000118324	   9.17777	   2.95811	
   9.23773	0.000131218	   9.22664	0.000136165	   9.21525	0.000139262	   9.22654	0.000135548	   9.22654	    3.3887	
   9.28631	0.000148406	   9.27508	0.000153319	    9.2635	0.000156355	   9.27496	0.000152693	   9.27496	   3.81733	
    9.3345	0.000165576	   9.32317	0.000170381	   9.31146	0.000173442	   9.32304	 0.0001698	   9.32304	     4.245	
   9.38216	0.000182781	    9.3708	0.000187497	   9.35898	0.00019059	   9.37065	0.000186956	   9.37065	   4.67391	
   9.42925	0.000200014	   9.41798	0.000204702	   9.40611	0.000207746	   9.41778	0.000204154	   9.41778	   5.10385	
   9.47615	0.000217234	    9.4648	0.000221863	   9.45292	0.000224824	   9.46462	0.000221307	   9.46462	   5.53267	
   9.52279	0.000234396	   9.51141	0.000238895	   9.49938	0.000241835	    9.5112	0.000238375	    9.5112	   5.95939	
   9.56904	0.000251524	   9.55767	0.000255895	    9.5454	0.000258866	   9.55737	0.000255429	   9.55737	   6.38572	
   9.61484	0.000268684	   9.60346	0.000272989	   9.59092	0.000275938	   9.60307	0.000272537	   9.60307	   6.81342	
   9.66021	0.000285875	   9.64872	0.000290131	   9.63604	0.000292973	   9.64832	0.000289659	   9.64832	   7.24148	
    9.7053	0.000303021	   9.69359	0.000307181	   9.68082	0.000309925	   9.69324	0.000306709	   9.69324	   7.66773	
   9.75014	0.000320079	   9.73821	0.00032412	   9.72518	0.000326845	   9.73784	0.000323681	   9.73784	   8.09203	
    9.7946	0.000337125	   9.78251	0.000341058	    9.7692	0.000343793	    9.7821	0.000340659	    9.7821	   8.51647	
   9.83856	0.000354248	   9.82637	0.000358062	   9.81276	0.000360748	    9.8259	0.000357686	    9.8259	   8.94215	
   9.88205	0.000371384	   9.86968	0.000375064	   9.85583	0.000377647	   9.86919	0.000374699	   9.86919	   9.36746	
   9.92506	0.000388428	   9.91265	0.000391957	   9.89839	0.000394478	   9.91204	0.000391621	   9.91204	   9.79051	
   9.96782	0.000405387	   9.95521	0.000408746	   9.94068	0.000411294	   9.95457	0.000408476	   9.95457	   10.2119	
   10.0102	0.000422371	   9.99744	0.000425535	   9.98264	0.000428132	   9.99676	0.000425346	   9.99676	   10.6336	
   10.0521	0.000439421	   10.0393	0.000442375	   10.0243	0.000444946	   10.0386	0.000442247	   10.0386	   11.0562	
   10.0936	0.000456434	   10.0807	0.000459201	   10.0656	0.000461688	   10.0799	0.000459108	   10.0799	   11.4777	
   10.1348	 0.0004733	   10.1216	0.000475929	   10.1063	0.000478389	   10.1209	0.000475873	   10.1209	   11.8968	
   10.1759	0.000490067	   10.1617	0.000492568	   10.1465	0.000495102	   10.1614	0.000492579	   10.1614	   12.3145	
   10.2168	0.000506884	   10.2014	 0.0005092	   10.1864	0.000511814	   10.2015	0.000509299	   10.2015	   12.7325	
   10.2567	0.000523802	   10.2408	0.00052585	    10.226	0.000528451	   10.2412	0.000526034	   10.2412	   13.1509	
   10.2958	0.000540694	   10.2799	0.00054246	   10.2652	0.000544999	   10.2803	0.000542718	   10.2803	   13.5679	
   10.3343	0.000557424	   10.3186	0.000558987	   10.3041	0.000561523	    10.319	0.000559311	    10.319	   13.9828	
   10.3726	0.000574046	   10.3568	0.000575459	   10.3426	0.000578057	   10.3573	0.000575854	   10.3573	   14.3963	
   10.4109	0.000590724	   10.3946	0.000591923	   10.3804	0.000594545	   10.3953	0.000592397	   10.3953	   14.8099	
   10.4489	0.000607481	   10.4319	0.000608378	   10.4178	0.000610948	   10.4329	0.000608936	   10.4329	   15.2234	
   10.4863	0.000624157	   10.4689	0.000624771	   10.4549	0.000627295	     10.47	0.000625408	     10.47	   15.6352	
   10.5234	0.000640671	   10.5057	0.000641079	   10.4917	0.000643637	    10.507	0.000641796	    10.507	   16.0449	
   10.5601	0.000657128	   10.5421	0.000657339	   10.5283	0.000659964	   10.5435	0.000658144	   10.5435	   16.4536	
   10.5963	0.000673613	   10.5781	0.000673585	   10.5645	0.000676223	   10.5797	0.000674474	   10.5797	   16.8618	
   10.6321	0.000690058	   10.6136	0.000689792	   10.6002	0.000692399	   10.6153	0.00069075	   10.6153	   17.2687	
   10.6675	0.000706354	   10.6485	0.000705921	   10.6355	0.000708539	   10.6505	0.000706938	   10.6505	   17.6735	
   10.7024	0.000722556	   10.6832	0.000721983	   10.6702	0.000724672	   10.6853	0.00072307	   10.6853	   18.0768	
   10.7371	0.000738793	   10.7176	0.000738023	   10.7045	0.000740773	   10.7197	0.000739197	   10.7197	   18.4799	
   10.7714	0.000755048	   10.7516	0.000754052	   10.7383	0.000756802	   10.7538	0.000755301	   10.7538	   18.8825	
   10.8053	0.000771192	   10.7854	0.000770023	   10.7718	0.000772764	   10.7875	0.000771326	   10.7875	   19.2832	
   10.8387	0.000787187	   10.8187	0.000785911	    10.805	0.000788698	   10.8208	0.000787265	   10.8208	   19.6816	
   10.8715	0.00080313	   10.8516	0.000801755	   10.8377	0.000804614	   10.8536	0.000803166	   10.8536	   20.0792	
   10.9038	0.000819093	   10.8838	0.000817592	   10.8699	0.000820478	   10.8858	0.000819054	   10.8858	   20.4764	
   10.9357	0.000835018	   10.9155	0.000833397	   10.9016	0.000836274	   10.9176	0.000834897	   10.9176	   20.8724	
   10.9672	0.000850824	   10.9467	0.000849114	   10.9328	0.000852018	   10.9489	0.000850652	   10.9489	   21.2663	
   10.9984	0.000866524	   10.9778	0.000864758	   10.9636	0.000867729	   10.9799	0.000866337	   10.9799	   21.6584	
   11.0293	0.00088219	   11.0085	0.000880389	   10.9941	0.000883406	   11.0107	0.000881995	   11.0107	   22.0499	
   11.0598	0.000897853	    11.039	0.000896004	   11.0244	0.00089902	   11.0411	0.000897626	   11.0411	   22.4406	
   11.0899	0.000913469	    11.069	0.00091154	   11.0543	0.000914556	   11.0711	0.000913188	   11.0711	   22.8297	
   11.1194	0.000928978	   11.0987	0.00092698	   11.0839	0.000930049	   11.1007	0.000928669	   11.1007	   23.2167	
   11.1484	0.00094438	   11.1279	0.000942368	    11.113	0.000945535	   11.1298	0.000944094	   11.1298	   23.6024	
   11.1769	0.000959728	   11.1564	0.000957735	   11.1418	0.000960928	   11.1584	0.000959464	   11.1584	   23.9866	
   11.2047	0.000975045	   11.1844	0.000973047	   11.1707	0.000976158	   11.1866	0.00097475	   11.1866	   24.3688	
   11.2322	0.000990293	   11.2118	0.000988265	   11.1996	0.000991279	   11.2145	0.000989946	   11.2145	   24.7486	
   11.2595	0.00100543	   11.2387	0.00100339	   11.2277	0.00100644	    11.242	0.00100509	    11.242	   25.1272	
   11.2865	0.00102045	   11.2651	0.00101848	   11.2545	0.00102167	   11.2687	 0.0010202	   11.2687	    25.505	
    11.313	0.00103542	   11.2911	0.00103352	   11.2805	0.00103681	   11.2949	0.00103525	   11.2949	   25.8813	
   11.3393	0.00105034	   11.3168	0.00104851	   11.3061	0.00105176	   11.3207	 0.0010502	   11.3207	    26.255	
   11.3651	0.00106515	   11.3421	0.00106339	   11.3314	 0.0010666	   11.3462	0.00106505	   11.3462	   26.6261	
   11.3904	0.00107983	   11.3671	0.00107815	   11.3564	0.00108148	   11.3713	0.00107982	   11.3713	   26.9955	
   11.4153	 0.0010945	   11.3917	0.00109284	    11.381	0.00109635	    11.396	0.00109456	    11.396	   27.3641	
   11.4396	 0.0011092	   11.4159	0.00110751	   11.4049	0.00111107	   11.4201	0.00110926	   11.4201	   27.7314	
   11.4634	0.00112382	   11.4396	0.00112211	   11.4283	 0.0011256	   11.4437	0.00112385	   11.4437	   28.0961	
   11.4865	0.00113822	   11.4627	0.00113661	   11.4511	0.00114011	   11.4668	0.00113831	   11.4668	   28.4578	
    11.509	0.00115245	   11.4853	  0.001151	   11.4735	0.00115468	   11.4893	0.00115271	   11.4893	   28.8177	
    11.531	0.00116669	   11.5073	0.00116531	   11.4954	0.00116922	   11.5113	0.00116707	   11.5113	   29.1768	
   11.5526	0.00118104	   11.5287	0.00117958	   11.5167	0.00118355	   11.5327	0.00118139	   11.5327	   29.5347	
   11.5737	0.00119531	   11.5495	0.00119375	   11.5375	0.00119768	   11.5536	0.00119558	   11.5536	   29.8896	
   11.5952	 0.0012093	   11.5697	0.00120783	   11.5576	0.00121183	   11.5741	0.00120965	   11.5741	   30.2413	
   11.6165	 0.0012231	   11.5893	0.00122183	   11.5772	0.00122607	   11.5943	0.00122367	   11.5943	   30.5916	
   11.6367	0.00123698	   11.6087	0.00123576	   11.5963	0.00124021	   11.6139	0.00123765	   11.6139	   30.9413	
   11.6559	0.00125102	   11.6276	0.00124961	   11.6149	0.00125409	   11.6328	0.00125157	   11.6328	   31.2894	
   11.6742	0.00126497	    11.646	0.00126337	    11.633	0.00126782	   11.6511	0.00126539	   11.6511	   31.6347	
   11.6921	0.00127866	   11.6641	0.00127705	   11.6507	0.00128158	    11.669	 0.0012791	    11.669	   31.9774	
   11.7099	0.00129219	   11.6819	0.00129068	   11.6678	0.00129537	   11.6866	0.00129275	   11.6866	   32.3186	
   11.7276	 0.0013058	   11.6994	0.00130419	   11.6846	0.00130903	   11.7039	0.00130634	   11.7039	   32.6585	
   11.7448	0.00131948	   11.7166	0.00131756	    11.701	0.00132248	   11.7208	0.00131984	   11.7208	    32.996	
   11.7614	  0.001333	   11.7335	0.00133089	   11.7172	0.00133582	   11.7374	0.00133324	   11.7374	    33.331	
   11.7774	0.00134628	     11.75	0.00134421	   11.7332	0.00134915	   11.7535	0.00134655	   11.7535	   33.6637	
   11.7931	0.00135949	   11.7663	0.00135739	   11.7488	0.00136245	   11.7694	0.00135978	   11.7694	   33.9944	
   11.8083	0.00137277	   11.7822	0.00137035	   11.7641	0.00137561	   11.7849	0.00137291	   11.7849	   34.3228	
   11.8231	0.00138603	   11.7977	0.00138323	   11.7791	0.00138861	      11.8	0.00138596	      11.8	   34.6489	
   11.8375	0.00139908	   11.8125	0.00139616	   11.7937	0.00140152	   11.8146	0.00139892	   11.8146	    34.973	
   11.8513	0.00141195	   11.8263	0.00140905	    11.808	0.00141442	   11.8285	0.00141181	   11.8285	   35.2952	
   11.8647	 0.0014248	   11.8395	0.00142172	   11.8219	0.00142727	    11.842	 0.0014246	    11.842	    35.615	
   11.8776	0.00143768	   11.8525	0.00143418	   11.8355	0.00144001	   11.8552	0.00143729	   11.8552	   35.9323	
     11.89	0.00145046	    11.865	0.00144658	   11.8486	0.00145258	   11.8679	0.00144987	   11.8679	   36.2469	
   11.9019	0.00146303	   11.8772	  0.001459	   11.8614	0.00146505	   11.8802	0.00146236	   11.8802	    36.559	
   11.9134	0.00147546	   11.8889	0.00147132	   11.8737	0.00147746	    11.892	0.00147475	    11.892	   36.8686	
   11.9243	 0.0014879	   11.9001	0.00148345	   11.8856	 0.0014898	   11.9033	0.00148705	   11.9033	   37.1763	
   11.9347	0.00150032	   11.9108	0.00149548	    11.897	0.00150203	   11.9142	0.00149928	   11.9142	   37.4819	
   11.9447	 0.0015126	   11.9211	0.00150748	    11.908	0.00151413	   11.9246	 0.0015114	   11.9246	   37.7851	
   11.9541	0.00152469	   11.9309	0.00151943	   11.9186	0.00152612	   11.9345	0.00152341	   11.9345	   38.0854	
   11.9631	0.00153673	   11.9403	0.00153121	   11.9287	0.00153804	    11.944	0.00153533	    11.944	   38.3832	
   11.9714	0.00154879	   11.9493	0.00154285	   11.9382	0.00154988	    11.953	0.00154717	    11.953	   38.6793	
   11.9793	0.00156077	   11.9579	0.00155443	   11.9473	 0.0015616	   11.9615	0.00155893	   11.9615	   38.9733	
   11.9867	0.00157253	   11.9661	0.00156597	   11.9559	 0.0015732	   11.9696	0.00157057	   11.9696	   39.2643	
   11.9937	0.00158415	   11.9739	0.00157743	   11.9642	0.00158472	   11.9773	 0.0015821	   11.9773	   39.5525	
   12.0002	0.00159577	   11.9812	0.00158873	    11.972	0.00159616	   11.9845	0.00159355	   11.9845	   39.8388	
   12.0062	0.00160738	   11.9881	0.00159991	   11.9793	0.00160751	   11.9912	0.00160494	   11.9912	   40.1234	
   12.0118	0.00161884	   11.9945	0.00161105	   11.9862	0.00161875	   11.9975	0.00161621	   11.9975	   40.4053	
   12.0171	0.00163011	   12.0006	0.00162211	   11.9926	0.00162988	   12.0034	0.00162736	   12.0034	   40.6841	
   12.0216	0.00164129	   12.0062	0.00163306	   11.9984	0.00164092	   12.0088	0.00163842	   12.0088	   40.9606	
   12.0256	0.00165248	   12.0113	0.00164387	   12.0038	0.00165188	   12.0136	0.00164941	   12.0136	   41.2352	
   12.0295	0.00166358	   12.0159	 0.0016546	   12.0085	0.00166274	    12.018	0.00166031	    12.018	   41.5076	
   12.0329	 0.0016745	   12.0202	0.00166527	   12.0127	 0.0016735	   12.0219	0.00167109	   12.0219	   41.7772	
   12.0359	0.00168526	   12.0239	0.00167585	   12.0162	0.00168416	   12.0253	0.00168176	   12.0253	   42.0439	
   12.0383	0.00169597	   12.0272	0.00168631	   12.0191	0.00169474	   12.0282	0.00169234	   12.0282	   42.3085	
   12.0402	0.00170666	   12.0297	0.00169665	   12.0212	0.00170522	   12.0304	0.00170284	   12.0304	   42.5711	
   12.0416	0.00171723	   12.0315	0.00170689	   12.0227	 0.0017156	   12.0319	0.00171324	   12.0319	   42.8311	
   12.0425	0.00172762	   12.0328	0.00171708	   12.0235	0.00172587	   12.0329	0.00172352	   12.0329	    43.088	
    12.043	0.00173787	   12.0334	0.00172718	   12.0238	0.00173603	   12.0334	0.00173369	   12.0334	   43.3423	
   12.0431	0.00174807	   12.0333	0.00173717	   12.0235	0.00174611	   12.0333	0.00174378	   12.0333	   43.5946	
   12.0426	0.00175824	   12.0327	0.00174705	   12.0226	 0.0017561	   12.0326	 0.0017538	   12.0326	    43.845	
   12.0417	 0.0017683	   12.0315	0.00175685	   12.0212	0.00176598	   12.0315	0.00176371	   12.0315	   44.0928	
   12.0403	0.00177818	   12.0299	0.00176657	   12.0194	0.00177576	   12.0299	 0.0017735	   12.0299	   44.3375	
   12.0384	0.00178793	   12.0278	 0.0017762	   12.0172	0.00178543	   12.0278	0.00178319	   12.0278	   44.5797	
    12.036	0.00179765	   12.0253	0.00178571	   12.0146	0.00179503	   12.0253	0.00179279	   12.0253	   44.8198	
   12.0332	 0.0018073	   12.0224	0.00179513	   12.0116	0.00180453	   12.0224	0.00180232	   12.0224	    45.058	
   12.0301	 0.0018168	   12.0192	0.00180447	   12.0083	0.00181393	   12.0192	0.00181174	   12.0192	   45.2934	
   12.0264	0.00182614	   12.0155	0.00181373	   12.0046	0.00182323	   12.0155	0.00182103	   12.0155	   45.5258	
   12.0223	0.00183541	   12.0116	0.00182288	   12.0004	0.00183242	   12.0114	0.00183024	   12.0114	   45.7559	
   12.0178	0.00184465	   12.0071	0.00183192	   11.9956	0.00184152	   12.0068	0.00183936	   12.0068	   45.9841	
    12.013	 0.0018538	   12.0019	0.00184087	   11.9902	0.00185052	   12.0017	 0.0018484	   12.0017	     46.21	
   12.0078	0.00186277	   11.9961	0.00184975	   11.9842	0.00185942	    11.996	0.00185731	    11.996	   46.4328	
   12.0019	0.00187157	   11.9896	0.00185854	   11.9776	0.00186823	   11.9897	0.00186612	   11.9897	   46.6529	
   11.9956	0.00188035	   11.9827	0.00186723	   11.9704	0.00187695	   11.9829	0.00187484	   11.9829	   46.8711	
   11.9886	0.00188913	   11.9752	0.00187583	   11.9629	0.00188554	   11.9756	 0.0018835	   11.9756	   47.0875	
   11.9811	0.00189779	   11.9673	0.00188436	   11.9549	0.00189397	   11.9678	0.00189204	   11.9678	   47.3011	
   11.9732	0.00190626	    11.959	 0.0018928	   11.9465	0.00190231	   11.9596	0.00190046	   11.9596	   47.5114	
   11.9649	0.00191459	   11.9503	0.00190115	   11.9379	0.00191059	    11.951	0.00190878	    11.951	   47.7194	
   11.9561	 0.0019229	   11.9412	 0.0019094	   11.9288	0.00191881	    11.942	0.00191704	    11.942	   47.9259	
    11.947	0.00193119	   11.9317	0.00191758	   11.9192	0.00192689	   11.9326	0.00192522	   11.9326	   48.1305	
   11.9375	0.00193932	   11.9217	0.00192568	   11.9089	0.00193486	   11.9227	0.00193329	   11.9227	   48.3321	
   11.9275	0.00194722	   11.9111	 0.0019337	   11.8977	0.00194276	   11.9121	0.00194123	   11.9121	   48.5307	
    11.917	0.00195504	   11.8999	0.00194162	   11.8862	0.00195062	    11.901	0.00194909	    11.901	   48.7273	
    11.906	0.00196292	   11.8882	0.00194945	   11.8742	0.00195836	   11.8895	0.00195691	   11.8895	   48.9227	
   11.8944	0.00197075	   11.8761	0.00195718	   11.8619	0.00196594	   11.8774	0.00196463	   11.8774	   49.1156	
   11.8823	0.00197838	   11.8636	0.00196483	   11.8494	0.00197336	   11.8651	0.00197219	   11.8651	   49.3047	
   11.8698	 0.0019858	   11.8508	0.00197239	   11.8367	0.00198068	   11.8524	0.00197962	   11.8524	   49.4906	
   11.8569	 0.0019932	   11.8377	0.00197991	   11.8237	0.00198799	   11.8395	0.00198703	   11.8395	   49.6758	
   11.8436	0.00200064	   11.8241	0.00198736	   11.8098	0.00199527	   11.8258	0.00199442	   11.8258	   49.8605	
   11.8298	0.00200791	   11.8097	0.00199469	   11.7952	 0.0020024	   11.8116	0.00200167	   11.8116	   50.0417	
   11.8156	0.00201493	   11.7948	0.00200185	   11.7804	0.00200933	   11.7969	0.00200871	   11.7969	   50.2176	
    11.801	0.00202182	   11.7793	0.00200891	   11.7648	0.00201614	   11.7817	0.00201562	   11.7817	   50.3906	
   11.7858	0.00202878	   11.7635	0.00201596	   11.7489	0.00202294	   11.7661	0.00202256	   11.7661	   50.5639	
     11.77	0.00203577	   11.7473	0.00202299	   11.7323	0.00202972	   11.7499	0.00202949	   11.7499	   50.7374	
   11.7535	0.00204261	   11.7306	 0.0020299	   11.7153	0.00203636	   11.7331	0.00203629	   11.7331	   50.9072	
   11.7364	0.00204921	   11.7137	0.00203658	   11.6979	0.00204281	    11.716	0.00204287	    11.716	   51.0717	
   11.7191	0.00205571	   11.6962	0.00204311	     11.68	0.00204916	   11.6984	0.00204933	   11.6984	   51.2332	
   11.7013	0.00206226	   11.6782	0.00204959	   11.6618	0.00205551	   11.6804	0.00205579	   11.6804	   51.3947	
   11.6831	0.00206878	   11.6598	0.00205606	    11.643	0.00206181	    11.662	0.00206222	    11.662	   51.5554	
   11.6648	0.00207511	   11.6409	0.00206243	   11.6239	0.00206797	   11.6432	 0.0020685	   11.6432	   51.7126	
   11.6462	0.00208123	   11.6215	0.00206866	   11.6043	0.00207398	    11.624	0.00207462	    11.624	   51.8655	
    11.627	0.00208733	   11.6015	0.00207474	   11.5843	0.00207993	   11.6043	0.00208067	   11.6043	   52.0166	
   11.6067	0.00209346	   11.5812	0.00208073	   11.5638	0.00208586	   11.5839	0.00208668	   11.5839	   52.1671	
   11.5862	0.00209951	   11.5608	0.00208669	   11.5429	0.00209172	   11.5633	0.00209264	   11.5633	   52.3159	
   11.5652	0.00210533	     11.54	0.00209258	   11.5215	0.00209745	   11.5422	0.00209845	   11.5422	   52.4614	
   11.5438	0.00211101	   11.5187	0.00209835	   11.4997	0.00210307	   11.5207	0.00210414	   11.5207	   52.6035	
   11.5222	 0.0021167	   11.4969	0.00210396	   11.4775	0.00210864	   11.4989	0.00210976	   11.4989	   52.7441	
   11.5001	 0.0021224	   11.4746	0.00210949	   11.4551	0.00211419	   11.4766	0.00211536	   11.4766	    52.884	
   11.4775	0.00212794	   11.4519	0.00211501	   11.4322	 0.0021197	   11.4539	0.00212088	   11.4539	   53.0221	
   11.4544	0.00213328	   11.4285	0.00212046	   11.4087	0.00212508	   11.4306	0.00212627	   11.4306	   53.1568	
   11.4307	0.00213854	    11.405	0.00212575	   11.3848	0.00213035	   11.4068	0.00213155	   11.4068	   53.2887	
   11.4064	0.00214383	   11.3812	0.00213091	   11.3606	0.00213557	   11.3827	0.00213677	   11.3827	   53.4192	
   11.3819	0.00214907	   11.3568	  0.002136	   11.3361	0.00214078	   11.3583	0.00214195	   11.3583	   53.5488	
   11.3571	0.00215414	   11.3319	0.00214107	   11.3114	0.00214591	   11.3335	0.00214704	   11.3335	    53.676	
   11.3317	0.00215905	   11.3063	0.00214608	   11.2862	 0.0021509	   11.3081	0.00215201	   11.3081	   53.8003	
   11.3057	0.00216393	   11.2803	0.00215096	   11.2604	0.00215578	   11.2822	0.00215689	   11.2822	   53.9223	
   11.2791	0.00216882	   11.2546	0.00215564	   11.2343	0.00216064	    11.256	 0.0021617	    11.256	   54.0426	
   11.2521	0.00217362	    11.229	0.00216018	   11.2079	0.00216549	   11.2297	0.00216643	   11.2297	   54.1607	
   11.2248	0.00217825	   11.2026	 0.0021647	    11.181	0.00217023	   11.2028	0.00217106	   11.2028	   54.2766	
   11.1971	0.00218279	   11.1753	0.00216923	   11.1535	0.00217483	   11.1753	0.00217561	   11.1753	   54.3904	
   11.1689	0.00218731	    11.147	0.00217366	   11.1255	0.00217931	   11.1471	0.00218009	   11.1471	   54.5023	
   11.1403	0.00219183	   11.1184	0.00217789	   11.0971	0.00218376	   11.1186	 0.0021845	   11.1186	   54.6124	
   11.1113	0.00219623	   11.0895	0.00218202	   11.0685	0.00218821	   11.0898	0.00218882	   11.0898	   54.7205	
   11.0819	0.00220047	   11.0605	0.00218614	   11.0395	0.00219259	   11.0606	0.00219306	   11.0606	   54.8266	
    11.052	 0.0022046	   11.0311	0.00219024	   11.0099	0.00219684	    11.031	0.00219723	    11.031	   54.9307	
   11.0217	0.00220874	   11.0011	0.00219419	   10.9799	0.00220099	   11.0009	0.00220131	   11.0009	   55.0326	
    10.991	0.00221286	   10.9705	  0.002198	   10.9495	0.00220508	   10.9703	0.00220531	   10.9703	   55.1328	
   10.9599	0.00221687	   10.9394	 0.0022018	   10.9188	0.00220913	   10.9393	0.00220927	   10.9393	   55.2317	
   10.9281	0.00222075	    10.908	0.00220562	   10.8875	0.00221313	   10.9079	0.00221317	   10.9079	   55.3292	
    10.896	0.00222456	   10.8763	0.00220934	   10.8557	0.00221701	    10.876	0.00221697	    10.876	   55.4243	
   10.8633	0.00222836	    10.844	0.00221287	   10.8235	 0.0022208	   10.8436	0.00222068	   10.8436	   55.5169	
   10.8303	0.00223211	   10.8114	0.00221628	    10.791	0.00222453	   10.8109	0.00222431	   10.8109	   55.6076	
    10.797	0.00223573	   10.7783	0.00221969	   10.7581	0.00222822	   10.7778	0.00222788	   10.7778	    55.697	
   10.7633	0.00223924	   10.7446	0.00222311	   10.7247	0.00223184	   10.7442	 0.0022314	   10.7442	   55.7849	
    10.729	0.00224269	   10.7103	 0.0022264	   10.6909	0.00223536	   10.7101	0.00223482	   10.7101	   55.8705	
   10.6944	0.00224612	   10.6757	0.00222953	   10.6567	 0.0022388	   10.6756	0.00223815	   10.6756	   55.9538	
   10.6593	0.00224947	   10.6408	0.00223257	   10.6222	0.00224218	   10.6408	0.00224141	   10.6408	   56.0352	
    10.624	0.00225268	   10.6053	0.00223562	   10.5872	0.00224551	   10.6055	 0.0022446	   10.6055	   56.1151	
   10.5881	 0.0022558	   10.5693	0.00223865	   10.5516	0.00224876	   10.5697	0.00224774	   10.5697	   56.1935	
   10.5517	 0.0022589	   10.5329	0.00224154	   10.5157	0.00225192	   10.5334	0.00225079	   10.5334	   56.2697	
    10.515	0.00226195	    10.496	0.00224427	   10.4795	0.00225499	   10.4969	0.00225374	   10.4969	   56.3434	
    10.478	 0.0022649	   10.4587	0.00224696	   10.4426	0.00225799	   10.4598	0.00225662	   10.4598	   56.4154	
   10.4404	0.00226773	   10.4207	0.00224967	   10.4052	0.00226098	   10.4221	0.00225946	   10.4221	   56.4865	
   10.4023	0.00227051	   10.3824	0.00225232	   10.3675	0.00226396	   10.3841	0.00226226	   10.3841	   56.5566	
   10.3638	0.00227326	    10.344	0.00225483	   10.3294	0.00226683	   10.3457	0.00226497	   10.3457	   56.6243	
   10.3249	0.00227592	   10.3049	0.00225718	   10.2909	0.00226954	   10.3069	0.00226755	   10.3069	   56.6887	
   10.2855	0.00227846	   10.2653	0.00225947	   10.2519	0.00227215	   10.2676	0.00227003	   10.2676	   56.7507	
   10.2458	 0.0022809	   10.2254	0.00226178	   10.2126	0.00227475	   10.2279	0.00227247	   10.2279	   56.8119	
   10.2057	0.00228331	   10.1852	0.00226406	   10.1729	0.00227733	   10.1879	 0.0022749	   10.1879	   56.8724	
   10.1653	0.00228569	   10.1445	0.00226621	   10.1325	0.00227978	   10.1474	0.00227723	   10.1474	   56.9307	
   10.1244	0.00228792	   10.1032	0.00226823	   10.0917	0.00228211	   10.1065	0.00227942	   10.1065	   56.9855	
   10.0831	   0.00229	   10.0617	0.00227019	   10.0506	0.00228439	   10.0652	0.00228152	   10.0652	   57.0381	
   10.0416	0.00229203	   10.0197	0.00227215	   10.0091	0.00228661	   10.0235	 0.0022836	   10.0235	     57.09	
   9.99961	0.00229407	   9.97722	0.00227408	    9.9671	0.00228876	   9.98131	0.00228564	   9.98131	   57.1409	
   9.95709	0.00229604	   9.93429	 0.0022759	   9.92463	0.00229083	   9.93867	0.00228759	   9.93867	   57.1897	
   9.91421	0.00229783	   9.89106	 0.0022776	   9.88193	0.00229285	   9.89573	0.00228943	   9.89573	   57.2358	
   9.87116	0.00229951	   9.84752	0.00227929	   9.83882	0.00229481	    9.8525	 0.0022912	    9.8525	   57.2801	
   9.82745	0.00230118	   9.80352	0.00228097	   9.79524	0.00229665	   9.80874	0.00229293	   9.80874	   57.3234	
   9.78328	0.00230285	   9.75918	 0.0022826	    9.7513	0.00229836	   9.76459	 0.0022946	   9.76459	   57.3651	
   9.73883	0.00230439	   9.71468	0.00228412	   9.70711	    0.0023	   9.72021	0.00229617	   9.72021	   57.4042	
     9.694	0.00230574	   9.66967	0.00228555	   9.66247	0.00230163	   9.67538	0.00229764	   9.67538	   57.4411	
    9.6487	0.00230706	   9.62421	0.00228697	   9.61737	0.00230321	   9.63009	0.00229908	   9.63009	    57.477	
   9.60303	0.00230844	   9.57841	0.00228838	     9.572	0.00230469	   9.58448	 0.0023005	   9.58448	   57.5126	
   9.55718	0.00230981	   9.53238	0.00228968	   9.52589	0.00230609	   9.53848	0.00230186	   9.53848	   57.5465	
   9.51104	0.00231096	   9.48588	0.00229089	   9.47947	0.00230743	   9.49213	0.00230309	   9.49213	   57.5774	
   9.46443	 0.0023119	   9.43903	0.00229206	   9.43287	0.00230872	   9.44544	0.00230423	   9.44544	   57.6057	
   9.41755	0.00231284	   9.39195	0.00229323	   9.38597	0.00230996	   9.39849	0.00230534	   9.39849	   57.6336	
   9.37034	0.00231388	   9.34457	0.00229432	   9.33868	0.00231113	   9.35119	0.00230644	   9.35119	    57.661	
   9.32265	0.00231487	   9.29675	0.00229528	   9.29104	0.00231219	   9.30348	0.00230745	   9.30348	   57.6861	
   9.27453	0.00231568	   9.24869	0.00229614	   9.24323	0.00231318	   9.25548	0.00230833	   9.25548	   57.7083	
   9.22619	0.00231635	   9.20043	0.00229699	   9.19515	0.00231413	   9.20726	0.00230916	   9.20726	   57.7289	
    9.1774	0.00231702	   9.15165	0.00229786	   9.14678	0.00231504	   9.15861	0.00230997	   9.15861	   57.7493	
   9.12821	0.00231771	   9.10257	0.00229864	   9.09801	0.00231587	    9.1096	0.00231074	    9.1096	   57.7685	
   9.07874	0.00231832	   9.05336	0.00229927	   9.04903	0.00231659	   9.06038	0.00231139	   9.06038	   57.7848	
   9.02881	0.00231879	   9.00357	0.00229982	   8.99974	0.00231724	   9.01071	0.00231195	   9.01071	   57.7987	
   8.97844	 0.0023192	   8.95341	 0.0023004	    8.9498	0.00231786	   8.96055	0.00231248	   8.96055	   57.8121	
   8.92782	0.00231961	     8.903	0.00230096	   8.89952	0.00231842	   8.91012	  0.002313	   8.91012	   57.8249	
   8.87687	0.00231998	   8.85212	0.00230138	   8.84898	0.00231889	   8.85932	0.00231342	   8.85932	   57.8355	
   8.82543	0.00232025	   8.80083	0.00230166	   8.79825	0.00231928	   8.80817	0.00231373	   8.80817	   57.8432	
   8.77371	 0.0023204	   8.74934	0.00230192	   8.74713	0.00231961	   8.75673	0.00231398	   8.75673	   57.8494	
   8.72167	0.00232051	   8.69761	0.00230221	   8.69558	 0.0023199	   8.70495	0.00231421	   8.70495	   57.8552	
   8.66918	0.00232062	   8.64542	0.00230243	   8.64355	0.00232011	   8.65272	0.00231439	   8.65272	   57.8597	
   8.61639	0.00232067	     8.593	0.00230251	   8.59128	0.00232022	   8.60022	0.00231447	   8.60022	   57.8617	
   8.56328	 0.0023206	   8.54024	0.00230248	   8.53859	0.00232027	   8.54737	0.00231445	   8.54737	   57.8613	
    8.5098	0.00232044	     8.487	0.00230246	    8.4855	0.00232028	    8.4941	 0.0023144	    8.4941	   57.8599	
   8.45599	0.00232026	   8.43351	0.00230245	   8.43206	0.00232025	   8.44052	0.00231432	   8.44052	    57.858	
   8.40208	0.00232007	    8.3798	0.00230235	   8.37832	0.00232013	   8.38673	0.00231418	   8.38673	   57.8545	
   8.34766	0.00231977	   8.32559	0.00230211	   8.32415	0.00231992	   8.33247	0.00231393	   8.33247	   57.8483	
   8.29291	0.00231936	    8.2711	 0.0023018	    8.2697	0.00231963	    8.2779	 0.0023136	    8.2779	     57.84	
   8.23796	0.00231888	   8.21626	0.00230151	   8.21497	0.00231929	   8.22307	0.00231323	   8.22307	   57.8307	
   8.18244	 0.0023184	   8.16094	0.00230119	   8.15973	 0.0023189	    8.1677	0.00231283	    8.1677	   57.8208	
    8.1266	0.00231789	   8.10534	0.00230078	   8.10423	0.00231845	   8.11206	0.00231237	   8.11206	   57.8093	
   8.07056	0.00231725	   8.04937	0.00230025	   8.04841	0.00231794	   8.05612	0.00231181	   8.05612	   57.7953	
   8.01404	 0.0023165	     7.993	0.00229967	   7.99211	0.00231733	   7.99971	0.00231117	   7.99971	   57.7792	
    7.9572	0.00231571	   7.93621	0.00229909	   7.93554	0.00231663	   7.94298	0.00231048	   7.94298	    57.762	
   7.90019	 0.0023149	   7.87911	0.00229845	   7.87857	0.00231588	   7.88596	0.00230974	   7.88596	   57.7436	
   7.84273	0.00231404	   7.82172	0.00229771	   7.82114	0.00231509	   7.82853	0.00230894	   7.82853	   57.7236	
   7.78497	0.00231307	   7.76361	0.00229693	   7.76348	0.00231424	   7.77069	0.00230808	   7.77069	    57.702	
   7.72705	0.00231199	   7.70518	0.00229614	   7.70559	0.00231331	    7.7126	0.00230715	    7.7126	   57.6787	
   7.66878	0.00231089	   7.64684	0.00229525	   7.64725	0.00231232	   7.65429	0.00230615	   7.65429	   57.6538	
   7.61021	0.00230975	   7.58822	0.00229425	   7.58871	0.00231125	   7.59571	0.00230508	   7.59571	   57.6271	
   7.55143	0.00230852	   7.52923	0.00229323	   7.52985	0.00231013	   7.53684	0.00230396	   7.53684	    57.599	
   7.49215	0.00230721	   7.47006	 0.0022922	   7.47059	0.00230893	    7.4776	0.00230278	    7.4776	   57.5695	
   7.43263	0.00230583	   7.41055	0.00229111	   7.41107	0.00230765	   7.41808	0.00230153	   7.41808	   57.5382	
   7.37294	 0.0023044	   7.35075	0.00228988	   7.35124	0.00230629	   7.35831	0.00230019	   7.35831	   57.5048	
    7.3128	0.00230292	   7.29082	0.00228857	   7.29105	0.00230486	   7.29822	0.00229878	   7.29822	   57.4696	
   7.25245	0.00230136	   7.23061	0.00228728	   7.23065	0.00230338	    7.2379	0.00229734	    7.2379	   57.4335	
   7.19195	 0.0022997	   7.17056	0.00228597	   7.16995	0.00230184	   7.17748	0.00229584	   7.17748	   57.3959	
   7.13103	0.00229799	   7.11007	0.00228449	   7.10892	0.00230023	   7.11667	0.00229424	   7.11667	   57.3559	
   7.06994	0.00229622	   7.04912	0.00228286	   7.04773	0.00229853	    7.0556	0.00229254	    7.0556	   57.3134	
   7.00848	 0.0022944	   6.98779	0.00228121	   6.98631	0.00229672	   6.99419	0.00229078	   6.99419	   57.2695	
   6.94665	0.00229252	    6.9261	0.00227962	   6.92461	0.00229485	   6.93245	0.00228899	   6.93245	   57.2249	
   6.88464	0.00229056	   6.86421	0.00227798	   6.86273	0.00229296	   6.87053	0.00228716	   6.87053	   57.1791	
   6.82234	0.00228852	    6.8021	0.00227618	   6.80045	0.00229104	    6.8083	0.00228525	    6.8083	   57.1312	
   6.75975	0.00228644	   6.73968	0.00227425	   6.73796	0.00228905	    6.7458	0.00228325	    6.7458	   57.0811	
   6.69702	0.00228428	   6.67694	0.00227235	   6.67507	0.00228697	   6.68301	 0.0022812	   6.68301	     57.03	
   6.63405	0.00228206	   6.61396	 0.0022705	    6.6118	0.00228479	   6.61994	0.00227912	   6.61994	    56.978	
   6.57084	0.00227979	    6.5506	0.00226856	   6.54838	0.00228253	   6.55661	0.00227696	   6.55661	    56.924	
   6.50754	0.00227746	     6.487	0.00226646	   6.48481	0.00228018	   6.49312	 0.0022747	   6.49312	   56.8675	
   6.44387	0.00227505	   6.42314	0.00226428	   6.42091	0.00227782	   6.42931	0.00227238	   6.42931	   56.8096	
   6.38003	0.00227256	   6.35911	0.00226216	   6.35693	0.00227547	   6.36535	0.00227006	   6.36535	   56.7516	
    6.3158	0.00227004	   6.29486	0.00226006	   6.29273	0.00227305	   6.30113	0.00226772	   6.30113	   56.6929	
   6.25131	0.00226748	   6.23035	0.00225783	   6.22826	 0.0022705	   6.23664	0.00226527	   6.23664	   56.6318	
   6.18657	0.00226484	   6.16567	0.00225543	   6.16369	0.00226789	   6.17197	0.00226272	   6.17197	    56.568	
   6.12164	0.00226211	   6.10064	0.00225298	   6.09876	 0.0022653	   6.10701	0.00226013	   6.10701	   56.5032	
   6.05645	0.00225933	   6.03542	0.00225059	   6.03357	0.00226268	   6.04181	0.00225753	   6.04181	   56.4383	
   5.99106	0.00225654	   5.97002	 0.0022482	   5.96827	0.00225993	   5.97645	0.00225489	   5.97645	   56.3723	
   5.92531	0.00225369	   5.90427	0.00224567	   5.90261	0.00225706	   5.91073	0.00225214	   5.91073	   56.3035	
   5.85939	0.00225073	   5.83842	0.00224299	   5.83684	0.00225413	   5.84488	0.00224928	   5.84488	   56.2321	
   5.79324	0.00224765	    5.7722	 0.0022403	   5.77077	0.00225121	   5.77873	0.00224639	   5.77873	   56.1597	
   5.72674	0.00224454	   5.70572	0.00223767	   5.70443	0.00224826	    5.7123	0.00224349	    5.7123	   56.0872	
   5.66009	0.00224143	   5.63902	0.00223499	   5.63792	0.00224519	   5.64568	0.00224054	   5.64568	   56.0134	
   5.59319	 0.0022383	   5.57224	0.00223217	   5.57106	0.00224199	   5.57883	0.00223749	   5.57883	   55.9371	
   5.52604	0.00223507	   5.50528	0.00222925	   5.50404	0.00223873	   5.51179	0.00223435	   5.51179	   55.8587	
   5.45874	0.00223175	   5.43831	0.00222635	   5.43685	0.00223547	   5.44464	0.00223119	   5.44464	   55.7797	
   5.39105	0.00222838	     5.371	0.00222347	   5.36933	0.00223214	   5.37713	  0.002228	   5.37713	   55.6999	
   5.32322	0.00222497	    5.3036	0.00222049	   5.30174	0.00222867	   5.30952	0.00222471	   5.30952	   55.6177	
    5.2551	0.00222148	   5.23595	0.00221737	   5.23384	0.00222513	   5.24163	0.00222133	   5.24163	   55.5332	
    5.1867	0.00221794	   5.16805	0.00221421	    5.1657	0.00222161	   5.17348	0.00221792	   5.17348	   55.4481	
    5.1182	0.00221437	   5.10008	0.00221111	   5.09752	0.00221807	   5.10526	0.00221452	   5.10526	   55.3629	
   5.04934	0.00221076	   5.03177	0.00220797	   5.02903	0.00221441	   5.03671	0.00221105	   5.03671	   55.2762	
   4.98031	0.00220704	   4.96333	0.00220465	   4.96033	0.00221064	   4.96799	0.00220744	   4.96799	   55.1861	
   4.91109	0.00220319	    4.8947	0.00220118	   4.89147	0.00220685	   4.89909	0.00220374	   4.89909	   55.0935	
   4.84156	0.00219931	   4.82586	0.00219771	   4.82235	0.00220303	   4.82992	0.00220002	   4.82992	   55.0004	
   4.77191	0.00219544	   4.75699	 0.0021943	   4.75307	0.00219912	   4.76066	0.00219628	   4.76066	   54.9071	
   4.70198	0.00219152	   4.68782	0.00219081	   4.68363	 0.0021951	   4.69115	0.00219247	   4.69115	   54.8119	
   4.63188	0.00218744	   4.61848	0.00218713	   4.61403	0.00219102	   4.62146	0.00218853	   4.62146	   54.7132	
   4.56168	0.00218323	   4.54903	0.00218333	   4.54445	0.00218692	   4.55172	0.00218449	   4.55172	   54.6124	
   4.49123	0.00217902	   4.47932	0.00217957	   4.47462	0.00218275	   4.48173	0.00218045	   4.48173	   54.5112	
   4.42072	0.00217483	   4.40954	0.00217581	   4.40466	 0.0021785	   4.41164	0.00217638	   4.41164	   54.4095	
   4.34996	0.00217055	   4.33956	0.00217194	   4.33445	0.00217416	   4.34133	0.00217222	   4.34133	   54.3054	
     4.279	 0.0021661	   4.26936	0.00216787	   4.26406	0.00216979	   4.27081	0.00216792	   4.27081	   54.1981	
   4.20795	0.00216159	   4.19905	0.00216373	   4.19351	0.00216538	   4.20017	0.00216357	   4.20017	   54.0891	
   4.13656	0.00215708	   4.12838	0.00215962	   4.12271	0.00216089	   4.12922	 0.0021592	   4.12922	     53.98	
    4.0651	0.00215255	   4.05762	0.00215548	   4.05177	0.00215632	   4.05816	0.00215478	   4.05816	   53.8695	
    3.9935	0.00214789	   3.98653	0.00215118	   3.98054	0.00215166	   3.98686	0.00215024	   3.98686	   53.7561	
    3.9217	 0.0021431	   3.91522	0.00214671	   3.90911	0.00214697	   3.91534	 0.0021456	   3.91534	   53.6399	
   3.84995	0.00213828	   3.84389	0.00214221	   3.83775	0.00214224	   3.84387	0.00214091	   3.84387	   53.5227	
   3.77802	0.00213345	    3.7722	0.00213772	   3.76606	0.00213743	   3.77209	 0.0021362	   3.77209	   53.4049	
   3.70599	0.00212855	   3.70035	0.00213315	    3.6943	0.00213252	   3.70021	0.00213141	   3.70021	   53.2852	
   3.63389	0.00212353	   3.62844	0.00212842	   3.62247	0.00212755	   3.62827	 0.0021265	   3.62827	   53.1626	
   3.56155	0.00211842	   3.55631	0.00212356	   3.55044	0.00212255	    3.5561	0.00212151	    3.5561	   53.0378	
   3.48909	0.00211328	   3.48414	0.00211867	   3.47837	0.00211749	   3.48387	0.00211648	   3.48387	   52.9121	
   3.41663	0.00210812	   3.41162	0.00211378	    3.4061	0.00211235	   3.41145	0.00211141	   3.41145	   52.7853	
   3.34407	0.00210287	   3.33902	0.00210878	   3.33375	0.00210709	   3.33894	0.00210625	   3.33894	   52.6562	
   3.27137	0.00209751	   3.26617	0.00210364	   3.26113	0.00210176	   3.26622	0.00210097	   3.26622	   52.5242	
   3.19852	0.00209207	   3.19312	0.00209839	   3.18832	0.00209639	   3.19332	0.00209562	   3.19332	   52.3904	
   3.12554	 0.0020866	   3.12007	0.00209312	   3.11549	0.00209098	   3.12037	0.00209023	   3.12037	   52.2559	
   3.05254	0.00208111	   3.04693	0.00208783	   3.04248	0.00208547	   3.04732	 0.0020848	   3.04732	     52.12	
   2.97942	0.00207558	   2.97373	 0.0020824	    2.9694	0.00207985	   2.97418	0.00207928	   2.97418	   51.9819	
   2.90637	0.00206996	   2.90038	0.00207684	   2.89627	0.00207417	   2.90101	0.00207366	   2.90101	   51.8415	
   2.83314	 0.0020642	   2.82691	0.00207122	   2.82292	0.00206848	   2.82766	0.00206797	   2.82766	   51.6992	
   2.75993	0.00205833	    2.7535	0.00206559	   2.74963	0.00206271	   2.75435	0.00206221	   2.75435	   51.5553	
   2.68661	0.00205244	   2.67982	 0.0020599	   2.67622	 0.0020568	   2.68088	0.00205638	   2.68088	   51.4094	
   2.61317	0.00204656	   2.60607	0.00205405	   2.60272	0.00205079	   2.60732	0.00205046	   2.60732	   51.2616	
    2.5397	0.00204062	   2.53219	0.00204808	   2.52916	0.00204474	   2.53369	0.00204448	   2.53369	    51.112	
   2.46598	0.00203453	    2.4582	0.00204208	   2.45539	0.00203865	   2.45985	0.00203842	   2.45985	   50.9605	
   2.39219	0.00202832	   2.38419	0.00203606	   2.38167	0.00203244	   2.38602	0.00203227	   2.38602	   50.8069	
   2.31824	0.00202209	   2.30994	0.00202994	   2.30783	0.00202609	     2.312	0.00202604	     2.312	    50.651	
   2.24418	0.00201586	   2.23563	0.00202369	   2.23391	0.00201967	   2.23791	0.00201974	   2.23791	   50.4935	
   2.16999	0.00200954	   2.16125	0.00201737	   2.15995	0.00201323	   2.16373	0.00201338	   2.16373	   50.3344	
   2.09565	0.00200306	    2.0867	0.00201102	   2.08587	 0.0020067	    2.0894	0.00200693	    2.0894	   50.1732	
   2.02127	 0.0019965	   2.01224	0.00200462	   2.01183	     0.002	   2.01511	0.00200037	   2.01511	   50.0093	
   1.94663	0.00198993	   1.93763	0.00199809	   1.93761	0.00199315	   1.94062	0.00199373	   1.94062	   49.8431	
   1.87191	0.00198333	   1.86299	0.00199145	   1.86332	0.00198627	   1.86607	0.00198702	   1.86607	   49.6755	
   1.79697	 0.0019766	   1.78857	0.00198475	   1.78904	 0.0019794	   1.79153	0.00198025	   1.79153	   49.5063	
   1.72185	0.00196975	   1.71395	0.00197801	   1.71456	0.00197245	   1.71679	 0.0019734	   1.71679	   49.3351	
   1.64673	0.00196283	   1.63934	0.00197119	   1.64013	0.00196533	   1.64207	0.00196645	   1.64207	   49.1613	
   1.57154	0.00195591	   1.56463	0.00196424	   1.56545	0.00195807	   1.56721	 0.0019594	   1.56721	   48.9851	
    1.4963	0.00194892	   1.48988	0.00195721	   1.49071	0.00195075	    1.4923	 0.0019523	    1.4923	   48.8074	
   1.42115	0.00194181	    1.4152	0.00195016	   1.41596	0.00194342	   1.41744	0.00194513	   1.41744	   48.6282	
   1.34582	0.00193459	   1.34034	0.00194305	   1.34111	0.00193598	   1.34242	0.00193787	   1.34242	   48.4467	
   1.27045	0.00192732	   1.26556	0.00193582	   1.26626	0.00192836	   1.26743	 0.0019305	   1.26743	   48.2625	
   1.19496	0.00192003	   1.19063	0.00192848	   1.19127	 0.0019206	   1.19229	0.00192303	   1.19229	   48.0759	
   1.11944	0.00191264	   1.11566	0.00192109	   1.11622	0.00191279	   1.11711	0.00191551	   1.11711	   47.8877	
   1.04395	0.00190512	   1.04076	0.00191367	    1.0411	0.00190498	   1.04194	0.00190792	   1.04194	   47.6981	
  0.968396	0.00189752	  0.965685	0.00190613	  0.965898	0.00189708	   0.96666	0.00190024	   0.96666	   47.5061	
  0.892881	 0.0018899	  0.890626	0.00189843	  0.890787	0.00188901	  0.891431	0.00189244	  0.891431	   47.3111	
   0.81725	0.00188222	  0.815427	0.00189063	  0.815535	0.00188079	  0.816071	0.00188455	  0.816071	   47.1137	
   0.74161	0.00187442	  0.740198	0.00188283	   0.74025	0.00187256	  0.740686	 0.0018766	  0.740686	   46.9151	
   0.66614	0.00186651	  0.664955	  0.001875	  0.664951	0.00186432	  0.665349	0.00186861	  0.665349	   46.7153	
  0.590516	0.00185852	  0.589625	0.00186706	  0.589488	0.00185599	  0.589876	0.00186053	  0.589876	   46.5131	
  0.514848	0.00185049	    0.5144	0.00185897	  0.514136	0.00184749	  0.514461	0.00185232	  0.514461	   46.3079	
  0.439129	0.00184239	   0.43924	0.00185076	  0.438711	0.00183888	  0.439027	0.00184401	  0.439027	   46.1003	
  0.363406	0.00183417	  0.364037	0.00184251	   0.36326	0.00183027	  0.363568	0.00183565	  0.363568	   45.8912	
  0.287724	0.00182582	  0.288982	0.00183422	   0.28783	0.00182162	  0.288179	0.00182722	  0.288179	   45.6805	
  0.211904	0.00181742	   0.21374	0.00182582	  0.212326	0.00181283	  0.212657	0.00181869	  0.212657	   45.4673	
  0.136148	0.00180901	  0.138586	0.00181732	   0.13693	0.00180391	  0.137221	0.00181008	  0.137221	    45.252	
 0.0604557	0.00180052	 0.0632846	0.00180872	 0.0614062	0.00179496	 0.0617155	 0.0018014	 0.0617155	   45.0351	
-0.0152407	0.00179189	-0.0120557	0.00180009	-0.0141377	0.00178605	-0.0138114	0.00179268	-0.0138114	   44.8169	
-0.0909242	0.00178317	-0.0873349	 0.0017914	-0.0896026	0.00177708	-0.0892873	0.00178388	-0.0892873	   44.5971	
  -0.16667	0.00177442	 -0.162641	0.00178261	 -0.165077	0.00176796	 -0.164796	0.00177499	 -0.164796	   44.3749	
 -0.242367	 0.0017656	  -0.23786	0.00177371	 -0.240449	0.00175869	 -0.240225	  0.001766	 -0.240225	   44.1501	
 -0.318038	0.00175664	 -0.313174	0.00176473	   -0.3159	 0.0017494	 -0.315704	0.00175693	 -0.315704	   43.9232	
 -0.393633	0.00174757	 -0.388534	0.00175568	 -0.391382	0.00174014	 -0.391183	 0.0017478	 -0.391183	   43.6949	
 -0.469063	0.00173847	 -0.463757	0.00174656	 -0.466714	0.00173081	 -0.466511	0.00173861	 -0.466511	   43.4653	
 -0.544434	0.00172933	 -0.539168	0.00173737	 -0.542073	0.00172134	 -0.541892	0.00172935	 -0.541892	   43.2336	
 -0.619711	0.00172006	  -0.61449	0.00172808	 -0.617344	0.00171177	 -0.617182	0.00171997	 -0.617182	   42.9992	
 -0.694783	0.00171064	 -0.689903	0.00171868	 -0.692563	 0.0017022	 -0.692417	0.00171051	 -0.692417	   42.7626	
 -0.769917	0.00170114	 -0.765359	 0.0017092	 -0.767756	0.00169262	 -0.767677	0.00170099	 -0.767677	   42.5247	
  -0.84492	0.00169166	 -0.840664	0.00169965	 -0.842819	0.00168294	 -0.842801	0.00169142	 -0.842801	   42.2855	
  -0.91996	0.00168215	 -0.915989	0.00169001	  -0.91792	0.00167313	 -0.917957	0.00168177	 -0.917957	   42.0441	
 -0.994942	0.00167251	 -0.991238	0.00168027	 -0.992963	0.00166325	 -0.993048	0.00167201	 -0.993048	   41.8002	
  -1.06985	 0.0016627	   -1.0664	0.00167042	  -1.06794	0.00165338	  -1.06806	0.00166217	  -1.06806	   41.5542	
  -1.14486	0.00165282	  -1.14163	0.00166051	    -1.143	0.00164346	  -1.14316	0.00165227	  -1.14316	   41.3066	
  -1.21976	0.00164294	  -1.21684	0.00165055	  -1.21796	0.00163343	  -1.21819	 0.0016423	  -1.21819	   41.0576	
  -1.29474	0.00163302	  -1.29202	0.00164047	  -1.29286	0.00162328	  -1.29321	0.00163225	  -1.29321	   40.8063	
  -1.36968	0.00162296	  -1.36715	0.00163024	  -1.36773	0.00161308	  -1.36819	 0.0016221	  -1.36819	   40.5524	
  -1.44461	0.00161275	  -1.44212	0.00161993	  -1.44238	0.00160286	  -1.44304	0.00161185	  -1.44304	   40.2963	
  -1.51956	0.00160251	  -1.51709	0.00160962	  -1.51717	0.00159259	  -1.51794	0.00160157	  -1.51794	   40.0393	
  -1.59435	0.00159232	  -1.59198	0.00159926	  -1.59181	0.00158221	  -1.59271	0.00159126	  -1.59271	   39.7815	
  -1.66913	0.00158204	  -1.66677	0.00158875	  -1.66647	0.00157173	  -1.66746	0.00158084	  -1.66746	    39.521	
  -1.74391	0.00157153	  -1.74156	 0.0015781	  -1.74113	0.00156116	   -1.7422	0.00157027	   -1.7422	   39.2567	
  -1.81858	0.00156089	  -1.81616	0.00156739	  -1.81555	0.00155055	  -1.81676	0.00155961	  -1.81676	   38.9903	
   -1.8933	0.00155029	  -1.89081	0.00155666	  -1.88997	 0.0015399	  -1.89136	0.00154895	  -1.89136	   38.7238	
   -1.9679	0.00153972	  -1.96535	0.00154587	  -1.96429	0.00152919	  -1.96585	0.00153826	  -1.96585	   38.4565	
  -2.04245	0.00152897	  -2.03976	0.00153494	  -2.03852	0.00151837	  -2.04025	0.00152743	  -2.04025	   38.1857	
  -2.11702	0.00151798	  -2.11422	0.00152389	  -2.11275	0.00150744	  -2.11466	0.00151644	  -2.11466	   37.9109	
  -2.19137	0.00150692	  -2.18845	 0.0015128	  -2.18686	0.00149644	  -2.18889	0.00150538	  -2.18889	   37.6346	
  -2.26568	0.00149592	  -2.26252	0.00150168	  -2.26083	0.00148539	  -2.26301	0.00149433	  -2.26301	   37.3583	
  -2.33991	0.00148488	  -2.33654	0.00149047	  -2.33477	0.00147428	  -2.33707	0.00148321	  -2.33707	   37.0802	
   -2.4139	0.00147363	   -2.4104	0.00147912	   -2.4085	0.00146305	  -2.41093	0.00147193	  -2.41093	   36.7983	
  -2.48798	0.00146217	  -2.48429	0.00146767	  -2.48228	0.00145171	  -2.48485	0.00146052	  -2.48485	   36.5129	
   -2.5619	0.00145066	  -2.55803	0.00145619	  -2.55593	0.00144031	  -2.55862	0.00144905	  -2.55862	   36.2263	
  -2.63565	0.00143921	  -2.63155	0.00144466	  -2.62939	0.00142886	   -2.6322	0.00143758	   -2.6322	   35.9395	
  -2.70941	0.00142771	  -2.70503	0.00143302	  -2.70289	0.00141733	  -2.70578	0.00142602	  -2.70578	   35.6506	
    -2.783	0.00141599	  -2.77837	0.00142124	  -2.77618	0.00140568	  -2.77918	 0.0014143	  -2.77918	   35.3576	
  -2.85653	0.00140408	  -2.85168	0.00140938	  -2.84947	0.00139392	  -2.85256	0.00140246	  -2.85256	   35.0614	
  -2.92998	0.00139217	  -2.92494	0.00139747	  -2.92272	0.00138209	  -2.92588	0.00139058	  -2.92588	   34.7644	
  -3.00317	0.00138031	  -2.99803	0.00138551	  -2.99581	0.00137021	    -2.999	0.00137868	    -2.999	   34.4669	
  -3.07645	0.00136832	  -3.07115	0.00137343	  -3.06894	0.00135822	  -3.07218	0.00136666	  -3.07218	   34.1664	
  -3.14956	0.00135608	  -3.14412	0.00136123	  -3.14194	0.00134609	   -3.1452	0.00135447	   -3.1452	   33.8617	
  -3.22258	 0.0013437	  -3.21686	0.00134898	  -3.21473	0.00133385	  -3.21806	0.00134218	  -3.21806	   33.5544	
  -3.29551	0.00133137	  -3.28964	0.00133669	  -3.28756	0.00132156	   -3.2909	0.00132987	   -3.2909	   33.2469	
  -3.36821	0.00131904	   -3.3622	0.00132433	  -3.36017	0.00130925	  -3.36353	0.00131754	  -3.36353	   32.9385	
  -3.44075	0.00130653	  -3.43463	0.00131184	  -3.43259	0.00129684	  -3.43599	0.00130507	  -3.43599	   32.6268	
  -3.51323	0.00129381	  -3.50695	0.00129926	  -3.50499	0.00128425	  -3.50839	0.00129244	  -3.50839	    32.311	
   -3.5854	0.00128103	  -3.57907	0.00128663	  -3.57711	0.00127155	  -3.58053	0.00127974	  -3.58053	   31.9934	
  -3.65748	0.00126831	  -3.65105	0.00127394	  -3.64903	0.00125883	  -3.65252	0.00126703	  -3.65252	   31.6757	
  -3.72945	0.00125552	  -3.72293	0.00126117	  -3.72087	 0.0012461	  -3.72442	0.00125426	  -3.72442	   31.3566	
   -3.8012	0.00124253	  -3.79448	0.00124829	  -3.79247	0.00123327	  -3.79605	0.00124136	  -3.79605	   31.0341	
  -3.87294	0.00122939	  -3.86604	0.00123531	  -3.86409	0.00122028	  -3.86769	0.00122833	  -3.86769	   30.7081	
   -3.9445	0.00121623	  -3.93746	0.00122229	  -3.93557	0.00120719	  -3.93917	0.00121524	  -3.93917	   30.3809	
   -4.0158	 0.0012031	  -4.00874	0.00120921	  -4.00675	0.00119409	  -4.01043	0.00120213	  -4.01043	   30.0533	
  -4.08705	0.00118987	   -4.0799	0.00119603	  -4.07799	0.00118095	  -4.08165	0.00118895	  -4.08165	   29.7237	
  -4.15816	0.00117646	  -4.15086	0.00118274	  -4.14904	 0.0011677	  -4.15269	0.00117563	  -4.15269	   29.3908	
  -4.22903	0.00116293	  -4.22161	0.00116938	  -4.21973	0.00115433	  -4.22346	0.00116221	  -4.22346	   29.0553	
  -4.29986	0.00114941	  -4.29228	0.00115597	  -4.29028	0.00114087	  -4.29414	0.00114875	  -4.29414	   28.7187	
  -4.37043	0.00113588	   -4.3627	0.00114249	  -4.36061	0.00112738	  -4.36458	0.00113525	  -4.36458	   28.3812	
  -4.44074	0.00112223	  -4.43283	 0.0011289	  -4.43082	0.00111382	   -4.4348	0.00112165	   -4.4348	   28.0413	
    -4.511	0.00110842	  -4.50286	0.00111522	  -4.50095	0.00110013	  -4.50494	0.00110792	  -4.50494	   27.6981	
  -4.58104	0.00109454	  -4.57263	0.00110149	  -4.57081	0.00108631	  -4.57483	0.00109411	  -4.57483	   27.3528	
  -4.65092	0.00108067	  -4.64221	0.00108771	  -4.64057	0.00107245	  -4.64457	0.00108027	  -4.64457	   27.0069	
   -4.7207	0.00106675	  -4.71174	0.00107385	  -4.71027	0.00105856	  -4.71424	0.00106639	  -4.71424	   26.6597	
  -4.79015	0.00105271	  -4.78099	0.00105989	  -4.77968	0.00104458	  -4.78361	0.00105239	  -4.78361	   26.3098	
  -4.85942	0.00103853	  -4.85009	0.00104582	  -4.84888	0.00103046	   -4.8528	0.00103827	   -4.8528	   25.9567	
  -4.92858	0.00102433	  -4.91912	0.00103167	  -4.91801	0.00101624	   -4.9219	0.00102408	   -4.9219	    25.602	
  -4.99739	0.00101015	  -4.98784	0.00101747	  -4.98682	  0.001002	  -4.99068	0.00100987	  -4.99068	   25.2468	
  -5.06606	0.000995892	  -5.05644	0.00100323	  -5.05529	0.000987713	  -5.05927	0.000995612	  -5.05927	   24.8903	
  -5.13446	0.000981443	  -5.12496	0.000988947	  -5.12369	0.000973316	   -5.1277	0.000981235	   -5.1277	   24.5309	
  -5.20228	0.000966839	  -5.19324	0.000974567	  -5.19178	 0.0009588	  -5.19577	0.000966736	  -5.19577	   24.1684	
  -5.26979	0.000952256	  -5.26134	0.000960078	  -5.25958	0.000944222	  -5.26357	0.000952185	  -5.26357	   23.8046	
  -5.33772	0.000937759	  -5.32933	0.000945551	  -5.32723	0.000929617	  -5.33143	0.000937643	  -5.33143	   23.4411	
  -5.40587	0.000923192	    -5.397	0.000930991	   -5.3946	0.000914946	  -5.39916	0.000923043	  -5.39916	   23.0761	
  -5.47399	0.000908399	  -5.46446	 0.0009163	  -5.46155	0.000900162	  -5.46667	0.000908287	  -5.46667	   22.7072	
  -5.54157	0.000893453	  -5.53182	0.000901453	  -5.52838	0.000885288	  -5.53392	0.000893398	  -5.53392	   22.3349	
  -5.60878	0.000878547	  -5.59885	0.000886557	  -5.59495	0.000870371	  -5.60086	0.000878492	  -5.60086	   21.9623	
  -5.67593	0.000863699	  -5.66565	0.000871699	   -5.6612	0.000855422	  -5.66759	0.000863607	  -5.66759	   21.5902	
  -5.74294	0.000848727	  -5.73236	0.000856794	  -5.72735	0.000840384	  -5.73421	0.000848635	  -5.73421	   21.2159	
  -5.80958	0.000833549	  -5.79876	0.000841716	  -5.79326	0.000825222	  -5.80053	0.000833496	  -5.80053	   20.8374	
  -5.87583	0.000818302	  -5.86497	0.000826492	  -5.85888	0.000809994	  -5.86656	0.000818263	  -5.86656	   20.4566	
   -5.9419	0.000803111	  -5.93104	0.000811237	  -5.92436	0.000794769	  -5.93243	0.000803039	  -5.93243	    20.076	
  -6.00765	0.000787919	  -5.99683	0.000795978	  -5.98964	0.000779517	  -5.99804	0.000787804	  -5.99804	   19.6951	
  -6.07321	0.00077259	   -6.0622	0.000780681	  -6.05465	0.00076413	  -6.06336	0.000772467	  -6.06336	   19.3117	
   -6.1387	0.000757123	  -6.12747	0.000765314	  -6.11956	0.000748604	  -6.12858	0.000757014	  -6.12858	   18.9253	
  -6.20389	0.000741631	   -6.1925	0.000749884	  -6.18428	0.000733043	  -6.19356	0.00074152	  -6.19356	    18.538	
  -6.26873	0.000726173	  -6.25715	0.000734367	  -6.24862	0.000717507	  -6.25817	0.000726016	  -6.25817	   18.1504	
  -6.33337	0.000710674	  -6.32165	0.000718745	  -6.31278	0.000701916	   -6.3226	0.000710445	   -6.3226	   17.7611	
  -6.39777	0.000695055	  -6.38595	0.000703068	  -6.37681	0.000686181	  -6.38684	0.000694768	  -6.38684	   17.3692	
   -6.4618	0.000679344	  -6.44984	0.00068739	  -6.44049	0.000670341	  -6.45071	0.000679025	  -6.45071	   16.9756	
  -6.52556	0.00066362	  -6.51336	0.000671677	  -6.50393	0.000654494	  -6.51428	0.000663264	  -6.51428	   16.5816	
  -6.58914	0.000647901	  -6.57667	0.000655866	  -6.56728	0.000638648	   -6.5777	0.000647472	   -6.5777	   16.1868	
  -6.65233	0.000632112	  -6.63972	0.000639979	  -6.63035	0.000622724	   -6.6408	0.000631605	   -6.6408	   15.7901	
  -6.71512	0.000616211	  -6.70242	0.00062407	  -6.69309	0.000606675	  -6.70354	0.000615652	  -6.70354	   15.3913	
  -6.77773	0.000600259	  -6.76505	0.00060814	  -6.75573	0.00059056	  -6.76617	0.000599653	  -6.76617	   14.9913	
  -6.84004	0.000584313	  -6.82742	0.000592137	  -6.81815	0.000574451	  -6.82854	0.000583634	  -6.82854	   14.5908	
  -6.90193	0.000568333	  -6.88933	0.000576053	  -6.88014	0.000558323	  -6.89047	0.00056757	  -6.89047	   14.1892	
  -6.96364	0.000552244	  -6.95101	0.000559933	  -6.94185	0.000542105	  -6.95217	0.000551427	  -6.95217	   13.7857	
  -7.02514	0.000536069	  -7.01252	0.000543811	  -7.00342	0.000525801	  -7.01369	0.000535227	  -7.01369	   13.3807	
  -7.08623	0.000519883	  -7.07365	0.000527657	  -7.06465	0.000509482	  -7.07484	0.000519007	  -7.07484	   12.9752	
  -7.14701	0.000503703	  -7.13437	0.00051143	  -7.12549	0.000493163	  -7.13563	0.000502765	  -7.13563	   12.5691	
   -7.2076	0.000487474	  -7.19493	0.000495133	  -7.18604	0.000476782	  -7.19619	0.000486463	  -7.19619	   12.1616	
  -7.26788	0.000471166	  -7.25522	0.000478806	  -7.24636	0.000460302	  -7.25649	0.000470091	  -7.25649	   11.7523	
  -7.32774	0.000454815	  -7.31512	0.000462468	  -7.30625	0.000443772	  -7.31637	0.000453685	  -7.31637	   11.3421	
  -7.38741	0.000438462	   -7.3748	0.000446091	  -7.36579	0.000427231	    -7.376	0.000437261	    -7.376	   10.9315	
  -7.44689	0.000422098	   -7.4343	0.000429648	  -7.42522	0.000410661	  -7.43547	0.000420802	  -7.43547	   10.5201	
  -7.50597	0.000405676	  -7.49345	0.00041316	  -7.48432	0.000394024	  -7.49458	0.000404287	  -7.49458	   10.1072	
  -7.56457	0.000389179	  -7.55222	0.000396657	  -7.54301	0.000377321	  -7.55327	0.000387719	  -7.55327	   9.69297	
  -7.62301	0.000372651	  -7.61076	0.000380123	  -7.60145	0.000360585	  -7.61174	0.00037112	  -7.61174	   9.27799	
  -7.68119	0.000356127	    -7.669	0.000363525	   -7.6597	0.000343845	  -7.66996	0.000354499	  -7.66996	   8.86247	
  -7.73901	0.000339578	  -7.72692	0.000346857	  -7.71758	0.000327083	  -7.72784	0.000337839	  -7.72784	   8.44598	
  -7.79652	0.000322954	  -7.78446	0.000330159	  -7.77499	0.000310272	  -7.78532	0.000321128	  -7.78532	   8.02821	
  -7.85381	0.000306263	  -7.84192	0.000313453	  -7.83219	0.000293422	  -7.84264	0.000304379	  -7.84264	   7.60949	
   -7.9108	0.000289561	  -7.89901	0.000296716	  -7.88916	0.000276561	  -7.89966	0.000287613	  -7.89966	   7.19031	
  -7.96731	0.000272855	  -7.95581	0.000279922	  -7.94573	0.000259702	  -7.95628	0.000270827	  -7.95628	   6.77066	
  -8.02348	0.000256097	   -8.0122	0.000263076	  -8.00202	0.00024282	  -8.01257	0.000253998	  -8.01257	   6.34994	
  -8.07942	0.000239275	  -8.06813	0.000246211	  -8.05807	0.000225883	  -8.06854	0.000237123	  -8.06854	   5.92808	
  -8.13503	0.000222443	  -8.12385	0.000229353	  -8.11386	0.000208909	  -8.12425	0.000220235	  -8.12425	   5.50587	
  -8.19033	0.000205622	  -8.17942	0.000212473	  -8.16929	0.000191952	  -8.17968	0.000203349	  -8.17968	   5.08372	
  -8.24547	0.000188759	  -8.23471	0.000195534	  -8.22429	0.000175024	  -8.23483	0.000186439	  -8.23483	   4.66097	
  -8.30045	0.000171818	  -8.28977	0.000178556	  -8.27894	0.000158071	  -8.28972	0.000169482	  -8.28972	   4.23704	
  -8.35507	0.000154823	  -8.34442	0.000161585	  -8.33335	0.000141052	  -8.34428	0.000152487	  -8.34428	   3.81216	
  -8.40935	0.000137812	  -8.39875	0.000144629	  -8.38734	0.000124006	  -8.39848	0.000135482	  -8.39848	   3.38706	
  -8.46336	0.000120782	  -8.45276	0.000127646	  -8.44092	0.000106995	  -8.45235	0.000118474	  -8.45235	   2.96185	
   -8.5172	0.000103709	   -8.5064	 0.0001106	  -8.49436	9.00011e-05	  -8.50599	0.000101437	  -8.50599	   2.53591	
  -8.57069	8.6604e-05	  -8.55974	9.35232e-05	  -8.54756	7.29578e-05	  -8.55933	8.43617e-05	  -8.55933	   2.10904	
  -8.62367	6.94861e-05	  -8.61277	7.64631e-05	  -8.60036	5.58602e-05	  -8.61226	6.72698e-05	  -8.61226	   1.68174	
  -8.67617	5.23479e-05	  -8.66533	5.94182e-05	  -8.65277	3.87718e-05	  -8.66476	5.01793e-05	  -8.66476	   1.25448	
  -8.72853	3.51662e-05	   -8.7175	4.23483e-05	  -8.70498	2.17306e-05	    -8.717	3.30817e-05	    -8.717	  0.827043	
   -8.7806	1.79448e-05	  -8.76941	2.5247e-05	   -8.7569	4.69898e-06	  -8.76897	1.59636e-05	  -8.76897	   0.39909	
   -8.8322	7.17141e-07	   -8.8209	8.14417e-06	  -8.80845	-1.2376e-05	  -8.82052	-1.17157e-06	  -8.82052	-0.0292893	
  -8.88338	-1.65039e-05	  -8.87184	-8.97343e-06	  -8.85958	-2.94809e-05	   -8.8716	-1.83194e-05	   -8.8716	 -0.457985	
  -8.93439	-3.37428e-05	  -8.92217	-2.61568e-05	  -8.91034	-4.65599e-05	   -8.9223	-3.54865e-05	   -8.9223	 -0.887162	
  -8.98515	-5.10181e-05	  -8.97209	-4.33762e-05	  -8.96095	-6.35952e-05	  -8.97273	-5.26632e-05	  -8.97273	  -1.31658	
  -9.03551	-6.83147e-05	  -9.02187	-6.05282e-05	  -9.01125	-8.06299e-05	  -9.02287	-6.98243e-05	  -9.02287	  -1.74561	
   -9.0854	-8.56095e-05	  -9.07183	-7.76045e-05	  -9.06109	-9.77016e-05	  -9.07277	-8.69719e-05	  -9.07277	   -2.1743	
  -9.13498	-0.000102907	  -9.12159	-9.4717e-05	  -9.11049	-0.000114783	  -9.12235	-0.000104136	  -9.12235	  -2.60339	
  -9.18431	-0.000120225	  -9.17071	-0.000111932	  -9.15957	-0.000131813	  -9.17153	-0.000121323	  -9.17153	  -3.03308	
  -9.23332	-0.00013757	  -9.21928	-0.000129167	  -9.20844	-0.000148795	  -9.22034	-0.000138511	  -9.22034	  -3.46277	
  -9.28186	-0.000154929	  -9.26738	-0.000146321	  -9.25694	-0.000165801	  -9.26873	-0.000155684	  -9.26873	   -3.8921	
  -9.33004	-0.000172273	  -9.31519	-0.000163412	  -9.30494	-0.000182883	  -9.31672	-0.000172856	  -9.31672	  -4.32139	
  -9.37797	-0.000189577	  -9.36267	-0.000180541	  -9.35248	-0.000199982	  -9.36437	-0.000190033	  -9.36437	  -4.75083	
  -9.42569	-0.000206882	  -9.41002	-0.000197732	  -9.39967	-0.000216979	  -9.41179	-0.000207197	  -9.41179	  -5.17993	
  -9.47305	-0.000224245	  -9.45701	-0.000214903	  -9.44663	-0.000233861	   -9.4589	-0.000224336	   -9.4589	  -5.60841	
  -9.51975	-0.00024163	  -9.50357	-0.000231993	  -9.49322	-0.000250756	  -9.50551	-0.00024146	  -9.50551	  -6.03649	
  -9.56598	-0.00025895	  -9.54967	-0.000249052	  -9.53931	-0.000267768	  -9.55165	-0.00025859	  -9.55165	  -6.46475	
  -9.61199	-0.000276214	  -9.59543	-0.000266157	  -9.58485	-0.00028482	  -9.59742	-0.000275731	  -9.59742	  -6.89326	
  -9.65763	-0.000293482	  -9.64083	-0.000283287	  -9.62996	-0.000301762	   -9.6428	-0.000292844	   -9.6428	  -7.32109	
  -9.70253	-0.000310816	  -9.68596	-0.000300346	  -9.67486	-0.000318541	  -9.68778	-0.000309901	  -9.68778	  -7.74752	
  -9.74635	-0.000328192	  -9.73069	-0.000317332	  -9.71943	-0.000335325	  -9.73215	-0.00032695	  -9.73215	  -8.17374	
  -9.78943	-0.000345538	   -9.7749	-0.000334333	  -9.76304	-0.000352284	  -9.77579	-0.000344052	  -9.77579	  -8.60129	
   -9.8325	-0.000362814	  -9.81855	-0.000351382	  -9.80598	-0.000369324	  -9.81901	-0.000361174	  -9.81901	  -9.02934	
  -9.87558	-0.000380026	  -9.86188	-0.000368416	  -9.84886	-0.000386223	  -9.86211	-0.000378222	  -9.86211	  -9.45554	
   -9.9188	-0.000397206	  -9.90492	-0.000385386	  -9.89169	-0.000402914	  -9.90514	-0.000395168	  -9.90514	  -9.87921	
  -9.96146	-0.000414387	  -9.94763	-0.000402324	  -9.93466	-0.000419582	  -9.94792	-0.000412098	  -9.94792	  -10.3024	
  -10.0036	-0.000431558	  -9.98997	-0.000419273	  -9.97714	-0.000436393	  -9.99023	-0.000429075	  -9.99023	  -10.7269	
  -10.0449	-0.000448681	  -10.0317	-0.000436231	  -10.0191	-0.000453267	  -10.0319	-0.00044606	  -10.0319	  -11.1515	
   -10.086	-0.000465749	   -10.073	-0.000453171	  -10.0604	-0.000470008	  -10.0731	-0.000462976	  -10.0731	  -11.5744	
  -10.1267	-0.000482819	  -10.1139	-0.000470075	  -10.1014	-0.000486597	   -10.114	-0.000479831	   -10.114	  -11.9958	
  -10.1673	-0.000499902	  -10.1545	-0.000486911	  -10.1421	-0.000503189	  -10.1546	-0.000496668	  -10.1546	  -12.4167	
  -10.2073	-0.000516907	  -10.1948	-0.000503686	  -10.1824	-0.000519872	  -10.1948	-0.000513488	  -10.1948	  -12.8372	
  -10.2468	-0.000533785	  -10.2346	-0.000520445	  -10.2223	-0.00053656	  -10.2346	-0.000530264	  -10.2346	  -13.2566	
  -10.2859	-0.000550603	  -10.2738	-0.000537192	  -10.2617	-0.000553122	  -10.2738	-0.000546972	  -10.2738	  -13.6743	
  -10.3244	-0.000567484	  -10.3126	-0.000553901	  -10.3005	-0.000569573	  -10.3125	-0.000563652	  -10.3125	  -14.0913	
  -10.3627	-0.000584421	  -10.3509	-0.000570579	  -10.3389	-0.000586048	  -10.3508	-0.00058035	  -10.3508	  -14.5087	
  -10.4007	-0.00060128	  -10.3888	-0.000587228	  -10.3769	-0.00060258	  -10.3888	-0.000597029	  -10.3888	  -14.9257	
  -10.4385	-0.000617985	  -10.4264	-0.000603837	  -10.4145	-0.000619034	  -10.4265	-0.000613619	  -10.4265	  -15.3405	
  -10.4758	-0.000634629	  -10.4637	-0.000620394	  -10.4518	-0.000635306	  -10.4637	-0.00063011	  -10.4637	  -15.7527	
  -10.5126	-0.000651324	  -10.5004	-0.000636902	  -10.4887	-0.000651494	  -10.5005	-0.000646573	  -10.5005	  -16.1643	
  -10.5488	-0.00066803	  -10.5367	-0.000653358	   -10.525	-0.000667774	  -10.5368	-0.000663054	  -10.5368	  -16.5763	
  -10.5844	-0.000684626	  -10.5724	-0.000669733	  -10.5609	-0.000684121	  -10.5726	-0.000679493	  -10.5726	  -16.9873	
  -10.6198	-0.000701097	  -10.6079	-0.000686043	  -10.5965	-0.000700344	   -10.608	-0.000695828	   -10.608	  -17.3957	
  -10.6548	-0.000717546	   -10.643	-0.00070234	  -10.6317	-0.000716376	  -10.6432	-0.000712088	  -10.6432	  -17.8022	
  -10.6896	-0.000734033	  -10.6778	-0.000718611	  -10.6667	-0.000732366	  -10.6781	-0.000728337	  -10.6781	  -18.2084	
   -10.724	-0.000750475	  -10.7123	-0.000734801	  -10.7014	-0.000748455	  -10.7126	-0.000744577	  -10.7126	  -18.6144	
   -10.758	-0.000766763	  -10.7463	-0.000750904	  -10.7357	-0.000764555	  -10.7467	-0.000760741	  -10.7467	  -19.0185	
  -10.7914	-0.000782935	  -10.7799	-0.000766969	  -10.7695	-0.000780495	  -10.7802	-0.0007768	  -10.7802	    -19.42	
  -10.8243	-0.000799117	  -10.8128	-0.000783024	  -10.8027	-0.000796284	  -10.8133	-0.000792808	  -10.8133	  -19.8202	
   -10.857	-0.000815348	  -10.8452	-0.000799041	  -10.8354	-0.000812085	  -10.8458	-0.000808825	  -10.8458	  -20.2206	
  -10.8894	-0.000831506	  -10.8771	-0.000814953	  -10.8675	-0.000827953	   -10.878	-0.000824804	   -10.878	  -20.6201	
  -10.9216	-0.000847478	  -10.9088	-0.000830759	  -10.8993	-0.000843768	  -10.9099	-0.000840668	  -10.9099	  -21.0167	
  -10.9535	-0.000863326	  -10.9402	-0.00084652	  -10.9308	-0.000859423	  -10.9415	-0.000856423	  -10.9415	  -21.4106	
   -10.985	-0.000879188	  -10.9712	-0.000862289	  -10.9621	-0.000874975	  -10.9728	-0.000872151	  -10.9728	  -21.8038	
  -11.0161	-0.000895072	  -11.0019	-0.000878036	  -10.9929	-0.000890545	  -11.0036	-0.000887884	  -11.0036	  -22.1971	
  -11.0466	-0.000910852	  -11.0321	-0.000893687	  -11.0234	-0.000906137	   -11.034	-0.000903559	   -11.034	   -22.589	
  -11.0764	-0.000926463	  -11.0618	-0.000909224	  -11.0532	-0.000921633	  -11.0638	-0.000919106	  -11.0638	  -22.9777	
  -11.1057	-0.000941993	  -11.0908	-0.000924709	  -11.0826	-0.000936983	   -11.093	-0.000934562	   -11.093	   -23.364	
  -11.1345	-0.000957536	  -11.1193	-0.000940183	  -11.1112	-0.000952267	  -11.1217	-0.000949995	  -11.1217	  -23.7499	
  -11.1631	-0.000973052	  -11.1473	-0.000955604	  -11.1394	-0.000967571	  -11.1499	-0.000965409	  -11.1499	  -24.1352	
  -11.1914	-0.000988448	  -11.1749	-0.000970912	  -11.1671	-0.000982853	  -11.1778	-0.000980738	  -11.1778	  -24.5184	
  -11.2195	-0.00100373	  -11.2023	-0.000986117	  -11.1942	-0.000998004	  -11.2053	-0.000995949	  -11.2053	  -24.8987	
  -11.2472	-0.00101895	  -11.2294	-0.00100128	  -11.2211	-0.00101303	  -11.2325	-0.00101109	  -11.2325	  -25.2772	
  -11.2745	-0.00103413	  -11.2561	-0.00101643	  -11.2476	-0.00102802	  -11.2594	-0.00102619	  -11.2594	  -25.6548	
  -11.3013	-0.00104923	  -11.2824	-0.00103149	  -11.2738	-0.00104301	  -11.2858	-0.00104125	  -11.2858	  -26.0312	
  -11.3276	-0.00106425	  -11.3083	-0.00104644	  -11.2996	-0.00105795	  -11.3118	-0.00105621	  -11.3118	  -26.4053	
  -11.3533	-0.00107921	  -11.3337	-0.00106129	   -11.325	-0.00107275	  -11.3373	-0.00107108	  -11.3373	  -26.7771	
  -11.3784	-0.00109412	  -11.3586	-0.0010761	  -11.3499	-0.00108745	  -11.3623	-0.00108589	  -11.3623	  -27.1472	
  -11.4029	-0.00110892	   -11.383	-0.00109087	  -11.3742	-0.00110212	  -11.3867	-0.00110064	  -11.3867	   -27.516	
  -11.4268	-0.0011236	  -11.4068	-0.00110554	   -11.398	-0.00111679	  -11.4106	-0.00111531	  -11.4106	  -27.8828	
  -11.4501	-0.00113823	  -11.4302	-0.00112009	  -11.4212	-0.00113135	  -11.4339	-0.00112989	  -11.4339	  -28.2473	
   -11.473	-0.00115283	  -11.4531	-0.00113457	  -11.4438	-0.00114579	  -11.4567	-0.00114439	  -11.4567	  -28.6099	
  -11.4954	-0.00116731	  -11.4756	 -0.001149	   -11.466	-0.00116014	   -11.479	-0.00115882	   -11.479	  -28.9705	
  -11.5174	-0.00118165	  -11.4978	-0.00116335	  -11.4876	-0.00117448	  -11.5009	-0.00117316	  -11.5009	   -29.329	
  -11.5389	-0.00119589	  -11.5196	-0.0011776	  -11.5087	-0.00118877	  -11.5224	-0.00118742	  -11.5224	  -29.6854	
  -11.5602	-0.0012101	   -11.541	-0.00119174	  -11.5293	-0.00120293	  -11.5435	-0.00120159	  -11.5435	  -30.0398	
  -11.5811	-0.00122426	  -11.5621	-0.00120579	  -11.5496	-0.00121697	  -11.5643	-0.00121567	  -11.5643	  -30.3918	
  -11.6017	-0.00123828	  -11.5829	-0.00121978	  -11.5696	-0.00123093	  -11.5847	-0.00122966	  -11.5847	  -30.7416	
  -11.6219	-0.00125218	  -11.6033	-0.00123373	  -11.5894	-0.00124486	  -11.6049	-0.00124359	  -11.6049	  -31.0898	
  -11.6417	-0.00126601	  -11.6231	-0.00124758	  -11.6088	-0.00125869	  -11.6245	-0.00125743	  -11.6245	  -31.4358	
   -11.661	-0.00127979	  -11.6423	-0.00126123	  -11.6279	-0.00127237	  -11.6437	-0.00127113	  -11.6437	  -31.7783	
  -11.6798	-0.00129349	  -11.6611	-0.00127471	  -11.6464	-0.00128597	  -11.6624	-0.00128472	  -11.6624	  -32.1181	
  -11.6981	-0.00130707	  -11.6793	-0.00128823	  -11.6639	-0.00129958	  -11.6804	-0.00129829	  -11.6804	  -32.4574	
  -11.7159	-0.00132056	  -11.6968	-0.00130184	  -11.6809	-0.00131314	  -11.6979	-0.00131185	  -11.6979	  -32.7963	
  -11.7331	-0.00133399	  -11.7138	-0.00131531	  -11.6978	-0.00132651	  -11.7149	-0.00132527	  -11.7149	  -33.1318	
  -11.7498	-0.00134734	  -11.7306	-0.00132848	  -11.7149	-0.00133967	  -11.7318	-0.0013385	  -11.7318	  -33.4625	
  -11.7659	-0.0013606	  -11.7472	-0.00134149	  -11.7317	-0.00135279	  -11.7483	-0.00135163	  -11.7483	  -33.7907	
  -11.7814	-0.00137375	  -11.7633	-0.00135458	  -11.7477	-0.00136597	  -11.7641	-0.00136477	  -11.7641	  -34.1192	
  -11.7963	-0.00138681	  -11.7786	-0.00136771	  -11.7631	-0.00137909	  -11.7794	-0.00137787	  -11.7794	  -34.4468	
  -11.8106	-0.0013998	  -11.7935	-0.00138067	  -11.7781	-0.00139197	  -11.7941	-0.00139081	  -11.7941	  -34.7703	
  -11.8244	-0.0014127	  -11.8078	-0.00139334	  -11.7925	-0.00140463	  -11.8082	-0.00140356	  -11.8082	   -35.089	
  -11.8375	-0.0014255	  -11.8218	-0.00140594	  -11.8064	-0.0014173	  -11.8219	-0.00141624	  -11.8219	  -35.4061	
  -11.8502	-0.00143819	  -11.8354	-0.00141861	  -11.8197	-0.00143001	  -11.8351	-0.00142894	  -11.8351	  -35.7234	
  -11.8624	-0.0014508	  -11.8484	-0.00143126	  -11.8325	-0.00144262	  -11.8478	-0.00144156	  -11.8478	   -36.039	
  -11.8742	-0.00146333	   -11.861	-0.00144369	  -11.8447	-0.00145498	    -11.86	 -0.001454	    -11.86	    -36.35	
  -11.8854	-0.00147576	   -11.873	-0.00145592	  -11.8564	-0.00146718	  -11.8716	-0.00146629	  -11.8716	  -36.6572	
  -11.8964	-0.00148809	  -11.8844	-0.00146811	  -11.8676	-0.00147941	  -11.8828	-0.00147854	  -11.8828	  -36.9635	
   -11.907	-0.00150034	  -11.8953	-0.00148035	  -11.8783	-0.00149166	  -11.8935	-0.00149078	  -11.8935	  -37.2696	
  -11.9175	-0.00151246	  -11.9056	-0.00149251	  -11.8884	-0.00150378	  -11.9038	-0.00150292	  -11.9038	  -37.5729	
  -11.9278	-0.00152447	  -11.9155	-0.00150445	   -11.898	-0.00151566	  -11.9138	-0.00151486	  -11.9138	  -37.8715	
  -11.9377	-0.00153641	   -11.925	-0.00151624	  -11.9072	-0.00152741	  -11.9233	-0.00152669	  -11.9233	  -38.1671	
   -11.947	-0.0015483	  -11.9339	-0.00152804	  -11.9159	-0.00153918	  -11.9323	-0.00153851	  -11.9323	  -38.4627	
  -11.9558	-0.00156008	  -11.9422	-0.00153985	  -11.9243	-0.00155091	  -11.9407	-0.00155028	  -11.9407	   -38.757	
  -11.9641	-0.00157173	  -11.9499	-0.00155151	  -11.9327	-0.00156244	  -11.9489	-0.00156189	  -11.9489	  -39.0473	
  -11.9717	-0.00158329	  -11.9571	-0.00156298	  -11.9407	-0.00157377	  -11.9565	-0.00157335	  -11.9565	  -39.3337	
  -11.9787	-0.00159482	  -11.9639	-0.00157439	  -11.9479	-0.00158508	  -11.9635	-0.00158477	  -11.9635	  -39.6192	
  -11.9854	-0.00160626	  -11.9701	-0.00158582	  -11.9545	-0.0015964	    -11.97	-0.00159616	    -11.97	   -39.904	
  -11.9921	-0.00161752	  -11.9758	-0.00159721	  -11.9609	-0.00160759	  -11.9763	-0.00160744	  -11.9763	   -40.186	
  -11.9982	-0.00162863	  -11.9811	-0.00160842	  -11.9665	-0.00161858	  -11.9819	-0.00161854	  -11.9819	  -40.4636	
  -12.0037	-0.00163969	   -11.986	-0.00161944	  -11.9716	-0.00162947	  -11.9871	-0.00162953	  -11.9871	  -40.7383	
  -12.0087	-0.00165074	  -11.9904	-0.0016304	  -11.9763	-0.00164033	  -11.9918	-0.00164049	  -11.9918	  -41.0123	
  -12.0131	-0.00166167	  -11.9945	-0.00164139	  -11.9808	-0.00165113	  -11.9961	-0.0016514	  -11.9961	  -41.2849	
  -12.0172	-0.00167244	  -11.9982	-0.00165232	  -11.9848	-0.00166178	       -12	-0.00166218	       -12	  -41.5545	
  -12.0207	-0.00168312	  -12.0015	-0.00166305	   -11.988	-0.0016723	  -12.0034	-0.00167282	  -12.0034	  -41.8206	
  -12.0241	-0.00169378	  -12.0044	-0.00167362	  -11.9905	-0.00168275	  -12.0063	-0.00168338	  -12.0063	  -42.0845	
  -12.0269	-0.00170434	  -12.0071	-0.0016842	  -11.9925	-0.00169314	  -12.0088	-0.00169389	  -12.0088	  -42.3474	
  -12.0292	-0.00171475	  -12.0094	-0.00169482	   -11.994	-0.00170342	  -12.0109	-0.00170433	  -12.0109	  -42.6083	
  -12.0311	-0.00172506	  -12.0115	-0.00170529	  -11.9951	-0.00171358	  -12.0126	-0.00171464	  -12.0126	  -42.8661	
  -12.0324	-0.00173534	  -12.0131	-0.00171549	  -11.9959	-0.00172366	  -12.0138	-0.00172483	  -12.0138	  -43.1208	
  -12.0331	-0.00174556	  -12.0144	-0.00172557	  -11.9963	-0.00173371	  -12.0146	-0.00173495	  -12.0146	  -43.3737	
  -12.0336	-0.00175564	  -12.0151	-0.00173572	  -11.9962	-0.00174366	   -12.015	-0.00174501	   -12.015	  -43.6252	
  -12.0335	-0.00176555	  -12.0154	-0.00174589	  -11.9958	-0.00175348	  -12.0149	-0.00175497	  -12.0149	  -43.8743	
   -12.033	-0.00177536	  -12.0153	-0.00175585	  -11.9948	-0.00176317	  -12.0144	-0.00176479	  -12.0144	  -44.1198	
   -12.032	-0.00178516	  -12.0146	-0.00176556	  -11.9934	-0.00177277	  -12.0134	-0.0017745	  -12.0134	  -44.3625	
  -12.0306	-0.0017949	  -12.0132	-0.00177521	  -11.9916	-0.00178232	  -12.0118	-0.00178414	  -12.0118	  -44.6036	
  -12.0284	-0.00180449	  -12.0112	-0.00178491	  -11.9892	-0.00179182	  -12.0096	-0.00179374	  -12.0096	  -44.8436	
  -12.0257	-0.00181392	  -12.0086	-0.00179456	  -11.9864	-0.00180126	  -12.0069	-0.00180325	  -12.0069	  -45.0811	
  -12.0224	-0.00182329	  -12.0054	-0.00180394	  -11.9831	-0.00181054	  -12.0036	-0.00181259	  -12.0036	  -45.3147	
  -12.0185	-0.00183263	  -12.0018	-0.0018131	  -11.9795	-0.00181962	  -11.9999	-0.00182178	  -11.9999	  -45.5445	
  -12.0143	-0.00184185	  -11.9974	-0.00182227	  -11.9753	-0.00182858	  -11.9957	-0.0018309	  -11.9957	  -45.7725	
  -12.0096	-0.00185091	  -11.9921	-0.00183157	  -11.9709	-0.00183757	  -11.9909	-0.00184002	  -11.9909	  -46.0004	
  -12.0046	-0.00185988	  -11.9863	-0.00184081	  -11.9663	-0.00184658	  -11.9857	-0.00184909	  -11.9857	  -46.2273	
  -11.9992	-0.00186883	  -11.9802	-0.00184975	  -11.9612	-0.00185543	  -11.9802	-0.00185801	  -11.9802	  -46.4502	
  -11.9935	-0.00187769	  -11.9743	-0.00185844	  -11.9557	-0.00186405	  -11.9745	-0.00186673	  -11.9745	  -46.6682	
  -11.9876	-0.00188635	  -11.9682	-0.00186716	  -11.9496	-0.00187255	  -11.9684	-0.00187536	  -11.9684	  -46.8839	
  -11.9811	-0.00189489	  -11.9616	 -0.001876	  -11.9428	-0.00188108	  -11.9618	-0.00188399	  -11.9618	  -47.0997	
  -11.9741	-0.0019034	  -11.9542	-0.00188473	  -11.9355	-0.0018896	  -11.9546	-0.00189258	  -11.9546	  -47.3144	
  -11.9664	-0.00191188	  -11.9462	-0.00189315	  -11.9276	-0.00189795	  -11.9468	-0.00190099	  -11.9468	  -47.5248	
  -11.9582	-0.0019202	  -11.9378	-0.00190141	  -11.9193	-0.00190607	  -11.9384	-0.00190923	  -11.9384	  -47.7307	
  -11.9494	-0.00192835	  -11.9289	-0.00190974	  -11.9106	-0.00191411	  -11.9296	-0.0019174	  -11.9296	   -47.935	
  -11.9402	-0.0019364	  -11.9197	-0.00191811	  -11.9016	-0.00192218	  -11.9205	-0.00192556	  -11.9205	  -48.1391	
  -11.9306	-0.0019444	  -11.9098	-0.00192633	  -11.8923	-0.00193018	  -11.9109	-0.00193364	  -11.9109	  -48.3409	
  -11.9206	-0.00195231	  -11.8996	-0.00193431	  -11.8824	 -0.001938	  -11.9009	-0.00194154	  -11.9009	  -48.5384	
  -11.9103	-0.00196006	  -11.8887	-0.00194218	  -11.8718	-0.00194563	  -11.8903	-0.00194929	  -11.8903	  -48.7322	
  -11.8994	-0.00196767	  -11.8773	-0.00195008	  -11.8607	-0.00195323	  -11.8792	-0.00195699	  -11.8792	  -48.9248	
  -11.8879	-0.00197521	  -11.8654	-0.00195795	   -11.849	-0.00196083	  -11.8674	-0.00196466	  -11.8674	  -49.1166	
  -11.8759	-0.00198273	   -11.853	-0.00196568	  -11.8367	-0.00196834	  -11.8552	-0.00197225	  -11.8552	  -49.3063	
  -11.8634	-0.00199013	  -11.8401	-0.00197326	   -11.824	-0.00197568	  -11.8425	-0.00197969	  -11.8425	  -49.4923	
  -11.8503	-0.00199734	  -11.8268	-0.00198077	   -11.811	-0.00198289	  -11.8294	 -0.001987	  -11.8294	  -49.6751	
  -11.8369	-0.00200443	  -11.8132	-0.00198825	  -11.7977	-0.00199008	   -11.816	-0.00199425	   -11.816	  -49.8563	
  -11.8232	-0.00201149	  -11.7994	-0.00199563	  -11.7841	-0.00199724	  -11.8022	-0.00200146	  -11.8022	  -50.0364	
  -11.8091	-0.00201854	  -11.7852	-0.00200288	  -11.7698	-0.00200429	  -11.7881	-0.00200857	  -11.7881	  -50.2143	
  -11.7949	-0.00202547	  -11.7705	-0.00201002	   -11.755	-0.00201118	  -11.7735	-0.00201555	  -11.7735	  -50.3889	
    -11.78	-0.00203219	  -11.7553	-0.0020171	  -11.7397	-0.00201798	  -11.7583	-0.00202242	  -11.7583	  -50.5606	
  -11.7646	-0.00203881	  -11.7395	-0.00202412	  -11.7238	-0.00202477	  -11.7426	-0.00202923	  -11.7426	  -50.7309	
  -11.7486	-0.00204542	  -11.7232	-0.00203107	  -11.7076	-0.00203151	  -11.7265	 -0.002036	  -11.7265	     -50.9	
  -11.7322	 -0.002052	  -11.7066	-0.00203791	  -11.6911	-0.00203812	  -11.7099	-0.00204268	  -11.7099	  -51.0669	
  -11.7153	-0.00205843	  -11.6897	-0.00204462	  -11.6742	-0.0020446	  -11.6931	-0.00204922	  -11.6931	  -51.2304	
  -11.6981	-0.00206466	  -11.6725	-0.00205124	  -11.6569	-0.00205101	  -11.6758	-0.00205564	  -11.6758	  -51.3909	
  -11.6805	-0.00207084	  -11.6549	-0.00205784	  -11.6393	-0.00205734	  -11.6582	-0.00206201	  -11.6582	  -51.5502	
  -11.6623	-0.00207703	  -11.6368	-0.00206439	  -11.6212	-0.0020636	  -11.6401	-0.00206834	  -11.6401	  -51.7085	
  -11.6435	-0.00208315	  -11.6182	-0.00207081	  -11.6027	-0.00206978	  -11.6214	-0.00207458	  -11.6214	  -51.8645	
  -11.6241	-0.0020891	  -11.5991	-0.00207709	  -11.5834	-0.00207588	  -11.6022	-0.00208069	  -11.6022	  -52.0172	
  -11.6044	-0.00209491	  -11.5796	-0.00208331	  -11.5636	-0.00208188	  -11.5825	-0.0020867	  -11.5825	  -52.1676	
  -11.5843	-0.00210067	  -11.5598	-0.00208954	  -11.5434	-0.00208782	  -11.5625	-0.00209268	  -11.5625	  -52.3169	
  -11.5638	-0.00210641	  -11.5394	-0.00209566	  -11.5225	-0.00209371	  -11.5419	-0.00209859	  -11.5419	  -52.4648	
  -11.5428	-0.00211206	  -11.5184	-0.00210161	  -11.5011	-0.0020995	  -11.5208	-0.00210439	  -11.5208	  -52.6097	
  -11.5211	-0.00211756	  -11.4969	-0.00210745	  -11.4794	-0.00210517	  -11.4991	-0.00211006	  -11.4991	  -52.7515	
  -11.4989	-0.00212295	  -11.4748	-0.00211326	  -11.4576	-0.00211076	  -11.4771	-0.00211566	  -11.4771	  -52.8914	
  -11.4764	-0.00212831	  -11.4525	-0.00211905	  -11.4353	-0.00211629	  -11.4547	-0.00212122	  -11.4547	  -53.0304	
  -11.4535	-0.00213363	  -11.4298	-0.00212471	  -11.4126	-0.00212175	  -11.4319	-0.00212669	  -11.4319	  -53.1673	
    -11.43	-0.00213883	  -11.4064	-0.00213019	  -11.3894	-0.00212706	  -11.4086	-0.00213203	  -11.4086	  -53.3007	
   -11.406	-0.00214391	  -11.3825	-0.00213558	  -11.3658	-0.00213225	  -11.3848	-0.00213724	  -11.3848	  -53.4311	
  -11.3815	-0.0021489	  -11.3581	-0.00214097	  -11.3416	-0.0021374	  -11.3604	-0.00214242	  -11.3604	  -53.5606	
  -11.3565	-0.00215387	  -11.3333	-0.00214633	  -11.3168	-0.00214256	  -11.3355	-0.00214759	  -11.3355	  -53.6896	
  -11.3311	-0.00215877	  -11.3082	-0.00215154	  -11.2917	-0.00214763	  -11.3103	-0.00215265	  -11.3103	  -53.8162	
  -11.3055	-0.00216354	  -11.2827	-0.00215655	  -11.2661	-0.00215256	  -11.2848	-0.00215755	  -11.2848	  -53.9388	
  -11.2793	-0.00216819	  -11.2566	-0.00216147	    -11.24	-0.00215736	  -11.2586	-0.00216234	  -11.2586	  -54.0586	
  -11.2526	-0.00217278	    -11.23	-0.0021664	  -11.2134	-0.00216208	   -11.232	-0.00216709	   -11.232	  -54.1772	
  -11.2254	-0.00217734	  -11.2029	-0.00217129	  -11.1865	-0.00216673	  -11.2049	-0.00217178	  -11.2049	  -54.2946	
  -11.1978	-0.00218182	  -11.1754	-0.00217602	  -11.1591	-0.00217131	  -11.1774	-0.00217638	  -11.1774	  -54.4096	
  -11.1698	-0.00218618	  -11.1475	-0.00218059	  -11.1313	-0.00217586	  -11.1496	-0.00218088	  -11.1496	  -54.5219	
  -11.1413	-0.00219042	   -11.119	-0.0021851	   -11.103	-0.00218036	  -11.1211	-0.00218529	  -11.1211	  -54.6323	
  -11.1121	-0.00219459	  -11.0899	-0.0021896	  -11.0743	-0.00218475	  -11.0921	-0.00218965	  -11.0921	  -54.7412	
  -11.0825	-0.00219869	  -11.0604	-0.00219404	  -11.0451	-0.00218903	  -11.0627	-0.00219392	  -11.0627	   -54.848	
  -11.0527	-0.00220272	  -11.0307	-0.00219833	  -11.0157	-0.00219326	   -11.033	-0.0021981	   -11.033	  -54.9525	
  -11.0225	-0.00220668	  -11.0003	-0.00220247	  -10.9857	-0.00219745	  -11.0028	-0.0022022	  -11.0028	   -55.055	
  -10.9916	-0.00221055	  -10.9696	-0.00220655	  -10.9551	-0.00220156	  -10.9721	-0.00220622	  -10.9721	  -55.1555	
  -10.9603	-0.00221434	  -10.9383	-0.00221063	  -10.9241	-0.00220556	  -10.9409	-0.00221018	  -10.9409	  -55.2544	
  -10.9285	-0.00221809	  -10.9067	-0.00221463	  -10.8927	-0.00220946	  -10.9093	-0.00221406	  -10.9093	  -55.3515	
  -10.8965	-0.00222174	   -10.875	-0.00221846	  -10.8609	-0.00221332	  -10.8774	-0.00221784	  -10.8774	   -55.446	
   -10.864	-0.00222529	  -10.8426	-0.00222216	  -10.8285	-0.00221711	   -10.845	-0.00222152	   -10.845	   -55.538	
  -10.8309	-0.00222877	  -10.8096	-0.00222583	  -10.7957	-0.00222081	  -10.8121	-0.00222514	  -10.8121	  -55.6284	
  -10.7974	-0.00223223	  -10.7763	-0.00222948	  -10.7626	-0.00222439	  -10.7788	-0.0022287	  -10.7788	  -55.7175	
  -10.7636	-0.0022356	  -10.7427	-0.00223302	  -10.7291	-0.0022279	  -10.7451	-0.00223218	  -10.7451	  -55.8044	
  -10.7294	-0.00223886	  -10.7087	-0.00223639	  -10.6951	-0.00223137	  -10.7111	-0.00223554	  -10.7111	  -55.8885	
  -10.6948	-0.00224205	  -10.6742	-0.00223967	  -10.6605	-0.00223476	  -10.6765	-0.00223883	  -10.6765	  -55.9707	
  -10.6596	-0.00224522	  -10.6392	-0.00224295	  -10.6256	-0.00223805	  -10.6415	-0.00224207	  -10.6415	  -56.0518	
  -10.6241	-0.00224832	  -10.6039	-0.00224619	  -10.5904	-0.00224125	  -10.6061	-0.00224525	  -10.6061	  -56.1313	
  -10.5884	-0.00225129	  -10.5681	-0.00224932	  -10.5548	-0.00224439	  -10.5704	-0.00224833	  -10.5704	  -56.2083	
  -10.5522	-0.00225416	  -10.5318	-0.0022523	  -10.5186	-0.00224745	  -10.5342	-0.0022513	  -10.5342	  -56.2825	
  -10.5155	-0.00225699	   -10.495	-0.00225521	  -10.4819	-0.00225042	  -10.4975	-0.00225421	  -10.4975	  -56.3553	
  -10.4784	-0.0022598	   -10.458	-0.00225812	   -10.445	-0.00225335	  -10.4605	-0.00225709	  -10.4605	  -56.4273	
  -10.4408	-0.00226251	  -10.4205	-0.00226097	  -10.4076	-0.00225625	   -10.423	-0.00225991	   -10.423	  -56.4977	
   -10.403	-0.00226508	  -10.3824	-0.0022637	  -10.3696	-0.00225903	   -10.385	-0.0022626	   -10.385	   -56.565	
  -10.3645	-0.00226756	  -10.3439	-0.0022663	  -10.3313	-0.0022617	  -10.3466	-0.00226519	  -10.3466	  -56.6297	
  -10.3258	-0.00227002	  -10.3051	-0.00226886	  -10.2925	-0.00226434	  -10.3078	-0.00226774	  -10.3078	  -56.6936	
  -10.2865	-0.00227242	  -10.2658	-0.0022714	  -10.2533	-0.00226695	  -10.2686	-0.00227026	  -10.2686	  -56.7565	
  -10.2469	-0.00227472	  -10.2262	-0.00227388	  -10.2136	-0.00226948	  -10.2289	-0.00227269	  -10.2289	  -56.8173	
  -10.2067	-0.00227689	  -10.1861	-0.00227624	  -10.1734	-0.00227189	  -10.1888	-0.00227501	  -10.1888	  -56.8751	
  -10.1662	-0.00227898	  -10.1459	-0.00227846	   -10.133	-0.00227425	  -10.1484	-0.00227723	  -10.1484	  -56.9308	
  -10.1255	-0.00228105	  -10.1057	-0.00228062	   -10.092	-0.00227656	  -10.1078	-0.00227941	  -10.1078	  -56.9853	
  -10.0843	-0.00228307	  -10.0651	-0.00228278	  -10.0506	-0.00227875	  -10.0667	-0.00228154	  -10.0667	  -57.0384	
  -10.0426	-0.00228496	   -10.024	-0.00228492	  -10.0089	-0.00228082	  -10.0252	-0.00228357	  -10.0252	  -57.0892	
  -10.0006	-0.00228673	   -9.9824	-0.00228692	   -9.9668	-0.00228285	  -9.98328	-0.0022855	  -9.98328	  -57.1375	
  -9.95828	-0.00228849	  -9.94046	-0.00228877	  -9.92427	-0.00228486	    -9.941	-0.00228737	    -9.941	  -57.1843	
  -9.91541	-0.00229027	  -9.89796	-0.0022906	  -9.88129	-0.0022868	  -9.89822	-0.00228922	  -9.89822	  -57.2306	
  -9.87215	-0.00229194	  -9.85469	-0.00229247	  -9.83804	-0.00228862	  -9.85496	-0.00229101	  -9.85496	  -57.2752	
  -9.82868	-0.00229342	  -9.81111	-0.00229426	  -9.79441	-0.00229035	   -9.8114	-0.00229268	   -9.8114	  -57.3169	
  -9.78468	-0.00229481	   -9.7674	-0.00229588	  -9.75022	-0.00229205	  -9.76743	-0.00229425	  -9.76743	  -57.3561	
  -9.74018	-0.00229624	  -9.72328	-0.00229738	  -9.70566	-0.00229372	  -9.72304	-0.00229578	  -9.72304	  -57.3944	
   -9.6953	-0.0022977	  -9.67929	-0.00229887	  -9.66083	-0.00229527	  -9.67847	-0.00229728	  -9.67847	   -57.432	
  -9.65015	-0.00229901	  -9.63486	-0.00230032	  -9.61571	-0.00229672	  -9.63358	-0.00229868	  -9.63358	  -57.4671	
  -9.60458	-0.00230014	  -9.58999	-0.00230167	  -9.57012	-0.00229811	  -9.58823	-0.00229997	  -9.58823	  -57.4993	
  -9.55868	-0.0023012	  -9.54442	-0.00230294	  -9.52425	-0.00229947	  -9.54245	-0.0023012	  -9.54245	  -57.5301	
  -9.51249	-0.00230234	  -9.49832	-0.00230419	  -9.47811	-0.00230077	  -9.49631	-0.00230244	  -9.49631	  -57.5609	
   -9.4659	-0.00230347	  -9.45187	-0.00230538	  -9.43148	-0.00230197	  -9.44975	-0.00230361	  -9.44975	  -57.5902	
  -9.41891	-0.00230443	   -9.4052	-0.00230641	  -9.38448	-0.00230307	  -9.40286	-0.00230464	  -9.40286	  -57.6159	
  -9.37163	-0.00230524	   -9.3581	-0.00230732	  -9.33724	-0.00230411	  -9.35565	-0.00230556	  -9.35565	  -57.6389	
  -9.32399	-0.00230605	  -9.31059	-0.00230822	  -9.28959	-0.00230511	  -9.30806	-0.00230646	  -9.30806	  -57.6615	
  -9.27596	-0.00230691	  -9.26263	-0.00230915	   -9.2415	-0.00230605	  -9.26003	-0.00230737	  -9.26003	  -57.6843	
  -9.22755	-0.0023077	  -9.21434	  -0.00231	  -9.19316	-0.00230689	  -9.21168	-0.0023082	  -9.21168	  -57.7049	
  -9.17882	-0.00230832	  -9.16557	-0.00231066	  -9.14444	-0.00230765	  -9.16294	-0.00230888	  -9.16294	  -57.7219	
  -9.12974	-0.00230883	  -9.11644	-0.00231118	  -9.09535	-0.00230836	  -9.11385	-0.00230946	  -9.11385	  -57.7364	
  -9.08025	-0.00230937	  -9.06701	-0.00231169	  -9.04595	-0.00230902	   -9.0644	-0.00231003	   -9.0644	  -57.7507	
  -9.03052	-0.0023099	  -9.01731	-0.00231225	  -8.99637	-0.00230959	  -9.01473	-0.00231058	  -9.01473	  -57.7645	
  -8.98044	-0.00231031	  -8.96713	-0.00231274	  -8.94637	-0.00231008	  -8.96465	-0.00231104	  -8.96465	  -57.7761	
  -8.92989	-0.00231061	  -8.91651	-0.00231306	    -8.896	-0.0023105	  -8.91413	-0.00231139	  -8.91413	  -57.7848	
  -8.87906	-0.00231089	  -8.86559	-0.00231326	  -8.84538	-0.00231088	  -8.86334	-0.00231168	  -8.86334	   -57.792	
  -8.82787	-0.0023112	  -8.81436	-0.00231346	  -8.79442	-0.00231119	  -8.81222	-0.00231195	  -8.81222	  -57.7987	
  -8.77626	-0.00231141	  -8.76265	-0.00231366	  -8.74305	-0.00231142	  -8.76065	-0.00231216	  -8.76065	  -57.8041	
  -8.72433	-0.00231145	  -8.71061	-0.00231376	  -8.69146	-0.00231155	   -8.7088	-0.00231226	   -8.7088	  -57.8064	
  -8.67215	-0.00231141	  -8.65828	-0.00231371	  -8.63953	-0.00231161	  -8.65666	-0.00231224	  -8.65666	  -57.8061	
  -8.61949	-0.0023114	  -8.60546	-0.00231359	  -8.58715	-0.00231165	  -8.60403	-0.00231221	  -8.60403	  -57.8053	
   -8.5665	-0.00231141	  -8.55236	-0.0023135	  -8.53452	-0.00231166	  -8.55113	-0.00231219	  -8.55113	  -57.8047	
  -8.51333	-0.0023113	  -8.49904	-0.00231339	  -8.48171	-0.00231161	  -8.49803	-0.0023121	  -8.49803	  -57.8026	
  -8.45966	-0.00231105	  -8.44521	-0.00231315	  -8.42841	-0.00231146	  -8.44443	-0.00231189	  -8.44443	  -57.7971	
  -8.40565	-0.00231074	  -8.39109	-0.00231276	  -8.37483	-0.0023112	  -8.39052	-0.00231157	  -8.39052	  -57.7891	
   -8.3515	-0.00231046	  -8.33665	-0.00231234	  -8.32087	-0.00231088	  -8.33634	-0.00231123	  -8.33634	  -57.7806	
  -8.29686	-0.00231016	  -8.28177	-0.00231196	  -8.26658	-0.00231054	  -8.28174	-0.00231089	  -8.28174	  -57.7722	
  -8.24186	-0.00230977	  -8.22661	-0.00231152	    -8.212	-0.00231017	  -8.22682	-0.00231049	  -8.22682	  -57.7622	
  -8.18664	-0.00230922	   -8.1712	-0.00231093	  -8.15712	-0.00230973	  -8.17165	-0.00230996	  -8.17165	   -57.749	
  -8.13114	-0.00230856	  -8.11527	-0.00231024	  -8.10172	-0.00230919	  -8.11604	-0.00230933	  -8.11604	  -57.7333	
  -8.07527	-0.00230791	  -8.05907	-0.00230957	  -8.04606	-0.00230858	  -8.06013	-0.00230869	  -8.06013	  -57.7172	
  -8.01926	-0.0023073	  -8.00251	-0.0023089	  -7.99018	-0.00230789	  -8.00398	-0.00230803	  -8.00398	  -57.7008	
   -7.9629	-0.00230663	  -7.94545	-0.00230811	  -7.93397	-0.00230714	  -7.94744	-0.00230729	  -7.94744	  -57.6824	
  -7.90626	-0.0023058	  -7.88814	-0.00230718	  -7.87748	-0.00230634	  -7.89063	-0.00230644	  -7.89063	   -57.661	
  -7.84938	-0.00230485	  -7.83063	-0.0023062	  -7.82076	-0.0023055	  -7.83359	-0.00230551	  -7.83359	  -57.6378	
  -7.79213	-0.00230389	  -7.77286	-0.00230524	  -7.76376	-0.00230458	  -7.77625	-0.00230457	  -7.77625	  -57.6142	
  -7.73453	-0.00230296	  -7.71484	-0.00230425	  -7.70648	-0.00230356	  -7.71861	-0.00230359	  -7.71861	  -57.5898	
  -7.67672	-0.00230195	  -7.65664	-0.00230315	  -7.64906	-0.00230252	  -7.66081	-0.00230254	  -7.66081	  -57.5635	
  -7.61844	-0.00230081	  -7.59805	-0.00230193	  -7.59123	-0.00230147	  -7.60257	-0.0023014	  -7.60257	  -57.5351	
  -7.55983	-0.00229958	  -7.53923	-0.00230068	  -7.53313	-0.00230031	  -7.54406	-0.00230019	  -7.54406	  -57.5048	
  -7.50097	-0.00229832	  -7.48023	-0.00229945	   -7.4749	-0.00229901	  -7.48537	-0.00229893	  -7.48537	  -57.4732	
   -7.4418	-0.00229704	  -7.42086	-0.00229817	  -7.41626	-0.00229763	  -7.42631	-0.00229761	  -7.42631	  -57.4403	
  -7.38235	-0.0022957	  -7.36128	-0.00229676	  -7.35728	-0.00229624	  -7.36697	-0.00229623	  -7.36697	  -57.4059	
  -7.32253	-0.00229427	  -7.30149	-0.00229527	  -7.29792	-0.0022948	  -7.30731	-0.00229478	  -7.30731	  -57.3694	
  -7.26232	-0.00229276	  -7.24128	-0.00229377	   -7.2383	-0.00229323	   -7.2473	-0.00229325	   -7.2473	  -57.3314	
  -7.20187	-0.00229121	   -7.1809	-0.00229227	  -7.17813	-0.00229158	  -7.18697	-0.00229169	  -7.18697	  -57.2922	
  -7.14126	-0.00228959	  -7.12028	-0.0022907	  -7.11765	-0.00228991	   -7.1264	-0.00229007	   -7.1264	  -57.2517	
  -7.08021	-0.00228786	  -7.05936	-0.00228902	  -7.05697	-0.00228821	  -7.06551	-0.00228836	  -7.06551	   -57.209	
  -7.01897	-0.00228603	   -6.9983	-0.00228727	  -6.99598	-0.00228643	  -7.00442	-0.00228658	  -7.00442	  -57.1645	
  -6.95751	-0.00228418	  -6.93691	-0.00228553	  -6.93477	-0.00228457	  -6.94306	-0.00228476	  -6.94306	   -57.119	
  -6.89566	-0.0022823	  -6.87526	-0.00228376	  -6.87336	-0.00228266	  -6.88143	-0.00228291	  -6.88143	  -57.0727	
  -6.83359	-0.00228033	  -6.81344	-0.0022819	   -6.8116	-0.00228072	  -6.81955	-0.00228098	  -6.81955	  -57.0246	
  -6.77125	-0.00227824	  -6.75123	-0.00227993	  -6.74955	-0.00227873	  -6.75734	-0.00227897	  -6.75734	  -56.9742	
  -6.70858	-0.0022761	  -6.68876	-0.00227792	  -6.68722	-0.00227667	  -6.69485	-0.00227689	  -6.69485	  -56.9223	
  -6.64583	-0.00227395	  -6.62624	-0.0022759	   -6.6247	-0.00227452	  -6.63226	-0.00227479	  -6.63226	  -56.8697	
  -6.58265	-0.00227175	  -6.56333	-0.00227384	  -6.56181	-0.00227232	  -6.56926	-0.00227264	  -6.56926	  -56.8159	
  -6.51921	-0.00226944	   -6.5002	-0.00227167	   -6.4987	-0.00227007	  -6.50604	-0.00227039	  -6.50604	  -56.7598	
  -6.45558	-0.00226702	  -6.43676	-0.00226942	  -6.43529	-0.00226775	  -6.44254	-0.00226806	  -6.44254	  -56.7016	
   -6.3916	-0.00226456	  -6.37307	-0.00226715	  -6.37156	-0.00226536	  -6.37874	-0.00226569	  -6.37874	  -56.6423	
  -6.32742	-0.00226211	  -6.30914	-0.00226485	  -6.30753	-0.00226294	   -6.3147	-0.0022633	   -6.3147	  -56.5825	
  -6.26286	-0.0022596	  -6.24493	-0.00226247	  -6.24332	-0.00226049	  -6.25037	-0.00226085	  -6.25037	  -56.5213	
  -6.19796	-0.00225695	  -6.18041	  -0.00226	  -6.17888	-0.00225797	  -6.18575	-0.00225831	  -6.18575	  -56.4576	
   -6.1329	-0.00225421	  -6.11581	-0.00225746	  -6.11423	-0.00225531	  -6.12098	-0.00225566	  -6.12098	  -56.3916	
  -6.06748	-0.00225146	  -6.05072	-0.0022549	   -6.0491	-0.00225258	  -6.05577	-0.00225298	  -6.05577	  -56.3245	
  -6.00182	-0.0022487	   -5.9854	-0.00225231	  -5.98375	-0.00224983	  -5.99032	-0.00225028	  -5.99032	   -56.257	
  -5.93606	-0.00224585	  -5.91985	-0.00224964	  -5.91802	-0.00224707	  -5.92464	-0.00224752	  -5.92464	   -56.188	
  -5.86996	-0.00224287	  -5.85398	-0.00224689	  -5.85193	-0.00224423	  -5.85863	-0.00224466	  -5.85863	  -56.1165	
  -5.80362	-0.00223979	  -5.78798	-0.0022441	  -5.78573	-0.00224125	  -5.79244	-0.00224171	  -5.79244	  -56.0429	
  -5.73712	-0.00223673	  -5.72183	-0.0022413	  -5.71925	-0.00223821	  -5.72606	-0.00223875	  -5.72606	  -55.9687	
  -5.67035	-0.00223365	  -5.65536	-0.00223846	   -5.6525	-0.00223518	   -5.6594	-0.00223576	   -5.6594	   -55.894	
  -5.60351	-0.00223048	  -5.58867	-0.0022355	  -5.58573	-0.00223212	  -5.59264	-0.0022327	  -5.59264	  -55.8175	
  -5.53654	-0.00222718	  -5.52167	-0.00223248	  -5.51866	-0.00222895	  -5.52562	-0.00222954	  -5.52562	  -55.7384	
  -5.46932	-0.00222381	  -5.45446	-0.00222945	  -5.45141	-0.00222565	   -5.4584	-0.0022263	   -5.4584	  -55.6575	
  -5.40195	-0.00222043	  -5.38708	-0.0022264	  -5.38401	-0.00222231	  -5.39101	-0.00222304	  -5.39101	  -55.5761	
  -5.33426	-0.00221701	  -5.31942	-0.00222327	  -5.31627	-0.00221898	  -5.32331	-0.00221975	  -5.32331	  -55.4938	
  -5.26642	-0.00221351	  -5.25165	-0.00222005	  -5.24837	-0.0022156	  -5.25548	-0.00221639	  -5.25548	  -55.4097	
  -5.19844	-0.00220992	  -5.18361	-0.00221678	  -5.18039	-0.0022121	  -5.18748	-0.00221293	  -5.18748	  -55.3233	
  -5.13022	-0.00220627	  -5.11532	-0.00221345	  -5.11217	-0.00220851	  -5.11924	-0.00220941	  -5.11924	  -55.2353	
  -5.06179	-0.00220259	  -5.04702	-0.00221005	  -5.04387	-0.00220491	  -5.05089	-0.00220585	  -5.05089	  -55.1462	
  -4.99305	-0.00219884	  -4.97845	-0.00220659	  -4.97531	-0.00220129	  -4.98227	-0.00220224	  -4.98227	   -55.056	
  -4.92413	 -0.002195	  -4.90972	-0.0022031	  -4.90662	-0.00219759	  -4.91349	-0.00219856	  -4.91349	  -54.9641	
  -4.85505	-0.00219107	   -4.8408	-0.00219952	  -4.83773	-0.00219378	  -4.84452	-0.00219479	  -4.84452	  -54.8697	
  -4.78563	-0.0021871	  -4.77164	-0.00219583	  -4.76856	-0.00218989	  -4.77528	-0.00219094	  -4.77528	  -54.7735	
  -4.71608	-0.00218309	   -4.7023	-0.00219207	  -4.69935	-0.00218597	  -4.70591	-0.00218704	  -4.70591	  -54.6761	
  -4.64622	-0.00217902	  -4.63267	-0.00218829	  -4.62979	-0.00218201	  -4.63622	-0.0021831	  -4.63622	  -54.5776	
  -4.57616	-0.00217487	  -4.56285	-0.00218445	  -4.56005	-0.00217794	  -4.56635	-0.00217908	  -4.56635	  -54.4771	
  -4.50593	-0.00217066	  -4.49282	-0.0021805	  -4.49025	-0.00217376	  -4.49634	-0.00217497	  -4.49634	  -54.3743	
  -4.43545	-0.0021664	  -4.42255	-0.00217647	  -4.42012	-0.00216955	  -4.42604	-0.00217081	  -4.42604	  -54.2702	
  -4.36482	-0.00216207	  -4.35222	-0.00217241	  -4.34994	-0.00216534	  -4.35566	-0.00216661	  -4.35566	  -54.1652	
  -4.29403	-0.00215765	  -4.28159	-0.00216827	  -4.27954	-0.00216108	  -4.28506	-0.00216233	  -4.28506	  -54.0583	
  -4.22303	-0.00215317	  -4.21077	-0.00216406	  -4.20894	-0.00215668	  -4.21425	-0.00215797	  -4.21425	  -53.9492	
  -4.15183	-0.00214869	  -4.13977	-0.00215983	  -4.13832	-0.00215215	  -4.14331	-0.00215355	  -4.14331	  -53.8389	
  -4.08037	-0.00214417	  -4.06851	-0.00215555	  -4.06743	-0.00214759	   -4.0721	-0.00214911	   -4.0721	  -53.7276	
  -4.00882	-0.00213951	   -3.9972	-0.00215117	  -3.99645	-0.00214304	  -4.00082	-0.00214457	  -4.00082	  -53.6144	
  -3.93702	-0.00213471	  -3.92564	-0.00214667	  -3.92528	-0.00213842	  -3.92931	-0.00213993	  -3.92931	  -53.4984	
  -3.86501	-0.00212988	  -3.85388	-0.00214208	   -3.8539	-0.00213368	   -3.8576	-0.00213521	   -3.8576	  -53.3804	
  -3.79292	-0.00212506	  -3.78198	-0.00213742	  -3.78241	-0.00212886	  -3.78577	-0.00213045	  -3.78577	  -53.2612	
  -3.72057	-0.00212017	  -3.70984	-0.0021327	  -3.71057	-0.00212402	  -3.71366	-0.00212563	  -3.71366	  -53.1408	
  -3.64815	-0.00211514	  -3.63764	-0.00212793	  -3.63865	-0.00211916	  -3.64148	-0.00212074	  -3.64148	  -53.0185	
  -3.57559	-0.00211002	  -3.56523	-0.00212309	  -3.56651	-0.00211418	  -3.56911	-0.00211576	  -3.56911	  -52.8941	
  -3.50284	-0.00210488	  -3.49264	-0.00211818	  -3.49415	-0.0021091	  -3.49654	-0.00211072	  -3.49654	  -52.7679	
  -3.42998	-0.0020997	  -3.42012	-0.00211316	   -3.4217	-0.00210397	  -3.42393	-0.00210561	  -3.42393	  -52.6403	
  -3.35701	-0.00209445	  -3.34735	-0.00210806	  -3.34898	-0.00209883	  -3.35111	-0.00210045	  -3.35111	  -52.5111	
  -3.28398	-0.00208911	  -3.27452	-0.00210291	   -3.2762	-0.00209359	  -3.27823	-0.0020952	  -3.27823	    -52.38	
   -3.2109	-0.00208369	  -3.20156	-0.00209768	  -3.20345	-0.00208824	   -3.2053	-0.00208987	   -3.2053	  -52.2467	
  -3.13761	-0.00207819	  -3.12848	-0.00209236	   -3.1305	-0.00208284	   -3.1322	-0.00208447	   -3.1322	  -52.1116	
  -3.06438	-0.00207266	  -3.05539	-0.00208696	   -3.0576	-0.00207739	  -3.05913	 -0.002079	  -3.05913	  -51.9751	
  -2.99096	-0.00206709	  -2.98205	-0.00208151	  -2.98458	-0.00207183	  -2.98586	-0.00207348	  -2.98586	  -51.8369	
  -2.91746	-0.00206144	  -2.90856	-0.00207599	  -2.91146	-0.00206617	   -2.9125	-0.00206787	   -2.9125	  -51.6967	
   -2.8438	-0.00205568	  -2.83507	-0.00207036	  -2.83824	-0.00206049	  -2.83903	-0.00206218	  -2.83903	  -51.5545	
  -2.77009	-0.00204985	  -2.76138	-0.00206464	  -2.76479	-0.00205478	  -2.76542	-0.00205642	  -2.76542	  -51.4105	
  -2.69631	 -0.002044	  -2.68778	-0.00205883	  -2.69133	-0.00204892	  -2.69181	-0.00205058	  -2.69181	  -51.2646	
  -2.62243	-0.00203812	  -2.61402	-0.00205298	  -2.61761	-0.0020429	  -2.61802	-0.00204467	  -2.61802	  -51.1167	
   -2.5485	-0.00203213	   -2.5402	-0.00204705	  -2.54383	-0.00203685	  -2.54417	-0.00203868	  -2.54417	  -50.9669	
  -2.47434	-0.00202602	  -2.46634	-0.00204101	  -2.46999	-0.00203082	  -2.47022	-0.00203262	  -2.47022	  -50.8154	
      -2.4	-0.00201984	  -2.39236	-0.00203488	  -2.39596	-0.00202469	  -2.39611	-0.00202647	  -2.39611	  -50.6618	
  -2.32566	-0.00201363	  -2.31829	-0.00202869	  -2.32191	-0.00201839	  -2.32196	-0.00202023	  -2.32196	  -50.5059	
  -2.25123	-0.00200737	  -2.24412	-0.00202244	  -2.24761	-0.00201197	  -2.24766	-0.00201393	  -2.24766	  -50.3482	
  -2.17675	-0.00200104	   -2.1699	-0.0020161	  -2.17327	-0.00200553	  -2.17331	-0.00200756	  -2.17331	  -50.1889	
  -2.10227	-0.00199461	   -2.0956	-0.00200965	  -2.09884	-0.00199906	   -2.0989	-0.0020011	   -2.0989	  -50.0276	
  -2.02768	-0.00198809	  -2.02111	-0.00200312	  -2.02424	-0.00199248	  -2.02435	-0.00199456	  -2.02435	   -49.864	
  -1.95311	-0.00198152	  -1.94664	-0.00199653	  -1.94967	-0.00198575	  -1.94981	-0.00198793	  -1.94981	  -49.6983	
   -1.8783	-0.00197485	  -1.87203	-0.0019898	  -1.87479	-0.00197902	  -1.87504	-0.00198122	  -1.87504	  -49.5305	
  -1.80347	-0.00196815	  -1.79739	-0.00198296	  -1.79989	-0.00197224	  -1.80025	-0.00197445	  -1.80025	  -49.3612	
