# User: ACHyster
# File name: C:/ACHYSTER/ACHyster SENS/SHAMS/CoFe2O4-1gl-water-60 Glycerol-Sens-08-03-2023/CoFe2O4-1gl-water-60 Glycerol- 10_100F- 24 kAm -Sens-08-03-20230003#1.txt
# Saved at: mi. mar. 8 13:19:01 2023
# Hyster Loop (3 iterations). Intensity: 24.0 kA/m; Tuned frequency: 41.9 kHz
# Units x axis: (kA/m)
# Units y axis: "Repeats y" & "Average y" (10^(-3)Am^2); "Mass avg y" (Am^2/kg)
# Magnetic mass: 4e-05 g
# Parameter      	Repeat   1	Repeat   2	Repeat   3	Average   	Sigma     
# H_C (kA/m)     	      18.0	      18.5	      18.3	      18.3	       0.2
# M_R (Am^2/kg)  	      19.5	      20.0	      19.6	      19.7	       0.2
# M_max (Am^2/kg)	      16.3	      15.3	      15.5	      15.7	       0.5
# Area (mJ/kg)   	    1748.1	    1799.4	    1750.3	    1766.0	      23.7
# SAR (W/g)      	      73.3	      75.4	      73.4	      74.0	       1.0
#Repeat 1 x	Repeat 1 y	Repeat 2 x	Repeat 2 y	Repeat 3 x	Repeat 3 y	Average x 	Average y 	Mass avg x 	Mass avg y 
  -3.39709	-0.000838635	  -3.39795	-0.000857787	  -3.39594	-0.000847549	  -3.39699	-0.00084799	  -3.39699	  -21.1998	
  -3.24816	-0.00083628	  -3.25038	-0.000855535	  -3.24815	-0.000845404	  -3.24889	-0.00084574	  -3.24889	  -21.1435	
  -3.09929	-0.000833935	  -3.10258	-0.00085323	  -3.10045	-0.0008431	  -3.10077	-0.000843422	  -3.10077	  -21.0855	
  -2.95046	-0.000831562	   -2.9543	-0.000850921	  -2.95307	-0.000840601	  -2.95261	-0.000841028	  -2.95261	  -21.0257	
  -2.80163	-0.000829179	  -2.80632	-0.000848619	   -2.8057	-0.000837981	  -2.80455	-0.000838593	  -2.80455	  -20.9648	
  -2.65253	-0.000826702	  -2.65832	-0.000846289	  -2.65804	-0.00083539	   -2.6563	-0.000836127	   -2.6563	  -20.9032	
  -2.50341	-0.000824236	   -2.5103	-0.000843888	  -2.51008	-0.000832924	  -2.50793	-0.000833683	  -2.50793	  -20.8421	
  -2.35347	-0.00082185	  -2.36248	-0.000841393	  -2.36235	-0.000830543	  -2.35943	-0.000831262	  -2.35943	  -20.7816	
  -2.20247	-0.000819476	  -2.21456	-0.000838816	  -2.21401	-0.000828116	  -2.21034	-0.000828802	  -2.21034	  -20.7201	
  -2.05076	-0.000816964	  -2.06677	-0.000836202	  -2.06508	-0.000825529	  -2.06087	-0.000826232	  -2.06087	  -20.6558	
  -1.89863	-0.000814282	  -1.91856	-0.000833591	  -1.91612	-0.000822765	   -1.9111	-0.000823546	   -1.9111	  -20.5886	
  -1.74848	-0.000811443	  -1.77018	-0.000830982	  -1.76735	-0.000819904	  -1.76201	-0.000820777	  -1.76201	  -20.5194	
  -1.59803	-0.000808569	  -1.62138	-0.000828351	  -1.61876	-0.000817087	  -1.61272	-0.000818002	  -1.61272	  -20.4501	
   -1.4499	-0.000805797	  -1.47215	-0.000825639	  -1.47002	-0.000814362	  -1.46402	-0.000815266	  -1.46402	  -20.3816	
  -1.30178	-0.000803151	  -1.32277	-0.000822805	  -1.32165	-0.000811665	   -1.3154	-0.000812541	   -1.3154	  -20.3135	
  -1.15285	-0.000800508	   -1.1735	-0.000819865	  -1.17334	-0.000808894	  -1.16656	-0.000809756	  -1.16656	  -20.2439	
  -1.00341	-0.000797729	  -1.02403	-0.000816886	  -1.02453	-0.000805981	  -1.01732	-0.000806865	  -1.01732	  -20.1716	
 -0.853212	-0.000794755	 -0.874365	-0.000813914	  -0.87548	-0.000802927	 -0.867686	-0.000803865	 -0.867686	  -20.0966	
 -0.702571	-0.000791633	 -0.724496	-0.000810976	 -0.726469	-0.000799816	 -0.717846	-0.000800809	 -0.717846	  -20.0202	
 -0.552556	-0.000788488	 -0.574683	-0.00080802	 -0.576935	-0.000796748	 -0.568058	-0.000797752	 -0.568058	  -19.9438	
 -0.402564	-0.000785436	 -0.424896	-0.00080499	 -0.426902	-0.000793739	 -0.418121	-0.000794722	 -0.418121	   -19.868	
 -0.252834	-0.000782489	 -0.275116	-0.000801859	 -0.276917	-0.000790723	 -0.268289	-0.00079169	 -0.268289	  -19.7923	
 -0.102799	-0.000779551	 -0.124789	-0.000798632	 -0.126952	-0.000787616	  -0.11818	-0.0007886	  -0.11818	   -19.715	
 0.0472764	-0.000776454	 0.0252681	-0.000795357	 0.0230173	-0.000784361	 0.0318539	-0.000785391	 0.0318539	  -19.6348	
  0.197404	-0.00077312	  0.175359	-0.000792079	  0.173007	-0.000780973	  0.181924	-0.000782058	  0.181924	  -19.5514	
  0.347604	-0.000769598	  0.325504	-0.00078881	   0.32304	-0.000777529	  0.332049	-0.000778646	  0.332049	  -19.4661	
  0.497891	-0.000766046	  0.475721	-0.000785515	  0.473135	-0.000774094	  0.482249	-0.000775218	  0.482249	  -19.3805	
  0.647697	-0.00076261	  0.626075	-0.00078216	  0.622725	-0.000770672	  0.632166	-0.000771814	  0.632166	  -19.2953	
  0.797663	-0.000759307	  0.776258	-0.000778716	  0.771668	-0.000767205	  0.781863	-0.000768409	  0.781863	  -19.2102	
  0.947271	-0.000755986	  0.925778	-0.000775191	  0.921353	-0.000763633	  0.931467	-0.000764936	  0.931467	  -19.1234	
   1.09657	-0.000752475	   1.07524	-0.000771627	   1.07096	-0.000759934	   1.08092	-0.000761345	   1.08092	  -19.0336	
   1.24562	-0.00074872	   1.22494	-0.00076806	   1.22024	-0.000756144	   1.23026	-0.000757641	   1.23026	   -18.941	
   1.39471	-0.000744818	   1.37461	-0.000764485	   1.36951	-0.000752329	   1.37961	-0.000753877	   1.37961	  -18.8469	
   1.54361	-0.000740929	   1.52401	-0.00076087	   1.51934	-0.000748524	   1.52899	-0.000750108	   1.52899	  -18.7527	
   1.69236	-0.000737155	   1.67293	-0.000757174	   1.66915	-0.000744668	   1.67815	-0.000746333	   1.67815	  -18.6583	
   1.84047	-0.000733458	   1.82117	-0.000753382	   1.81898	-0.00074074	   1.82687	-0.000742527	   1.82687	  -18.5632	
   1.98906	-0.000729715	   1.96933	-0.000749518	   1.96886	-0.00073672	   1.97575	-0.000738651	   1.97575	  -18.4663	
   2.13709	-0.000725792	   2.11745	-0.000745613	   2.11852	-0.000732673	   2.12435	-0.000734693	   2.12435	  -18.3673	
   2.28487	-0.000721669	   2.26635	-0.000741715	   2.26828	-0.000728618	   2.27317	-0.000730667	   2.27317	  -18.2667	
   2.43247	-0.000717451	    2.4152	-0.000737782	   2.41815	-0.000724561	   2.42194	-0.000726598	   2.42194	  -18.1649	
   2.58071	-0.000713273	   2.56378	-0.000733814	   2.56788	-0.000720437	   2.57079	-0.000722508	   2.57079	  -18.0627	
   2.72904	-0.000709175	   2.71159	-0.00072981	    2.7175	-0.000716214	   2.71938	-0.0007184	   2.71938	    -17.96	
   2.87749	-0.000705101	   2.85952	-0.00072576	   2.86704	-0.000711889	   2.86802	-0.00071425	   2.86802	  -17.8562	
   3.02581	-0.00070095	   3.00707	-0.000721621	   3.01628	-0.000707507	   3.01639	-0.000710026	   3.01639	  -17.7506	
   3.17429	-0.000696638	   3.15455	-0.000717399	   3.16525	-0.000703124	    3.1647	-0.00070572	    3.1647	   -17.643	
   3.32269	-0.000692184	   3.30174	-0.000713103	   3.31454	-0.000698764	   3.31299	-0.00070135	   3.31299	  -17.5338	
    3.4713	-0.000687681	   3.44921	-0.000708757	   3.46361	-0.000694384	   3.46137	-0.000696941	   3.46137	  -17.4235	
   3.61934	-0.000683198	   3.59671	-0.000704392	   3.61276	-0.000689937	   3.60961	-0.000692509	   3.60961	  -17.3127	
   3.76742	-0.000678759	   3.74401	-0.000700026	   3.76176	-0.000685393	   3.75773	-0.00068806	   3.75773	  -17.2015	
   3.91556	-0.000674332	   3.89088	-0.000695639	   3.91011	-0.000680761	   3.90551	-0.000683577	   3.90551	  -17.0894	
   4.06325	-0.000669823	   4.03766	-0.000691196	   4.05789	-0.00067608	   4.05293	-0.000679033	   4.05293	  -16.9758	
   4.21082	-0.000665183	   4.18439	-0.000686664	   4.20571	-0.000671399	    4.2003	-0.000674415	    4.2003	  -16.8604	
   4.35831	-0.000660442	   4.33083	-0.000682036	   4.35385	-0.000666726	   4.34766	-0.000669735	   4.34766	  -16.7434	
   4.50576	-0.000655655	   4.47653	-0.000677369	   4.50178	-0.000662033	   4.49469	-0.000665019	   4.49469	  -16.6255	
   4.65272	-0.000650875	    4.6219	-0.000672692	   4.64971	-0.000657276	   4.64144	-0.000660281	   4.64144	   -16.507	
   4.79949	-0.000646111	   4.76667	-0.000667983	   4.79724	-0.000652435	    4.7878	-0.000655509	    4.7878	  -16.3877	
   4.94583	-0.000641304	   4.91147	-0.000663212	   4.94445	-0.000647528	   4.93392	-0.000650681	   4.93392	   -16.267	
   5.09209	-0.000636396	    5.0558	-0.000658361	   5.09112	-0.000642605	   5.07967	-0.000645787	   5.07967	  -16.1447	
   5.23804	-0.000631382	   5.20028	-0.000653408	   5.23759	-0.000637696	    5.2253	-0.000640829	    5.2253	  -16.0207	
   5.38374	-0.000626304	   5.34493	-0.000648426	   5.38364	-0.000632787	   5.37077	-0.000635839	   5.37077	   -15.896	
   5.52899	-0.000621213	   5.48924	-0.000643453	   5.52962	-0.000627832	   5.51595	-0.000630833	   5.51595	  -15.7708	
   5.67333	-0.000616139	   5.63277	-0.000638471	   5.67529	-0.00062278	   5.66046	-0.000625797	   5.66046	  -15.6449	
   5.81793	-0.000611061	   5.77667	-0.000633456	   5.82046	-0.000617664	   5.80502	-0.000620727	   5.80502	  -15.5182	
   5.96203	-0.000605923	   5.92042	-0.000628385	   5.96546	-0.000612507	    5.9493	-0.000615605	    5.9493	  -15.3901	
   6.10622	-0.000600688	   6.06434	-0.000623211	   6.11062	-0.000607374	   6.09372	-0.000610424	   6.09372	  -15.2606	
   6.25001	-0.000595374	   6.20846	-0.000617943	   6.25489	-0.000602298	   6.23778	-0.000605205	   6.23778	  -15.1301	
   6.39374	-0.000590031	   6.35254	-0.000612635	   6.39919	-0.000597227	   6.38182	-0.000599965	   6.38182	  -14.9991	
   6.53694	-0.000584698	   6.49636	-0.000607341	   6.54302	-0.000592049	   6.52544	-0.000594696	   6.52544	  -14.8674	
   6.67968	-0.000579378	   6.64024	-0.00060208	   6.68726	-0.00058673	   6.66906	-0.000589396	   6.66906	  -14.7349	
   6.82179	-0.000574032	   6.78397	-0.000596817	   6.83087	-0.000581298	   6.81221	-0.000584049	   6.81221	  -14.6012	
    6.9639	-0.000568612	   6.92785	-0.000591484	   6.97445	-0.000575887	    6.9554	-0.000578661	    6.9554	  -14.4665	
   7.10578	-0.000563103	   7.07166	-0.000586044	    7.1178	-0.000570591	   7.09841	-0.000573246	   7.09841	  -14.3311	
   7.24751	-0.000557537	   7.21544	-0.000580511	   7.26071	-0.000565305	   7.24122	-0.000567785	   7.24122	  -14.1946	
   7.38941	-0.000551962	   7.35897	-0.00057494	   7.40379	-0.000559909	   7.38405	-0.00056227	   7.38405	  -14.0568	
   7.53098	-0.000546404	   7.50258	-0.000569377	   7.54602	-0.000554317	   7.52653	-0.0005567	   7.52653	  -13.9175	
   7.67204	-0.000540847	   7.64605	-0.000563826	   7.68751	-0.000548595	   7.66853	-0.000551089	   7.66853	  -13.7772	
   7.81296	-0.000535246	   7.78942	-0.000558255	   7.82917	-0.000542899	   7.81051	-0.000545466	   7.81051	  -13.6367	
   7.95326	-0.00052956	   7.93223	-0.000552625	   7.97023	-0.000537393	   7.95191	-0.000539859	   7.95191	  -13.4965	
   8.09357	-0.00052379	   8.07456	-0.000546915	   8.11055	-0.000532046	   8.09289	-0.00053425	   8.09289	  -13.3563	
   8.23396	-0.000517973	   8.21597	-0.00054113	   8.25022	-0.000526694	   8.23338	-0.000528599	   8.23338	   -13.215	
   8.37445	-0.00051216	   8.35712	-0.000535312	   8.38963	-0.000521166	   8.37374	-0.000522879	   8.37374	   -13.072	
   8.51464	-0.000506365	   8.49755	-0.000529489	   8.52928	-0.000515421	   8.51382	-0.000517091	   8.51382	  -12.9273	
   8.65454	-0.000500559	   8.63737	-0.000523642	   8.66851	-0.000509569	   8.65347	-0.000511257	   8.65347	  -12.7814	
   8.79423	-0.000494697	   8.77643	-0.000517782	   8.80742	-0.000503799	   8.79269	-0.000505426	   8.79269	  -12.6356	
   8.93378	-0.000488748	   8.91511	-0.000511861	   8.94584	-0.000498216	   8.93157	-0.000499608	   8.93157	  -12.4902	
   9.07274	-0.000482731	   9.05376	-0.000505894	   9.08358	-0.000492756	   9.07002	-0.000493794	   9.07002	  -12.3448	
   9.21121	-0.000476689	   9.19191	-0.000499925	   9.22078	-0.000487257	   9.20797	-0.000487957	   9.20797	  -12.1989	
   9.34902	-0.000470657	   9.32994	-0.000493974	   9.35781	-0.000481539	   9.34559	-0.000482057	   9.34559	  -12.0514	
   9.48631	-0.000464636	   9.46765	-0.000487988	   9.49447	-0.000475589	   9.48281	-0.000476071	   9.48281	  -11.9018	
   9.62343	-0.000458592	   9.60592	-0.000481935	   9.63061	-0.000469555	   9.61999	-0.000470027	   9.61999	  -11.7507	
   9.75968	-0.000452487	   9.74398	-0.000475796	    9.7666	-0.000463645	   9.75675	-0.000463976	   9.75675	  -11.5994	
   9.89571	-0.000446309	   9.88137	-0.000469602	   9.90251	-0.00045794	    9.8932	-0.00045795	    9.8932	  -11.4488	
   10.0314	-0.000440079	   10.0177	-0.000463416	   10.0376	-0.000452353	   10.0289	-0.00045195	   10.0289	  -11.2987	
    10.167	-0.000433838	   10.1536	-0.000457281	   10.1726	-0.000446665	   10.1644	-0.000445928	   10.1644	  -11.1482	
   10.3019	-0.000427611	    10.289	-0.000451168	   10.3068	-0.000440729	   10.2992	-0.000439836	   10.2992	  -10.9959	
   10.4367	-0.000421389	   10.4239	-0.000445016	   10.4408	-0.000434573	   10.4338	-0.000433659	   10.4338	  -10.8415	
   10.5704	-0.00041514	   10.5583	-0.000438777	   10.5748	-0.000428383	   10.5678	-0.000427433	   10.5678	  -10.6858	
   10.7038	-0.000408833	   10.6922	-0.000432457	   10.7082	-0.000422333	   10.7014	-0.000421208	   10.7014	  -10.5302	
   10.8366	-0.000402467	   10.8259	-0.000426107	   10.8414	-0.000416457	   10.8347	-0.00041501	   10.8347	  -10.3753	
   10.9691	-0.00039607	   10.9595	-0.000419792	   10.9744	-0.000410625	   10.9676	-0.000408829	   10.9676	  -10.2207	
   11.1015	-0.000389674	    11.092	-0.00041353	   11.1072	-0.000404645	   11.1002	-0.000402616	   11.1002	  -10.0654	
   11.2335	-0.000383294	    11.224	-0.000407279	   11.2398	-0.000398418	   11.2324	-0.000396331	   11.2324	  -9.90826	
   11.3653	-0.000376915	   11.3556	-0.000400979	   11.3716	-0.000392044	   11.3642	-0.00038998	   11.3642	  -9.74949	
   11.4964	-0.000370509	   11.4866	-0.000394594	   11.5033	-0.000385723	   11.4955	-0.000383609	   11.4955	  -9.59022	
   11.6274	-0.000364054	   11.6172	-0.000388131	   11.6347	-0.00037959	   11.6264	-0.000377259	   11.6264	  -9.43146	
   11.7581	-0.000357556	   11.7475	-0.000381645	   11.7656	-0.000373625	   11.7571	-0.000370942	   11.7571	  -9.27355	
   11.8886	-0.000351029	   11.8776	-0.000375188	    11.896	-0.000367681	   11.8874	-0.000364633	   11.8874	  -9.11582	
   12.0193	-0.000344499	   12.0073	-0.000368771	   12.0256	-0.000361578	   12.0174	-0.000358283	   12.0174	  -8.95707	
   12.1487	-0.000337977	   12.1364	-0.000362355	    12.155	-0.000355263	   12.1467	-0.000351865	   12.1467	  -8.79662	
    12.278	-0.000331447	   12.2656	-0.00035589	   12.2837	-0.000348862	   12.2758	-0.0003454	   12.2758	  -8.63499	
   12.4068	-0.000324894	   12.3942	-0.00034935	   12.4119	-0.000342537	   12.4043	-0.000338927	   12.4043	  -8.47318	
    12.535	-0.000318311	    12.523	-0.000342754	   12.5393	-0.000336387	   12.5324	-0.000332484	   12.5324	   -8.3121	
   12.6629	-0.000311705	   12.6507	-0.000336153	   12.6659	-0.000330373	   12.6598	-0.000326077	   12.6598	  -8.15192	
     12.79	-0.0003051	   12.7778	-0.000329584	   12.7924	-0.000324314	   12.7867	-0.000319666	   12.7867	  -7.99165	
   12.9164	-0.000298483	   12.9045	-0.000323035	   12.9188	-0.000318088	   12.9133	-0.000313202	   12.9133	  -7.83005	
   13.0422	-0.000291819	   13.0307	-0.000316466	   13.0451	-0.000311697	   13.0393	-0.000306661	   13.0393	  -7.66652	
    13.167	-0.00028509	   13.1558	-0.000309835	   13.1706	-0.000305222	   13.1645	-0.000300049	   13.1645	  -7.50123	
   13.2906	-0.000278328	   13.2809	-0.000303136	   13.2954	-0.000298801	    13.289	-0.000293422	    13.289	  -7.33554	
   13.4137	-0.000271605	   13.4055	-0.000296405	   13.4196	-0.000292525	   13.4129	-0.000286845	   13.4129	  -7.17113	
   13.5361	-0.000264914	   13.5301	-0.000289688	   13.5427	-0.000286345	   13.5363	-0.000280315	   13.5363	  -7.00789	
   13.6585	-0.000258224	   13.6542	-0.000283005	   13.6657	-0.000280137	   13.6595	-0.000273789	   13.6595	  -6.84472	
   13.7806	-0.000251534	   13.7777	-0.000276341	   13.7878	-0.000273806	   13.7821	-0.000267227	   13.7821	  -6.68068	
    13.903	-0.000244834	   13.9005	-0.000269655	   13.9096	-0.000267332	   13.9044	-0.000260607	   13.9044	  -6.51518	
   14.0252	-0.000238098	   14.0231	-0.000262914	   14.0309	-0.000260785	   14.0264	-0.000253933	   14.0264	  -6.34832	
   14.1475	-0.000231348	    14.145	-0.00025616	   14.1515	-0.000254289	    14.148	-0.000247265	    14.148	  -6.18164	
   14.2688	-0.0002246	   14.2662	-0.000249394	    14.272	-0.0002479	    14.269	-0.000240631	    14.269	  -6.01578	
   14.3896	-0.000217849	   14.3865	-0.000242592	   14.3917	-0.000241561	   14.3893	 -0.000234	   14.3893	  -5.85001	
   14.5098	-0.00021109	   14.5065	-0.000235762	   14.5116	-0.000235167	   14.5093	-0.00022734	   14.5093	  -5.68349	
   14.6293	-0.000204331	   14.6262	-0.000228921	   14.6312	-0.000228653	   14.6289	-0.000220635	   14.6289	  -5.51587	
   14.7488	-0.00019754	   14.7456	-0.000222093	   14.7501	-0.000222029	   14.7482	-0.000213887	   14.7482	  -5.34718	
   14.8675	-0.00019072	   14.8643	-0.000215328	   14.8686	-0.000215365	   14.8668	-0.000207138	   14.8668	  -5.17845	
   14.9854	-0.000183913	   14.9824	-0.000208612	   14.9862	-0.000208758	   14.9847	-0.000200428	   14.9847	   -5.0107	
   15.1031	-0.00017712	   15.0997	-0.000201906	   15.1035	-0.000202228	   15.1021	-0.000193752	   15.1021	  -4.84379	
   15.2193	-0.000170334	    15.216	-0.00019517	   15.2204	-0.000195725	   15.2186	-0.000187076	   15.2186	  -4.67691	
   15.3349	-0.000163532	   15.3316	-0.000188398	   15.3367	-0.000189176	   15.3344	-0.000180369	   15.3344	  -4.50922	
   15.4499	-0.000156686	   15.4462	-0.000181609	   15.4525	-0.000182541	   15.4496	-0.000173612	   15.4496	   -4.3403	
    15.565	-0.000149797	   15.5608	-0.000174849	   15.5674	-0.000175842	   15.5644	-0.000166829	   15.5644	  -4.17074	
   15.6794	-0.000142921	   15.6739	-0.000168163	   15.6814	-0.000169146	   15.6782	-0.000160077	   15.6782	  -4.00192	
   15.7935	-0.000136106	   15.7865	-0.000161494	    15.795	-0.000162506	   15.7917	-0.000153369	   15.7917	  -3.83421	
   15.9069	-0.000129337	   15.8981	-0.000154816	   15.9076	-0.000155916	   15.9042	-0.00014669	   15.9042	  -3.66724	
   16.0196	-0.000122568	   16.0094	-0.000148079	   16.0198	-0.000149319	   16.0163	-0.000139989	   16.0163	  -3.49971	
   16.1314	-0.000115748	   16.1199	-0.000141261	   16.1307	-0.00014266	   16.1273	-0.000133223	   16.1273	  -3.33057	
   16.2427	-0.000108855	   16.2294	-0.000134403	   16.2408	-0.000135924	   16.2376	-0.000126394	   16.2376	  -3.15986	
   16.3535	-0.00010194	   16.3379	-0.00012761	   16.3507	-0.000129155	   16.3474	-0.000119568	   16.3474	  -2.98921	
   16.4634	-9.50546e-05	   16.4457	-0.000120912	   16.4596	-0.000122415	   16.4563	-0.000112794	   16.4563	  -2.81985	
   16.5727	-8.82271e-05	   16.5533	-0.000114272	   16.5682	-0.000115732	   16.5647	-0.000106077	   16.5647	  -2.65193	
   16.6816	-8.14506e-05	   16.6598	-0.000107609	   16.6757	-0.00010908	   16.6724	-9.93801e-05	   16.6724	   -2.4845	
     16.79	-7.46869e-05	   16.7658	-0.000100864	   16.7828	-0.000102396	   16.7795	-9.2649e-05	   16.7795	  -2.31622	
   16.8975	-6.78842e-05	   16.8716	-9.402e-05	   16.8891	-9.56453e-05	   16.8861	-8.58499e-05	   16.8861	  -2.14625	
   17.0037	-6.10321e-05	   16.9764	-8.71388e-05	   16.9945	-8.88396e-05	   16.9915	-7.90035e-05	   16.9915	  -1.97509	
   17.1091	-5.41678e-05	   17.0808	-8.03076e-05	   17.0993	-8.2032e-05	   17.0964	-7.21691e-05	   17.0964	  -1.80423	
   17.2138	-4.74249e-05	   17.1844	-7.35624e-05	   17.2032	-7.52746e-05	   17.2005	-6.54206e-05	   17.2005	  -1.63552	
   17.3177	-4.07248e-05	   17.2877	-6.68955e-05	   17.3065	-6.85867e-05	    17.304	-5.87357e-05	    17.304	  -1.46839	
   17.4207	-3.40297e-05	   17.3904	-6.01944e-05	   17.4089	-6.19191e-05	   17.4067	-5.20477e-05	   17.4067	  -1.30119	
   17.5235	-2.71964e-05	   17.4923	-5.34755e-05	    17.511	-5.52004e-05	   17.5089	-4.52908e-05	   17.5089	  -1.13227	
   17.6259	-2.02542e-05	   17.5935	-4.66376e-05	   17.6125	-4.83842e-05	   17.6106	-3.84253e-05	   17.6106	 -0.960634	
   17.7275	-1.32386e-05	   17.6943	-3.96893e-05	   17.7131	-4.15135e-05	   17.7116	-3.14804e-05	   17.7116	 -0.787011	
   17.8286	-6.40274e-06	   17.7939	-3.27518e-05	    17.813	-3.46631e-05	   17.8118	-2.46059e-05	   17.8118	 -0.615147	
   17.9296	2.07124e-07	   17.8925	-2.5946e-05	   17.9121	-2.78981e-05	   17.9114	-1.7879e-05	   17.9114	 -0.446975	
   18.0303	6.60555e-06	   17.9905	-1.93068e-05	   18.0103	-2.12269e-05	   18.0104	-1.13094e-05	   18.0104	 -0.282734	
   18.1303	1.29742e-05	    18.088	-1.28101e-05	   18.1078	-1.46078e-05	   18.1087	-4.81456e-06	   18.1087	 -0.120364	
   18.2301	1.94677e-05	   18.1851	-6.30706e-06	   18.2042	-7.9611e-06	   18.2065	1.73319e-06	   18.2065	 0.0433298	
   18.3295	2.61375e-05	    18.282	3.27913e-07	   18.2998	-1.24574e-06	   18.3037	8.40655e-06	   18.3037	  0.210164	
    18.428	3.28382e-05	   18.3781	7.09651e-06	   18.3945	5.51862e-06	   18.4002	1.51511e-05	   18.4002	  0.378777	
   18.5255	3.94254e-05	   18.4734	1.38687e-05	   18.4888	1.2269e-05	   18.4959	2.18544e-05	   18.4959	  0.546359	
   18.6225	4.58474e-05	    18.568	2.05253e-05	   18.5826	1.89488e-05	    18.591	2.84405e-05	    18.591	  0.711012	
   18.7187	5.21231e-05	   18.6626	2.70221e-05	   18.6758	2.55481e-05	   18.6857	3.48978e-05	   18.6857	  0.872444	
   18.8141	5.8392e-05	   18.7566	3.34241e-05	   18.7681	3.21147e-05	   18.7796	4.13103e-05	   18.7796	   1.03276	
   18.9082	6.47514e-05	     18.85	3.98589e-05	   18.8595	3.87168e-05	   18.8726	4.77757e-05	   18.8726	   1.19439	
   19.0016	7.11652e-05	   18.9429	4.64223e-05	   18.9505	4.5385e-05	    18.965	5.43242e-05	    18.965	    1.3581	
   19.0942	7.75444e-05	   19.0349	5.30737e-05	   19.0407	5.20868e-05	   19.0566	6.09017e-05	   19.0566	   1.52254	
   19.1854	8.38516e-05	   19.1261	5.96961e-05	   19.1303	5.8754e-05	   19.1473	6.74339e-05	   19.1473	   1.68585	
   19.2757	9.00915e-05	   19.2163	6.61648e-05	   19.2194	6.53392e-05	   19.2371	7.38652e-05	   19.2371	   1.84663	
   19.3651	9.63121e-05	    19.306	 7.249e-05	   19.3075	7.18519e-05	   19.3262	8.0218e-05	   19.3262	   2.00545	
   19.4536	0.000102582	   19.3944	7.87764e-05	   19.3958	7.8349e-05	   19.4146	8.65693e-05	   19.4146	   2.16423	
   19.5414	0.000108908	   19.4821	8.51993e-05	   19.4833	8.48935e-05	   19.5023	9.30004e-05	   19.5023	   2.32501	
   19.6279	0.00011523	   19.5689	9.17768e-05	   19.5702	9.14989e-05	    19.589	9.95018e-05	    19.589	   2.48755	
   19.7132	0.000121489	   19.6546	9.83979e-05	    19.656	9.81208e-05	   19.6746	0.000106002	   19.6746	   2.65006	
   19.7978	0.000127681	     19.74	0.000104883	   19.7406	0.000104695	   19.7595	0.000112419	   19.7595	   2.81049	
   19.8816	0.000133836	   19.8246	0.000111173	   19.8242	0.000111178	   19.8434	0.000118729	   19.8434	   2.96822	
   19.9649	0.000140015	   19.9086	0.000117338	   19.9068	0.000117577	   19.9268	0.000124976	   19.9268	   3.12441	
   20.0474	0.000146213	   19.9923	0.000123541	   19.9888	0.000123952	   20.0095	0.000131235	   20.0095	   3.28088	
   20.1289	0.000152398	   20.0757	0.000129901	   20.0701	0.000130368	   20.0916	0.000137556	   20.0916	   3.43889	
   20.2096	0.000158617	   20.1584	0.000136392	   20.1507	0.000136859	   20.1729	0.000143956	   20.1729	   3.59889	
   20.2891	0.00016486	   20.2404	0.00014286	    20.231	0.000143319	   20.2535	0.000150346	   20.2535	   3.75866	
   20.3678	0.000171124	   20.3215	0.000149175	     20.31	0.000149704	   20.3331	0.000156668	   20.3331	   3.91669	
   20.4461	0.000177389	   20.4018	0.000155298	   20.3881	0.000156024	    20.412	0.000162904	    20.412	   4.07259	
   20.5235	0.000183582	   20.4813	0.00016132	   20.4651	0.000162335	     20.49	0.000169079	     20.49	   4.22696	
   20.6003	0.000189643	   20.5598	0.000167372	   20.5416	0.000168661	   20.5672	0.000175226	   20.5672	   4.38064	
   20.6765	0.000195645	   20.6373	0.000173536	    20.617	0.000175024	   20.6436	0.000181402	   20.6436	   4.53504	
   20.7514	0.000201685	   20.7138	0.000179754	   20.6916	0.000181345	   20.7189	0.000187594	   20.7189	   4.68986	
   20.8257	0.000207823	   20.7898	0.000185902	   20.7659	0.000187569	   20.7938	0.000193764	   20.7938	   4.84411	
   20.8994	0.000214036	   20.8648	0.000191896	   20.8391	0.000193698	   20.8678	0.000199877	   20.8678	   4.99691	
   20.9729	0.000220251	   20.9388	0.000197756	   20.9123	0.000199776	   20.9413	0.000205928	   20.9413	    5.1482	
   21.0454	0.000226369	   21.0117	0.000203596	   20.9848	0.000205861	    21.014	0.000211942	    21.014	   5.29855	
   21.1175	0.000232366	    21.084	0.000209521	   21.0565	0.000211999	    21.086	0.000217962	    21.086	   5.44905	
   21.1886	0.000238303	   21.1554	0.000215541	   21.1278	0.000218185	   21.1572	0.00022401	   21.1572	   5.60024	
   21.2586	0.000244278	   21.2261	0.000221548	   21.1981	0.000224345	   21.2276	0.000230057	   21.2276	   5.75142	
   21.3283	0.000250333	   21.2959	0.000227428	   21.2676	0.000230432	   21.2972	0.000236064	   21.2972	   5.90161	
   21.3974	0.000256441	   21.3653	0.000233162	   21.3366	0.000236457	   21.3665	0.00024202	   21.3665	    6.0505	
   21.4652	0.000262518	   21.4343	0.000238813	    21.405	0.000242439	   21.4349	0.000247923	   21.4349	   6.19808	
   21.5322	0.000268496	   21.5023	0.000244486	   21.4725	0.000248425	   21.5024	0.000253802	   21.5024	   6.34506	
   21.5982	0.000274377	   21.5693	0.000250265	   21.5394	0.000254411	   21.5689	0.000259684	   21.5689	   6.49211	
   21.6637	0.000280238	   21.6349	0.00025611	    21.605	0.000260403	   21.6346	0.000265584	   21.6346	   6.63959	
   21.7287	0.00028616	      21.7	0.000261911	   21.6696	0.000266405	   21.6995	0.000271492	   21.6995	    6.7873	
    21.793	0.000292154	   21.7644	0.000267592	   21.7336	0.000272406	   21.7637	0.000277384	   21.7637	    6.9346	
   21.8559	0.000298163	   21.8273	0.00027316	   21.7968	0.000278377	   21.8267	0.000283233	   21.8267	   7.08084	
   21.9177	0.000304109	   21.8893	0.000278747	   21.8588	 0.0002843	   21.8886	0.000289052	   21.8886	    7.2263	
    21.979	0.000309948	   21.9501	0.00028443	   21.9203	0.00029015	   21.9498	0.000294843	   21.9498	   7.37107	
   22.0395	0.000315712	   22.0102	0.000290182	   21.9811	0.000295951	   22.0102	0.000300615	   22.0102	   7.51537	
   22.0989	0.000321478	   22.0694	0.000295826	   22.0408	0.000301745	   22.0697	0.00030635	   22.0697	   7.65874	
   22.1575	0.000327303	   22.1285	0.000301282	   22.0995	0.000307561	   22.1285	0.000312049	   22.1285	   7.80122	
    22.215	0.000333234	   22.1877	0.000306593	   22.1572	 0.0003134	   22.1866	0.000317742	   22.1866	   7.94356	
   22.2718	0.000339166	   22.2476	0.000311889	   22.2139	0.000319242	   22.2444	0.000323433	   22.2444	   8.08582	
   22.3277	0.000345028	    22.307	0.000317326	   22.2699	0.000325037	   22.3015	0.00032913	   22.3015	   8.22826	
   22.3825	0.000350737	    22.363	0.000322941	   22.3247	0.000330773	   22.3567	0.000334817	   22.3567	   8.37043	
   22.4365	0.000356356	   22.4178	0.000328581	   22.3786	0.000336476	    22.411	0.000340471	    22.411	   8.51178	
   22.4896	0.000361986	    22.469	0.000334057	   22.4325	0.000342181	   22.4637	0.000346075	   22.4637	   8.65187	
   22.5423	0.000367741	   22.5199	0.000339306	   22.4859	0.000347899	    22.516	0.000351649	    22.516	   8.79122	
   22.5935	0.000373591	   22.5697	0.000344434	   22.5382	0.000353616	   22.5671	0.000357214	   22.5671	   8.93034	
   22.6446	0.000379435	    22.619	0.000349605	   22.5892	0.000359307	   22.6176	0.000362783	   22.6176	   9.06956	
   22.6949	0.00038516	   22.6683	0.000354936	   22.6394	0.000364944	   22.6675	0.000368347	   22.6675	   9.20867	
   22.7439	0.000390736	   22.7173	0.000360389	   22.6888	0.000370525	   22.7167	0.000373883	   22.7167	   9.34708	
   22.7919	0.000396229	   22.7651	0.00036582	    22.737	0.000376076	   22.7647	0.000379375	   22.7647	   9.48437	
   22.8394	0.000401769	    22.812	0.00037109	   22.7841	0.000381621	   22.8118	0.000384827	   22.8118	   9.62067	
   22.8862	0.000407408	    22.858	0.000376194	   22.8301	0.000387171	   22.8581	0.000390258	   22.8581	   9.75644	
    22.932	0.000413089	   22.9031	0.000381234	   22.8755	0.000392711	   22.9035	0.000395678	   22.9035	   9.89195	
   22.9769	0.000418704	   22.9471	0.000386352	   22.9201	0.000398214	    22.948	0.00040109	    22.948	   10.0273	
   23.0209	0.000424182	   22.9911	0.000391608	   22.9636	0.00040366	   22.9919	0.000406483	   22.9919	   10.1621	
   23.0639	0.000429534	   23.0346	0.00039694	   23.0065	0.000409053	    23.035	0.000411842	    23.035	   10.2961	
   23.1061	0.00043485	    23.077	0.000402195	   23.0484	0.00041442	   23.0772	0.000417155	   23.0772	   10.4289	
   23.1469	0.000440221	   23.1185	0.00040728	   23.0895	0.000419782	   23.1183	0.000422428	   23.1183	   10.5607	
   23.1868	0.000445664	    23.159	0.000412228	   23.1301	0.000425133	   23.1586	0.000427675	   23.1586	   10.6919	
    23.226	0.000451108	   23.1983	0.000417171	   23.1699	0.000430446	   23.1981	0.000432908	   23.1981	   10.8227	
   23.2644	0.000456462	   23.2365	0.000422243	    23.209	0.000435703	   23.2367	0.000438136	   23.2367	   10.9534	
   23.3017	0.000461683	   23.2731	0.000427438	   23.2473	0.000440912	   23.2741	0.000443344	   23.2741	   11.0836	
   23.3379	 0.0004668	   23.3092	0.000432624	   23.2847	0.000446111	   23.3106	0.000448511	   23.3106	   11.2128	
   23.3735	0.000471914	   23.3441	0.000437665	   23.3214	0.000451322	   23.3463	0.000453634	   23.3463	   11.3408	
   23.4081	0.000477091	   23.3781	0.000442536	   23.3571	0.000456537	   23.3811	0.000458721	   23.3811	    11.468	
   23.4414	0.000482327	   23.4111	0.000447299	   23.3917	0.000461701	   23.4147	0.000463776	   23.4147	   11.5944	
   23.4737	0.000487542	   23.4435	0.000452159	   23.4253	0.000466785	   23.4475	0.000468829	   23.4475	   11.7207	
   23.5052	0.000492657	   23.4747	0.000457139	   23.4583	0.000471791	   23.4794	0.000473862	   23.4794	   11.8466	
   23.5351	0.000497653	   23.5045	0.000462195	   23.4903	0.000476749	     23.51	0.000478866	     23.51	   11.9716	
    23.564	0.000502589	   23.5336	0.000467145	   23.5216	0.000481697	   23.5397	0.00048381	   23.5397	   12.0953	
   23.5922	0.000507542	   23.5616	0.000471901	    23.552	0.000486672	   23.5686	0.000488705	   23.5686	   12.2176	
   23.6187	0.00051255	   23.5883	0.000476493	   23.5818	0.000491648	   23.5963	0.000493564	   23.5963	   12.3391	
    23.645	0.000517577	   23.6144	0.000481127	   23.6109	0.000496584	   23.6234	0.000498429	   23.6234	   12.4607	
   23.6701	0.000522548	   23.6403	0.000485909	   23.6388	0.000501445	   23.6497	0.000503301	   23.6497	   12.5825	
   23.6947	0.000527406	   23.6652	0.000490816	   23.6657	0.000506227	   23.6752	0.00050815	   23.6752	   12.7037	
   23.7181	0.000532158	   23.6887	0.000495694	   23.6917	0.000510963	   23.6995	0.000512939	   23.6995	   12.8235	
   23.7404	0.000536871	   23.7113	0.000500389	   23.7161	0.000515705	   23.7226	0.000517655	   23.7226	   12.9414	
   23.7618	0.000541617	    23.733	0.000504868	   23.7396	0.000520474	   23.7448	0.00052232	   23.7448	    13.058	
   23.7823	0.000546409	   23.7542	0.000509264	   23.7621	0.000525245	   23.7662	0.000526972	   23.7662	   13.1743	
    23.802	0.000551193	   23.7741	0.000513763	   23.7838	0.000529967	   23.7867	0.000531641	   23.7867	    13.291	
   23.8214	0.000555895	   23.7937	0.000518412	   23.8044	0.000534619	   23.8065	0.000536309	   23.8065	   13.4077	
   23.8397	0.000560482	   23.8122	0.000523129	   23.8243	0.000539207	   23.8254	0.000540939	   23.8254	   13.5235	
   23.8576	0.000564988	   23.8297	0.00052777	   23.8436	0.000543771	   23.8436	0.00054551	   23.8436	   13.6377	
   23.8746	0.000569483	   23.8464	0.000532222	   23.8615	0.000548353	   23.8608	0.000550019	   23.8608	   13.7505	
    23.891	0.000574008	   23.8631	0.000536494	   23.8787	0.000552958	   23.8776	0.000554487	   23.8776	   13.8622	
   23.9062	0.000578557	   23.8786	0.000540786	   23.8949	0.000557548	   23.8932	0.000558964	   23.8932	   13.9741	
   23.9209	0.000583069	   23.8935	0.000545231	     23.91	0.000562078	   23.9081	0.000563459	   23.9081	   14.0865	
   23.9353	0.000587487	    23.907	0.000549764	   23.9237	0.000566534	    23.922	0.000567928	    23.922	   14.1982	
   23.9488	0.00059178	     23.92	0.000554219	   23.9365	0.000570937	   23.9351	0.000572312	   23.9351	   14.3078	
   23.9618	0.000595998	   23.9316	0.000558456	   23.9482	0.000575329	   23.9472	0.000576594	   23.9472	   14.4149	
   23.9739	0.000600239	   23.9423	0.000562475	   23.9588	0.000579738	   23.9583	0.000580817	   23.9583	   14.5204	
   23.9846	0.000604629	   23.9517	0.000566491	   23.9689	0.000584157	   23.9684	0.000585093	   23.9684	   14.6273	
   23.9949	0.00060913	   23.9601	0.000570692	   23.9782	0.000588551	   23.9777	0.000589458	   23.9777	   14.7364	
   24.0037	0.000613576	   23.9671	0.000575128	   23.9869	0.000592887	   23.9859	0.000593864	   23.9859	   14.8466	
   24.0119	0.000617824	   23.9731	0.000579657	   23.9943	0.000597156	   23.9931	0.000598212	   23.9931	   14.9553	
   24.0189	0.000621874	   23.9779	0.000584052	   24.0011	0.000601381	   23.9993	0.000602435	   23.9993	   15.0609	
   24.0249	0.00062583	   23.9813	0.000588202	   24.0068	0.000605595	   24.0044	0.000606543	   24.0044	   15.1636	
   24.0299	0.000629894	    23.984	0.000592183	   24.0118	0.000609819	   24.0086	0.000610632	   24.0086	   15.2658	
    24.034	0.000634131	   23.9859	0.000596179	   24.0158	0.000614046	   24.0119	0.000614786	   24.0119	   15.3696	
   24.0366	0.000638473	   23.9873	0.000600357	   24.0183	0.000618245	   24.0141	0.000619025	   24.0141	   15.4756	
   24.0382	0.000642761	   23.9878	0.000604724	   24.0197	0.000622388	   24.0152	0.000623291	   24.0152	   15.5823	
   24.0392	0.000646871	   23.9875	0.000609116	   24.0202	0.000626484	   24.0156	0.00062749	   24.0156	   15.6873	
   24.0395	0.000650822	   23.9864	0.000613337	   24.0197	0.000630524	   24.0152	0.000631561	   24.0152	    15.789	
   24.0387	0.000654725	   23.9845	0.000617327	   24.0179	0.000634535	   24.0137	0.000635529	   24.0137	   15.8882	
   24.0368	0.000658735	   23.9815	0.000621198	   24.0153	0.000638581	   24.0112	0.000639505	   24.0112	   15.9876	
   24.0338	0.000662861	   23.9775	0.000625137	   24.0121	0.000642656	   24.0078	0.000643551	   24.0078	   16.0888	
   24.0302	0.000667027	   23.9725	0.000629256	   24.0083	0.000646729	   24.0037	0.000647671	   24.0037	   16.1918	
   24.0259	0.000671057	   23.9673	0.000633511	    24.004	0.000650753	   23.9991	0.000651773	   23.9991	   16.2943	
   24.0209	0.000674881	   23.9618	0.000637703	   23.9989	0.000654675	   23.9939	0.000655753	   23.9939	   16.3938	
   24.0152	0.000678578	   23.9556	0.000641669	   23.9932	0.000658489	    23.988	0.000659579	    23.988	   16.4895	
   24.0083	0.00068228	   23.9482	0.000645406	   23.9866	0.000662276	   23.9811	0.000663321	   23.9811	    16.583	
   24.0004	0.000686106	   23.9393	0.000649081	   23.9793	0.000666114	    23.973	 0.0006671	    23.973	   16.6775	
   23.9914	0.000690033	   23.9297	0.000652874	   23.9708	0.000670017	    23.964	0.000670975	    23.964	   16.7744	
   23.9811	0.000693945	   23.9193	0.000656876	   23.9612	0.000673933	   23.9539	0.000674918	   23.9539	    16.873	
   23.9703	0.000697678	   23.9084	0.000660932	   23.9504	0.00067779	   23.9431	 0.0006788	   23.9431	     16.97	
   23.9585	0.00070122	   23.8964	0.000664825	   23.9383	0.000681536	    23.931	0.000682527	    23.931	   17.0632	
   23.9455	0.000704705	   23.8836	0.000668462	    23.925	0.000685187	    23.918	0.000686118	    23.918	    17.153	
   23.9315	0.000708271	   23.8699	0.000671917	   23.9111	0.000688821	   23.9042	0.00068967	   23.9042	   17.2417	
   23.9171	0.000711996	   23.8548	0.000675457	   23.8961	0.00069252	   23.8893	0.000693324	   23.8893	   17.3331	
   23.9016	0.000715824	   23.8391	0.000679247	   23.8802	0.00069628	   23.8737	0.000697117	   23.8737	   17.4279	
   23.8847	0.000719582	   23.8227	0.000683209	   23.8636	0.000700034	    23.857	0.000700941	    23.857	   17.5235	
   23.8671	0.00072314	   23.8058	0.000687148	   23.8457	0.000703694	   23.8395	0.000704661	   23.8395	   17.6165	
   23.8482	0.000726528	   23.7875	0.000690861	   23.8271	0.000707248	    23.821	0.000708213	    23.821	   17.7053	
   23.8285	0.000729849	     23.77	0.000694327	   23.8076	0.000710746	   23.8021	0.00071164	   23.8021	    17.791	
   23.8077	0.000733239	   23.7519	0.000697767	   23.7869	0.000714339	   23.7822	0.000715115	   23.7822	   17.8779	
    23.786	0.000736752	   23.7334	0.000701438	   23.7655	0.000717993	   23.7616	0.000718728	   23.7616	   17.9682	
   23.7634	0.000740348	   23.7126	0.000705352	   23.7431	0.000721576	   23.7397	0.000722425	   23.7397	   18.0606	
   23.7404	0.000743854	   23.6895	0.000709316	   23.7203	0.000725014	   23.7167	0.000726061	   23.7167	   18.1515	
   23.7163	0.000747195	   23.6651	0.000713093	   23.6971	0.000728314	   23.6928	0.000729534	   23.6928	   18.2384	
   23.6913	0.000750417	   23.6386	0.000716578	    23.676	0.000731569	   23.6686	0.000732855	   23.6686	   18.3214	
   23.6652	0.000753615	   23.6121	0.000719877	   23.6532	0.000734931	   23.6435	0.000736141	   23.6435	   18.4035	
   23.6384	0.000756879	   23.5849	0.000723246	    23.629	0.000738454	   23.6174	0.000739526	   23.6174	   18.4882	
     23.61	0.000760225	    23.557	0.000726848	   23.6019	0.00074201	   23.5896	0.000743028	   23.5896	   18.5757	
   23.5809	0.000763535	   23.5285	0.000730631	   23.5718	0.000745449	   23.5604	0.000746538	   23.5604	   18.6635	
   23.5507	0.000766705	   23.4989	0.000734372	   23.5411	0.000748685	   23.5302	0.000749921	   23.5302	    18.748	
   23.5201	0.000769747	   23.4687	0.000737878	   23.5092	0.000751775	   23.4993	0.000753133	   23.4993	   18.8283	
   23.4893	0.000772744	   23.4375	0.000741116	   23.4765	0.000754871	   23.4678	0.000756244	   23.4678	   18.9061	
   23.4578	0.000775763	    23.405	0.000744257	   23.4435	0.000758086	   23.4354	0.000759369	   23.4354	   18.9842	
   23.4258	0.000778835	   23.3716	0.000747518	   23.4103	0.00076139	   23.4026	0.000762581	   23.4026	   19.0645	
    23.393	0.000781918	   23.3373	0.000750982	   23.3763	0.000764656	   23.3688	0.000765852	   23.3688	   19.1463	
   23.3587	0.000784932	   23.3022	0.000754534	   23.3411	0.000767775	    23.334	0.00076908	    23.334	    19.227	
   23.3236	0.00078783	   23.2663	0.000757962	   23.3046	0.000770732	   23.2982	0.000772175	   23.2982	   19.3044	
   23.2875	0.000790646	   23.2293	0.000761144	   23.2672	0.000773624	   23.2613	0.000775138	   23.2613	   19.3785	
     23.25	0.000793451	   23.1913	0.000764132	   23.2289	0.000776576	   23.2234	0.000778053	   23.2234	   19.4513	
   23.2114	0.000796287	   23.1518	0.000767104	   23.1901	0.000779658	   23.1844	0.000781016	   23.1844	   19.5254	
   23.1716	0.000799157	   23.1115	0.000770237	   23.1498	0.000782816	   23.1443	0.00078407	   23.1443	   19.6018	
   23.1313	0.000802019	   23.0705	0.000773553	   23.1082	0.000785919	   23.1033	0.000787164	   23.1033	   19.6791	
     23.09	0.000804813	   23.0291	0.000776925	   23.0657	0.000788854	   23.0616	0.000790197	   23.0616	   19.7549	
   23.0477	0.000807476	   22.9862	0.000780171	   23.0219	0.000791616	   23.0186	0.000793088	   23.0186	   19.8272	
   23.0047	0.000810039	   22.9424	0.000783215	    22.977	0.000794308	   22.9747	0.000795854	   22.9747	   19.8963	
   22.9604	0.000812576	   22.8973	0.000786127	   22.9318	0.000797067	   22.9298	0.00079859	   22.9298	   19.9647	
   22.9151	0.000815163	   22.8515	0.000789054	   22.8855	0.000799936	    22.884	0.000801384	    22.884	   20.0346	
   22.8689	0.000817813	   22.8049	0.000792106	   22.8375	0.000802834	   22.8371	0.000804251	   22.8371	   20.1063	
   22.8214	0.000820486	   22.7569	0.000795291	   22.7884	0.000805634	   22.7889	0.000807137	   22.7889	   20.1784	
   22.7729	0.000823086	   22.7082	0.000798519	   22.7384	0.000808263	   22.7398	0.000809956	   22.7398	   20.2489	
   22.7234	0.00082554	   22.6588	0.000801644	   22.6878	0.000810757	     22.69	0.000812647	     22.69	   20.3162	
   22.6727	0.000827877	   22.6072	0.000804599	   22.6363	0.00081323	   22.6387	0.000815235	   22.6387	   20.3809	
   22.6215	0.000830202	   22.5537	0.000807443	   22.5844	0.000815784	   22.5865	0.00081781	   22.5865	   20.4452	
   22.5689	0.000832606	   22.4993	0.000810282	   22.5314	0.000818419	   22.5332	0.000820436	   22.5332	   20.5109	
   22.5153	0.000835085	   22.4446	0.000813169	   22.4778	0.000821037	   22.4792	0.000823097	   22.4792	   20.5774	
   22.4607	0.000837567	   22.3894	0.000816097	   22.4236	0.000823536	   22.4246	0.000825733	   22.4246	   20.6433	
   22.4054	0.000839939	   22.3339	0.000818987	   22.3689	0.00082589	   22.3694	0.000828272	   22.3694	   20.7068	
   22.3489	0.000842165	   22.2783	0.000821783	   22.3131	0.000828161	   22.3134	0.000830703	   22.3134	   20.7676	
   22.2915	0.000844283	    22.222	0.000824486	   22.2562	0.000830455	   22.2566	0.000833075	   22.2566	   20.8269	
   22.2336	0.000846394	   22.1642	0.00082715	   22.1982	0.000832824	   22.1987	0.000835456	   22.1987	   20.8864	
   22.1746	0.000848579	    22.106	0.000829824	   22.1395	0.000835233	     22.14	0.000837879	     22.14	    20.947	
   22.1146	0.00085083	   22.0456	0.000832489	     22.08	0.000837592	   22.0801	0.000840304	   22.0801	   21.0076	
   22.0536	0.000853074	   21.9854	0.000835115	   22.0197	0.000839828	   22.0196	0.000842672	   22.0196	   21.0668	
   21.9916	0.000855215	   21.9245	0.000837704	   21.9591	0.000841951	   21.9584	0.000844957	   21.9584	   21.1239	
   21.9287	0.000857227	   21.8622	0.000840242	   21.8978	0.000844036	   21.8962	0.000847168	   21.8962	   21.1792	
   21.8643	0.000859155	   21.7999	0.000842751	   21.8353	0.000846203	   21.8332	0.00084937	   21.8332	   21.2342	
   21.7991	0.000861097	   21.7361	0.000845237	   21.7719	0.000848427	    21.769	0.000851587	    21.769	   21.2897	
   21.7331	0.000863111	   21.6715	0.000847606	   21.7069	0.000850648	   21.7038	0.000853788	   21.7038	   21.3447	
   21.6662	0.000865181	   21.6061	0.000849887	   21.6412	0.000852729	   21.6379	0.000855932	   21.6379	   21.3983	
   21.5981	0.000867236	   21.5392	0.000852109	   21.5747	0.000854648	   21.5707	0.000857997	   21.5707	   21.4499	
   21.5295	0.00086919	   21.4715	0.000854368	   21.5073	0.000856466	   21.5028	0.000860008	   21.5028	   21.5002	
   21.4595	0.000871029	   21.4032	0.00085665	   21.4385	0.000858334	   21.4337	0.000862004	   21.4337	   21.5501	
   21.3888	0.000872812	   21.3345	0.000858922	   21.3689	0.000860359	   21.3641	0.000864031	   21.3641	   21.6008	
   21.3173	0.000874621	   21.2655	0.000861071	   21.2984	0.000862485	   21.2937	0.000866059	   21.2937	   21.6515	
   21.2453	0.000876496	    21.195	0.000863079	   21.2272	0.000864487	   21.2225	0.000868021	   21.2225	   21.7005	
   21.1728	0.000878397	    21.124	0.000864984	   21.1554	0.00086625	   21.1507	0.000869877	   21.1507	   21.7469	
   21.0992	0.000880248	   21.0516	0.000866877	    21.083	0.000867778	   21.0779	0.000871634	   21.0779	   21.7909	
    21.025	0.000881996	   20.9785	0.000868812	    21.011	0.000869249	   21.0049	0.000873352	   21.0049	   21.8338	
   20.9499	0.000883655	    20.904	0.000870774	   20.9384	0.000870893	   20.9308	0.000875107	   20.9308	   21.8777	
    20.874	0.000885293	   20.8286	0.000872702	   20.8655	0.000872803	    20.856	0.000876932	    20.856	   21.9233	
    20.797	0.000886965	   20.7525	0.000874554	   20.7902	0.000874798	   20.7799	0.000878772	   20.7799	   21.9693	
   20.7196	0.000888678	   20.6759	0.000876331	   20.7121	0.000876636	   20.7025	0.000880548	   20.7025	   22.0137	
   20.6415	0.000890383	   20.5982	0.000878058	   20.6327	0.000878178	   20.6241	0.000882206	   20.6241	   22.0552	
   20.5625	0.000892022	   20.5195	0.000879781	   20.5522	0.000879503	   20.5448	0.000883769	   20.5448	   22.0942	
   20.4828	0.000893578	   20.4399	0.000881508	   20.4718	0.000880826	   20.4648	0.000885304	   20.4648	   22.1326	
    20.402	0.000895081	   20.3593	0.000883212	   20.3911	0.000882352	   20.3842	0.000886882	   20.3842	    22.172	
   20.3204	0.000896586	   20.2775	0.000884855	   20.3103	0.000884088	   20.3027	0.00088851	   20.3027	   22.2127	
   20.2382	0.000898124	   20.1951	0.000886413	   20.2292	0.000885847	   20.2208	0.000890128	   20.2208	   22.2532	
    20.155	0.000899677	   20.1122	0.000887911	   20.1472	0.000887415	   20.1381	0.000891668	   20.1381	   22.2917	
   20.0712	0.000901198	   20.0289	0.000889411	   20.0639	0.000888728	   20.0547	0.000893112	   20.0547	   22.3278	
   19.9865	0.000902648	   19.9451	0.000890926	    19.979	0.000889898	   19.9702	0.000894491	   19.9702	   22.3623	
   19.9013	0.000904025	   19.8604	0.000892445	    19.893	0.000891137	   19.8849	0.000895869	   19.8849	   22.3967	
   19.8151	0.00090537	   19.7749	0.000893937	   19.8071	0.00089257	    19.799	0.000897292	    19.799	   22.4323	
   19.7284	0.000906727	   19.6887	0.000895368	   19.7203	0.000894142	   19.7125	0.000898746	   19.7125	   22.4686	
   19.6409	0.000908114	   19.6023	0.000896728	   19.6326	0.000895666	   19.6252	0.000900169	   19.6252	   22.5042	
    19.553	0.000909508	   19.5146	0.000898038	   19.5444	0.000896976	   19.5373	0.000901507	   19.5373	   22.5377	
   19.4645	0.000910862	   19.4258	0.00089934	   19.4552	0.000898041	   19.4485	0.000902748	   19.4485	   22.5687	
   19.3754	0.000912158	   19.3363	0.000900635	   19.3647	0.000898995	   19.3588	0.000903929	   19.3588	   22.5982	
   19.2849	0.000913415	   19.2459	0.00090191	   19.2738	0.000900066	   19.2682	0.00090513	   19.2682	   22.6283	
   19.1939	0.000914656	   19.1544	0.000903152	   19.1818	0.000901285	   19.1767	0.000906364	   19.1767	   22.6591	
    19.102	0.000915844	   19.0623	0.000904339	   19.0888	0.000902561	   19.0843	0.000907582	   19.0843	   22.6895	
   19.0094	0.000917021	   18.9699	0.000905484	   18.9954	0.000903675	   18.9916	0.000908726	   18.9916	   22.7182	
   18.9161	0.000918189	   18.8766	0.000906627	   18.9013	0.000904546	    18.898	0.000909787	    18.898	   22.7447	
   18.8218	0.000919378	   18.7826	0.000907775	   18.8065	0.000905255	   18.8036	0.000910803	   18.8036	   22.7701	
   18.7265	0.00092058	   18.6873	0.000908898	   18.7107	0.000906035	   18.7082	0.000911838	   18.7082	   22.7959	
   18.6306	0.000921777	   18.5916	0.000909894	   18.6136	0.000906995	    18.612	0.000912889	    18.612	   22.8222	
   18.5344	0.000922899	   18.4955	0.000910838	   18.5158	0.000908083	   18.5153	0.00091394	   18.5153	   22.8485	
   18.4378	0.000923933	   18.3987	0.000911765	   18.4174	0.000909109	    18.418	0.000914936	    18.418	   22.8734	
     18.34	0.000924898	    18.301	0.000912832	   18.3182	0.000909925	   18.3197	0.000915885	   18.3197	   22.8971	
   18.2418	0.000925862	   18.2027	0.000913996	   18.2181	0.000910537	   18.2209	0.000916798	   18.2209	     22.92	
   18.1427	0.000926879	    18.103	0.00091516	   18.1172	0.000911101	    18.121	0.000917713	    18.121	   22.9428	
   18.0424	0.000927966	   18.0024	0.000916124	   18.0157	0.000911752	   18.0202	0.000918614	   18.0202	   22.9654	
   17.9412	0.000929052	   17.9013	0.000916897	   17.9134	0.000912576	   17.9186	0.000919508	   17.9186	   22.9877	
   17.8394	0.000930065	   17.7996	0.000917567	   17.8111	0.000913461	   17.8167	0.000920364	   17.8167	   23.0091	
   17.7362	0.000930958	   17.6971	0.000918304	   17.7082	0.000914311	   17.7138	0.000921191	   17.7138	   23.0298	
   17.6324	0.00093173	    17.594	0.000919204	   17.6047	0.000914997	   17.6104	0.000921977	   17.6104	   23.0494	
   17.5279	0.000932467	   17.4904	0.000920222	   17.5004	0.000915523	   17.5062	0.000922737	   17.5062	   23.0684	
   17.4234	0.000933241	   17.3862	0.000921172	   17.3949	0.000915969	   17.4015	0.000923461	   17.4015	   23.0865	
   17.3181	0.000934076	   17.2812	0.000921946	   17.2887	0.000916487	    17.296	0.00092417	    17.296	   23.1042	
   17.2121	0.000934947	   17.1751	0.000922547	   17.1825	0.000917112	   17.1899	0.000924869	   17.1899	   23.1217	
   17.1052	0.000935791	   17.0678	0.000923093	   17.0759	0.000917785	    17.083	0.000925557	    17.083	   23.1389	
   16.9978	0.000936528	   16.9594	0.000923714	   16.9684	0.000918405	   16.9752	0.000926216	   16.9752	   23.1554	
   16.8894	0.000937135	     16.85	0.00092451	   16.8602	0.00091888	   16.8666	0.000926842	   16.8666	    23.171	
   16.7803	0.000937678	   16.7397	0.000925419	   16.7512	0.000919215	   16.7571	0.000927438	   16.7571	   23.1859	
   16.6701	0.000938223	   16.6282	0.000926285	   16.6419	0.000919515	   16.6467	0.000928008	   16.6467	   23.2002	
   16.5592	0.000938799	   16.5154	0.000926995	   16.5315	0.00091988	   16.5354	0.000928558	   16.5354	   23.2139	
   16.4483	0.000939366	   16.4015	0.000927559	   16.4205	0.000920325	   16.4234	0.000929083	   16.4234	   23.2271	
   16.3365	0.000939858	   16.2868	0.000928067	   16.3088	0.000920767	   16.3107	0.000929564	   16.3107	   23.2391	
   16.2243	0.000940239	   16.1725	0.000928676	   16.1963	0.000921114	   16.1977	0.00093001	   16.1977	   23.2502	
    16.111	0.000940556	   16.0581	0.000929425	   16.0827	0.000921325	    16.084	0.000930435	    16.084	   23.2609	
   15.9971	0.000940864	   15.9438	0.000930194	   15.9686	0.00092145	   15.9698	0.000930836	   15.9698	   23.2709	
   15.8824	0.000941204	   15.8292	0.00093086	   15.8539	0.000921595	   15.8552	0.00093122	   15.8552	   23.2805	
    15.767	0.00094157	   15.7133	0.000931384	   15.7382	0.000921819	   15.7395	0.000931591	   15.7395	   23.2898	
   15.6504	 0.0009419	   15.5962	0.000931791	   15.6222	0.000922096	   15.6229	0.000931929	   15.6229	   23.2982	
    15.533	0.000942136	   15.4775	0.000932191	   15.5059	0.000922348	   15.5055	0.000932225	   15.5055	   23.3056	
   15.4148	0.000942274	   15.3584	0.000932692	   15.3889	0.00092251	   15.3874	0.000932492	   15.3874	   23.3123	
   15.2964	0.00094235	   15.2386	0.000933265	   15.2712	0.000922513	   15.2687	0.000932709	   15.2687	   23.3177	
   15.1772	0.000942427	   15.1181	0.000933808	   15.1533	0.000922371	   15.1495	0.000932869	   15.1495	   23.3217	
   15.0572	0.000942548	   14.9983	0.000934237	   15.0351	0.000922273	   15.0302	0.000933019	   15.0302	   23.3255	
   14.9368	0.000942687	    14.877	0.000934533	    14.916	0.000922298	     14.91	0.000933173	     14.91	   23.3293	
   14.8156	0.000942775	   14.7548	0.000934749	    14.796	0.000922516	   14.7888	0.000933346	   14.7888	   23.3337	
   14.6933	0.000942765	    14.632	0.000934983	   14.6738	0.000922822	   14.6663	0.000933524	   14.6663	   23.3381	
     14.57	0.000942667	   14.5089	0.000935299	   14.5502	0.000923033	    14.543	0.000933666	    14.543	   23.3417	
   14.4461	0.000942546	    14.385	0.000935653	   14.4261	0.000922994	   14.4191	0.000933731	   14.4191	   23.3433	
   14.3218	0.000942449	   14.2607	0.000935948	   14.3021	0.000922741	   14.2949	0.000933713	   14.2949	   23.3428	
   14.1963	0.000942391	   14.1355	0.000936116	   14.1777	0.000922425	   14.1699	0.000933644	   14.1699	   23.3411	
   14.0704	0.000942325	   14.0096	0.000936169	    14.054	0.00092225	   14.0447	0.000933581	   14.0447	   23.3395	
   13.9441	0.000942189	    13.883	0.000936183	   13.9299	0.000922283	    13.919	0.000933552	    13.919	   23.3388	
   13.8174	0.00094196	    13.756	0.000936252	   13.8052	0.000922453	   13.7929	0.000933555	   13.7929	   23.3389	
   13.6905	0.000941662	   13.6285	 0.0009364	   13.6789	0.000922557	    13.666	0.00093354	    13.666	   23.3385	
    13.563	0.000941345	   13.5005	0.000936572	   13.5528	0.000922451	   13.5388	0.000933456	   13.5388	   23.3364	
   13.4354	0.000941048	   13.3727	0.000936682	   13.4245	0.000922155	   13.4109	0.000933295	   13.4109	   23.3324	
   13.3077	0.000940773	   13.2448	0.000936686	    13.296	0.000921813	   13.2828	0.000933091	   13.2828	   23.3273	
   13.1794	0.000940491	   13.1161	0.000936605	   13.1682	0.000921583	   13.1545	0.000932893	   13.1545	   23.3223	
   13.0507	0.000940156	   12.9864	0.000936511	   13.0393	0.000921516	   13.0255	0.000932727	   13.0255	   23.3182	
   12.9212	0.000939751	   12.8566	0.000936461	   12.9109	0.000921507	   12.8962	0.000932573	   12.8962	   23.3143	
   12.7907	0.000939289	   12.7263	0.000936456	   12.7813	0.000921388	   12.7661	0.000932378	   12.7661	   23.3094	
   12.6596	0.000938802	   12.5949	0.000936437	    12.651	0.000921078	   12.6352	0.000932106	   12.6352	   23.3026	
   12.5281	0.000938306	   12.4632	0.000936338	   12.5203	0.000920632	   12.5039	0.000931759	   12.5039	    23.294	
   12.3963	0.000937811	   12.3315	0.000936132	   12.3892	0.000920192	   12.3724	0.000931378	   12.3724	   23.2845	
   12.2643	0.000937292	   12.1991	0.000935857	    12.258	0.000919876	   12.2405	0.000931008	   12.2405	   23.2752	
    12.132	0.000936715	   12.0662	0.00093558	    12.126	0.000919676	   12.1081	0.000930657	   12.1081	   23.2664	
   11.9992	0.00093609	   11.9334	0.000935342	    11.994	0.000919474	   11.9755	0.000930302	   11.9755	   23.2575	
   11.8658	0.000935447	   11.8003	0.000935122	   11.8612	0.000919135	   11.8424	0.000929901	   11.8424	   23.2475	
   11.7321	0.000934801	   11.6665	0.000934857	   11.7277	0.000918629	   11.7088	0.000929429	   11.7088	   23.2357	
   11.5975	0.000934147	   11.5327	0.000934493	   11.5939	0.000918041	   11.5747	0.000928894	   11.5747	   23.2223	
   11.4623	0.000933472	   11.3989	0.000934034	   11.4599	0.000917497	   11.4403	0.000928334	   11.4403	   23.2084	
   11.3266	0.000932747	   11.2646	0.000933531	   11.3251	0.000917059	   11.3054	0.000927779	   11.3054	   23.1945	
   11.1903	0.000931967	   11.1305	0.000933044	   11.1894	0.00091668	   11.1701	0.000927231	   11.1701	   23.1808	
    11.054	0.000931153	   10.9958	0.000932597	   11.0529	0.000916249	   11.0342	0.000926667	   11.0342	   23.1667	
   10.9173	0.000930327	   10.8609	0.00093215	   10.9162	0.000915684	   10.8981	0.000926054	   10.8981	   23.1513	
   10.7802	0.000929497	   10.7255	0.000931639	   10.7792	0.000915002	   10.7616	0.000925379	   10.7616	   23.1345	
   10.6429	0.000928656	   10.5894	0.000931009	   10.6419	0.000914299	   10.6247	0.000924655	   10.6247	   23.1164	
   10.5051	0.000927788	   10.4525	0.000930275	   10.5042	0.000913665	   10.4873	0.000923909	   10.4873	   23.0977	
   10.3668	0.000926879	   10.3152	 0.0009295	   10.3665	0.000913116	   10.3495	0.000923165	   10.3495	   23.0791	
   10.2282	0.000925929	   10.1775	0.00092878	   10.2285	0.000912582	   10.2114	0.00092243	   10.2114	   23.0608	
   10.0891	0.000924951	    10.039	0.00092814	   10.0904	0.00091196	   10.0728	0.000921684	   10.0728	   23.0421	
   9.94959	0.00092396	   9.90022	0.000927544	   9.95169	0.000911201	   9.93383	0.000920902	   9.93383	   23.0225	
   9.80978	0.000922958	    9.7611	0.000926899	   9.81325	0.000910345	   9.79471	0.000920067	   9.79471	   23.0017	
    9.6688	0.000921942	   9.62214	0.000926116	   9.67446	0.000909485	   9.65513	0.000919181	   9.65513	   22.9795	
   9.52791	 0.0009209	   9.48254	0.000925197	   9.53543	0.000908685	   9.51529	0.000918261	   9.51529	   22.9565	
   9.38637	0.000919892	    9.3433	0.000924244	   9.39545	0.000907943	   9.37504	0.00091736	   9.37504	    22.934	
   9.24391	0.000918864	   9.20326	0.000923337	   9.25533	0.000907167	   9.23417	0.000916456	   9.23417	   22.9114	
   9.10136	0.000917792	   9.06323	0.00092251	   9.11477	0.000906264	   9.09312	0.000915522	   9.09312	    22.888	
   8.95868	0.000916562	    8.9229	0.000921729	   8.97348	0.000905244	   8.95168	0.000914512	   8.95168	   22.8628	
   8.81556	0.000915225	   8.78223	0.000920887	   8.83174	0.000904186	   8.80984	0.000913433	   8.80984	   22.8358	
   8.67358	0.000913862	   8.64068	0.000919913	     8.689	0.000903205	   8.66775	0.000912327	   8.66775	   22.8082	
   8.53233	0.000912613	   8.49878	0.000918818	   8.54557	0.000902296	   8.52556	0.000911243	   8.52556	   22.7811	
   8.39145	0.00091147	   8.35626	0.000917676	   8.40199	0.000901339	   8.38323	0.000910162	   8.38323	    22.754	
   8.24716	0.000910352	   8.21366	0.00091657	   8.25822	0.000900242	   8.23968	0.000909055	   8.23968	   22.7264	
   8.10365	0.000909126	    8.0704	0.000915531	   8.11425	0.000898993	    8.0961	0.000907883	    8.0961	   22.6971	
   7.95687	0.00090772	   7.92703	0.000914503	   7.96977	0.000897692	   7.95122	0.000906639	   7.95122	    22.666	
   7.80995	0.000906178	   7.78297	0.000913393	   7.82454	0.000896473	   7.80582	0.000905348	   7.80582	   22.6337	
   7.66366	0.000904642	   7.63878	0.000912156	   7.67883	0.000895366	   7.66042	0.000904055	   7.66042	   22.6014	
   7.51686	0.00090319	   7.49389	0.000910814	   7.53213	0.000894313	   7.51429	0.000902772	   7.51429	   22.5693	
   7.37087	0.000901794	   7.34939	0.000909443	   7.38527	0.000893119	   7.36851	0.000901452	   7.36851	   22.5363	
   7.22507	0.000900367	   7.20414	0.000908134	   7.23876	0.000891757	   7.22266	0.000900086	   7.22266	   22.5021	
   7.07861	0.000898829	   7.05844	0.000906861	   7.09307	0.000890299	   7.07671	0.000898663	   7.07671	   22.4666	
   6.93232	0.000897154	   6.91201	0.000905573	   6.94731	0.000888842	   6.93055	0.00089719	   6.93055	   22.4297	
   6.78509	0.000895408	   6.76541	0.000904158	   6.80144	0.00088745	   6.78398	0.000895672	   6.78398	   22.3918	
   6.63775	0.000893684	   6.61863	0.000902565	   6.65596	0.000886136	   6.63745	0.000894129	   6.63745	   22.3532	
   6.49002	0.000892014	   6.47113	0.000900865	   6.51003	0.000884784	   6.49039	0.000892554	   6.49039	   22.3139	
   6.34217	0.000890373	   6.32318	0.000899214	   6.36258	0.000883276	   6.34264	0.000890954	   6.34264	   22.2739	
   6.19444	0.000888695	   6.17533	0.000897686	   6.21502	0.000881607	   6.19493	0.00088933	   6.19493	   22.2332	
   6.04653	0.000886904	   6.02675	0.000896265	   6.06735	0.000879848	   6.04687	0.000887672	   6.04687	   22.1918	
   5.89869	0.000884995	     5.878	0.000894831	   5.91953	0.000878108	   5.89874	0.000885978	   5.89874	   22.1495	
   5.75009	0.00088303	   5.72907	0.000893264	   5.77234	0.000876452	    5.7505	0.000884249	    5.7505	   22.1062	
   5.60151	0.000881084	   5.58017	0.000891535	   5.62423	0.000874828	   5.60197	0.000882482	   5.60197	   22.0621	
   5.45245	0.00087918	   5.43053	0.00088974	   5.47592	0.000873106	   5.45297	0.000880675	   5.45297	   22.0169	
   5.30319	0.000877281	   5.28071	0.000887999	   5.32794	0.000871213	   5.30395	0.000878831	   5.30395	   21.9708	
   5.15424	0.000875316	   5.13098	0.000886363	   5.17943	0.000869188	   5.15488	0.000876956	   5.15488	   21.9239	
   5.00556	0.000873241	   4.98156	0.000884781	   5.03069	0.00086713	   5.00594	0.000875051	   5.00594	   21.8763	
   4.85658	0.000871079	    4.8324	0.000883149	   4.88169	0.000865125	   4.85689	0.000873118	   4.85689	   21.8279	
   4.70755	0.000868906	   4.68294	0.000881411	   4.73245	0.00086317	   4.70765	0.000871162	   4.70765	   21.7791	
   4.55846	0.000866772	   4.53317	0.000879565	   4.58295	0.000861231	   4.55819	0.000869189	   4.55819	   21.7297	
   4.40955	0.000864649	   4.38336	0.00087766	   4.43346	0.000859207	   4.40879	0.000867172	   4.40879	   21.6793	
   4.26051	0.000862454	   4.23349	0.000875726	   4.28369	0.000857051	   4.25923	0.000865077	   4.25923	   21.6269	
   4.11107	0.000860141	   4.08355	0.000873812	   4.13417	0.000854787	    4.1096	0.000862913	    4.1096	   21.5728	
    3.9615	0.000857729	   3.93352	0.000871898	   3.98432	0.000852497	   3.95978	0.000860708	   3.95978	   21.5177	
   3.81153	0.000855274	   3.78339	0.000869957	   3.83443	0.000850253	   3.80978	0.000858495	   3.80978	   21.4624	
   3.66116	0.000852854	   3.63341	0.000867951	    3.6842	0.000848072	   3.65959	0.000856292	   3.65959	   21.4073	
   3.51095	0.00085049	   3.48354	0.000865905	   3.53364	0.000845891	   3.50938	0.000854095	   3.50938	   21.3524	
   3.36085	0.000848118	   3.33376	0.000863834	   3.38303	0.000843587	   3.35921	0.000851847	   3.35921	   21.2962	
   3.21084	0.000845662	   3.18351	0.000861733	    3.2321	0.00084113	   3.20882	0.000849508	   3.20882	   21.2377	
   3.06089	0.000843076	   3.03334	0.000859589	   3.08137	0.000838576	   3.05853	0.00084708	   3.05853	    21.177	
   2.91072	0.000840369	   2.88297	0.00085738	   2.93107	0.000836018	   2.90825	0.000844589	   2.90825	   21.1147	
   2.76005	0.000837643	   2.73185	0.000855101	    2.7801	0.000833546	   2.75733	0.000842097	   2.75733	   21.0524	
   2.60918	0.000834987	   2.58108	0.000852769	   2.62876	0.000831143	   2.60634	0.000839633	   2.60634	   20.9908	
   2.45783	0.00083243	   2.42984	0.000850419	   2.47706	0.000828719	   2.45491	0.000837189	   2.45491	   20.9297	
   2.30683	0.000829832	   2.27866	0.000848048	   2.32554	0.000826186	   2.30368	0.000834689	   2.30368	   20.8672	
   2.15559	0.000827062	   2.12675	0.000845636	   2.17391	0.000823506	   2.15208	0.000832068	   2.15208	   20.8017	
    2.0036	0.000824085	   1.97492	0.000843157	   2.02216	0.00082071	   2.00023	0.000829317	   2.00023	   20.7329	
   1.85142	0.000820969	   1.82316	0.000840589	   1.87002	0.000817902	    1.8482	0.000826487	    1.8482	   20.6622	
   1.69959	0.000817853	   1.67171	0.000837951	   1.71804	0.000815144	   1.69645	0.000823649	   1.69645	   20.5912	
   1.54748	0.000814863	   1.52027	0.000835279	   1.56656	0.000812423	   1.54477	0.000820855	   1.54477	   20.5214	
   1.39569	0.00081196	   1.36829	0.000832593	   1.41515	0.000809673	   1.39304	0.000818075	   1.39304	   20.4519	
   1.24364	0.000809001	   1.21738	0.000829877	   1.26379	0.000806819	    1.2416	0.000815232	    1.2416	   20.3808	
   1.09107	0.000805867	   1.06638	0.000827104	   1.11273	0.000803835	   1.09006	0.000812269	   1.09006	   20.3067	
  0.938551	0.000802538	  0.916072	0.000824255	  0.961387	0.000800771	   0.93867	0.000809188	   0.93867	   20.2297	
  0.785529	0.000799106	  0.765854	0.000821326	  0.810307	0.000797715	   0.78723	0.000806049	   0.78723	   20.1512	
   0.63309	0.000795715	  0.616226	0.000818337	  0.659445	0.000794714	  0.636254	0.000802922	  0.636254	   20.0731	
  0.480386	0.000792393	  0.466062	0.000815319	  0.508505	0.000791731	  0.484984	0.000799814	  0.484984	   19.9954	
  0.327951	0.000789119	  0.316179	0.000812281	  0.356945	0.000788695	  0.333692	0.000796698	  0.333692	   19.9175	
  0.175227	0.000785792	  0.167057	0.000809206	  0.205591	0.000785543	  0.182625	0.000793514	  0.182625	   19.8378	
 0.0227524	0.000782363	 0.0183434	0.00080607	 0.0538844	0.000782282	 0.0316601	0.000790239	 0.0316601	    19.756	
 -0.129508	0.00077882	 -0.130809	0.000802853	-0.0976343	0.000778987	 -0.119317	0.000786887	 -0.119317	   19.6722	
  -0.28106	0.000775216	 -0.280125	0.000799554	 -0.249527	0.000775749	 -0.270237	0.000783506	 -0.270237	   19.5877	
 -0.433029	0.000771572	  -0.42909	 0.0007962	 -0.401251	0.00077255	 -0.421123	0.000780107	 -0.421123	   19.5027	
 -0.585134	0.000767927	  -0.57828	0.000792822	 -0.553096	0.00076929	  -0.57217	0.00077668	  -0.57217	    19.417	
 -0.737379	0.000764261	 -0.727175	0.00078942	  -0.70454	0.000765871	 -0.723031	0.000773184	 -0.723031	   19.3296	
 -0.889498	0.00076054	 -0.875826	0.000785978	 -0.855899	0.000762302	 -0.873741	0.000769606	 -0.873741	   19.2402	
  -1.04178	0.000756742	  -1.02454	0.000782472	  -1.00693	0.000758644	  -1.02442	0.000765953	  -1.02442	   19.1488	
  -1.19397	0.000752889	  -1.17333	0.000778894	  -1.15847	0.000755027	  -1.17526	0.00076227	  -1.17526	   19.0568	
  -1.34687	0.000748999	  -1.32249	0.000775256	  -1.31022	0.00075149	  -1.32653	0.000758582	  -1.32653	   18.9645	
  -1.49885	0.000745095	  -1.47174	0.000771577	  -1.46219	0.000748033	  -1.47759	0.000754902	  -1.47759	   18.8725	
  -1.65081	0.000741179	  -1.62164	0.000767865	  -1.61463	0.000744557	  -1.62903	 0.0007512	  -1.62903	     18.78	
  -1.80274	0.000737217	  -1.77161	0.000764122	  -1.76726	0.000740939	  -1.78054	0.000747426	  -1.78054	   18.6857	
  -1.95467	0.000733176	  -1.92195	0.000760337	  -1.91954	0.000737109	  -1.93205	0.00074354	  -1.93205	   18.5885	
  -2.10635	0.000729057	  -2.07184	0.000756497	  -2.07231	0.000733134	   -2.0835	0.000739563	   -2.0835	   18.4891	
   -2.2586	0.000724888	  -2.22213	0.000752587	  -2.22502	0.000729128	  -2.23525	0.000735534	  -2.23525	   18.3884	
  -2.41034	0.000720696	  -2.37229	0.000748594	  -2.37716	0.000725182	   -2.3866	0.000731491	   -2.3866	   18.2873	
  -2.56147	0.000716494	  -2.52251	0.000744583	  -2.52951	0.000721295	  -2.53783	0.000727457	  -2.53783	   18.1864	
  -2.71195	0.000712261	  -2.67212	0.000740584	  -2.68108	0.000717377	  -2.68838	0.000723407	  -2.68838	   18.0852	
  -2.86237	0.000707963	  -2.82197	0.000736592	    -2.833	0.00071331	  -2.83911	0.000719288	  -2.83911	   17.9822	
  -3.01172	0.000703591	  -2.97154	0.000732545	   -2.9842	0.000709073	  -2.98915	0.000715069	  -2.98915	   17.8767	
  -3.16089	0.000699159	  -3.12168	0.000728392	  -3.13502	0.00070473	   -3.1392	0.00071076	   -3.1392	    17.769	
  -3.30992	0.000694699	  -3.27182	0.000724104	  -3.28525	0.000700383	  -3.28899	0.000706395	  -3.28899	   17.6599	
  -3.45963	0.000690222	  -3.42198	0.000719739	  -3.43495	0.000696091	  -3.43886	0.000702017	  -3.43886	   17.5504	
  -3.60869	0.000685722	   -3.5722	0.000715355	  -3.58446	0.000691837	  -3.58845	0.000697638	  -3.58845	   17.4409	
  -3.75847	0.000681175	  -3.72221	0.000711019	  -3.73355	0.000687521	  -3.73808	0.000693239	  -3.73808	    17.331	
  -3.90737	0.000676551	  -3.87259	0.000706693	  -3.88228	0.000683064	  -3.88741	0.000688769	  -3.88741	   17.2192	
  -4.05626	0.00067188	  -4.02307	0.000702372	  -4.03097	0.000678469	  -4.03677	0.00068424	  -4.03677	    17.106	
  -4.20466	0.000667162	  -4.17364	0.000697984	  -4.17911	0.00067381	   -4.1858	0.000679652	   -4.1858	   16.9913	
  -4.35315	0.000662408	  -4.32406	0.000693482	  -4.32705	0.000669167	  -4.33475	0.000675019	  -4.33475	   16.8755	
  -4.50175	0.000657597	  -4.47436	0.00068881	  -4.47509	0.000664572	  -4.48373	0.000670326	  -4.48373	   16.7582	
  -4.65074	0.000652743	  -4.62457	0.000684042	  -4.62326	0.000659983	  -4.63286	0.00066559	  -4.63286	   16.6397	
  -4.79907	0.000647874	  -4.77421	0.000679266	   -4.7713	0.000655318	  -4.78152	0.00066082	  -4.78152	   16.5205	
  -4.94786	0.000643017	  -4.92385	0.000674585	  -4.91925	0.000650531	  -4.93032	0.000656044	  -4.93032	   16.4011	
  -5.09631	0.000638144	  -5.07273	0.000669968	  -5.06767	0.000645643	   -5.0789	0.000651252	   -5.0789	   16.2813	
  -5.24527	0.000633207	  -5.22146	0.000665327	  -5.21577	0.000640719	   -5.2275	0.000646418	   -5.2275	   16.1604	
  -5.39314	0.000628158	  -5.37035	0.000660542	  -5.36387	0.000635813	  -5.37578	0.000641504	  -5.37578	   16.0376	
  -5.54135	0.000623008	  -5.51941	0.000655582	  -5.51171	0.000630928	  -5.52416	0.000636506	  -5.52416	   15.9127	
  -5.68911	0.000617814	  -5.66812	0.000650512	   -5.6591	0.000626013	  -5.67211	0.000631446	  -5.67211	   15.7862	
  -5.83676	0.000612636	  -5.81654	0.000645462	  -5.80584	0.000621006	  -5.81971	0.000626368	  -5.81971	   15.6592	
  -5.98379	0.000607499	  -5.96418	0.000640488	  -5.95253	0.000615889	  -5.96684	0.000621292	  -5.96684	   15.5323	
  -6.13109	0.000602376	   -6.1122	0.000635572	  -6.09896	0.00061069	  -6.11408	0.000616213	  -6.11408	   15.4053	
  -6.27787	0.000597243	  -6.26032	0.000630578	  -6.24491	0.000605463	  -6.26103	0.000611095	  -6.26103	   15.2774	
  -6.42447	0.000592004	  -6.40857	0.000625479	  -6.39124	0.000600243	  -6.40809	0.000605908	  -6.40809	   15.1477	
  -6.57094	0.000586655	  -6.55671	0.000620271	  -6.53707	0.000595013	  -6.55491	0.000600646	  -6.55491	   15.0162	
  -6.71732	0.000581203	  -6.70371	0.000615081	  -6.68283	0.000589727	  -6.70129	0.000595337	  -6.70129	   14.8834	
  -6.86312	0.000575735	  -6.85022	0.000609956	  -6.82804	0.000584351	  -6.84713	0.000590014	  -6.84713	   14.7503	
  -7.00816	0.000570297	  -6.99632	0.000604882	  -6.97305	0.000578888	  -6.99251	0.000584689	  -6.99251	   14.6172	
  -7.15308	0.000564939	  -7.14234	0.000599727	  -7.11765	0.000573379	  -7.13769	0.000579348	  -7.13769	   14.4837	
  -7.29818	0.000559573	  -7.28805	0.000594439	  -7.26217	0.000567866	   -7.2828	0.000573959	   -7.2828	    14.349	
  -7.44322	0.000554126	  -7.43326	0.000589015	   -7.4064	0.000562358	  -7.42763	 0.0005685	  -7.42763	   14.2125	
  -7.58719	0.000548551	  -7.57804	0.000583548	   -7.5504	0.000556828	  -7.57188	0.000562976	  -7.57188	   14.0744	
  -7.73075	0.00054289	  -7.72273	0.000578135	  -7.69422	0.000551241	   -7.7159	0.000557422	   -7.7159	   13.9356	
   -7.8737	0.000537209	  -7.86711	0.000572805	  -7.83794	0.000545581	  -7.85959	0.000551865	  -7.85959	   13.7966	
  -8.01694	0.00053155	  -8.01099	0.000567477	  -7.98133	0.000539866	  -8.00309	0.000546298	  -8.00309	   13.6574	
   -8.1597	0.000525889	  -8.15418	0.000562051	   -8.1242	0.000534126	  -8.14603	0.000540689	  -8.14603	   13.5172	
  -8.30285	0.000520209	  -8.29705	0.000556487	  -8.26665	0.000528393	  -8.28885	0.00053503	  -8.28885	   13.3757	
  -8.44587	0.000514507	  -8.43941	0.000550831	  -8.40927	0.000522662	  -8.43152	0.000529333	  -8.43152	   13.2333	
  -8.58857	0.00050877	  -8.58161	0.00054517	  -8.55131	0.000516902	  -8.57383	0.000523614	  -8.57383	   13.0904	
   -8.7318	0.000502984	  -8.72292	0.00053957	  -8.69312	0.000511069	  -8.71595	0.000517874	  -8.71595	   12.9469	
  -8.87555	0.000497158	  -8.86425	0.000534015	  -8.83426	0.000505151	  -8.85802	0.000512108	  -8.85802	   12.8027	
  -9.01905	0.000491281	  -9.00486	0.000528411	  -8.97534	0.00049919	  -8.99975	0.000506294	  -8.99975	   12.6574	
  -9.16156	0.000485334	  -9.14539	0.00052269	  -9.11618	0.00049325	  -9.14104	0.000500425	  -9.14104	   12.5106	
  -9.30268	0.000479344	  -9.28536	0.000516861	  -9.25656	0.000487358	  -9.28154	0.000494521	  -9.28154	    12.363	
  -9.44312	0.000473322	  -9.42489	0.000511001	  -9.39659	0.000481495	  -9.42153	0.000488606	  -9.42153	   12.2151	
  -9.58191	0.000467294	  -9.56381	0.000505219	  -9.53635	0.000475574	  -9.56069	0.000482696	  -9.56069	   12.0674	
   -9.7203	0.000461302	  -9.70274	0.000499503	  -9.67565	0.000469547	  -9.69956	0.000476784	  -9.69956	   11.9196	
  -9.85814	0.000455309	  -9.84121	0.000493731	  -9.81459	0.000463428	  -9.83798	0.000470823	  -9.83798	   11.7706	
  -9.99578	0.000449267	  -9.97933	0.000487808	  -9.95351	0.000457252	  -9.97621	0.000464776	  -9.97621	   11.6194	
  -10.1338	0.000443153	  -10.1169	0.000481731	  -10.0925	0.000451074	  -10.1144	0.000458652	  -10.1144	   11.4663	
   -10.271	0.00043698	  -10.2541	0.000475582	  -10.2308	0.000444948	   -10.252	0.000452503	   -10.252	   11.3126	
  -10.4085	0.000430783	  -10.3908	0.000469485	  -10.3689	0.000438841	  -10.3894	0.00044637	  -10.3894	   11.1592	
  -10.5451	0.000424618	  -10.5273	0.00046352	  -10.5068	0.000432692	  -10.5264	0.000440276	  -10.5264	   11.0069	
  -10.6805	0.000418494	  -10.6633	0.000457595	   -10.644	0.00042646	  -10.6626	0.000434183	  -10.6626	   10.8546	
  -10.8161	0.000412357	  -10.7986	0.000451572	  -10.7812	0.000420126	  -10.7986	0.000428019	  -10.7986	   10.7005	
  -10.9508	0.000406144	  -10.9332	0.000445378	  -10.9174	0.000413759	  -10.9338	0.00042176	  -10.9338	    10.544	
  -11.0856	0.000399844	  -11.0677	0.000439036	  -11.0527	0.000407459	  -11.0687	0.000415447	  -11.0687	   10.3862	
  -11.2197	0.000393494	  -11.2013	0.000432653	  -11.1873	0.000401236	  -11.2028	0.000409128	  -11.2028	   10.2282	
  -11.3536	0.000387154	   -11.335	0.00042635	   -11.321	0.000395005	  -11.3365	0.000402837	  -11.3365	   10.0709	
  -11.4868	0.000380859	  -11.4677	0.000420146	  -11.4545	0.000388674	  -11.4697	0.00039656	  -11.4697	     9.914	
  -11.6194	0.000374581	  -11.6003	0.000413956	  -11.5877	0.000382213	  -11.6025	0.00039025	  -11.6025	   9.75625	
  -11.7521	0.000368262	  -11.7321	0.000407663	  -11.7201	0.000375668	  -11.7348	0.000383864	  -11.7348	   9.59661	
  -11.8845	0.000361862	  -11.8633	0.000401222	  -11.8522	0.000369137	  -11.8666	0.000377407	  -11.8666	   9.43518	
  -12.0161	0.000355389	  -11.9942	0.000394675	  -11.9839	0.000362707	  -11.9981	0.000370924	  -11.9981	   9.27309	
  -12.1478	0.000348889	  -12.1244	0.000388131	  -12.1156	0.000356361	  -12.1293	0.00036446	  -12.1293	   9.11151	
   -12.279	0.000342405	  -12.2544	0.000381678	  -12.2466	0.000349985	    -12.26	0.000358022	    -12.26	   8.95056	
  -12.4094	0.000335955	  -12.3839	0.000375304	  -12.3772	0.000343498	  -12.3902	0.000351586	  -12.3902	   8.78964	
  -12.5388	0.000329509	  -12.5126	0.000368915	  -12.5067	0.000336901	  -12.5194	0.000345108	  -12.5194	   8.62771	
  -12.6681	0.000323016	   -12.641	0.000362418	  -12.6357	0.000330264	  -12.6483	0.000338566	  -12.6483	   8.46415	
  -12.7966	0.000316453	  -12.7688	0.000355798	  -12.7643	0.000323669	  -12.7766	0.000331973	  -12.7766	   8.29933	
  -12.9247	0.000309883	  -12.8965	0.000349122	  -12.8929	0.000317161	  -12.9047	0.000325389	  -12.9047	   8.13472	
  -13.0521	0.000303298	  -13.0236	0.000342484	  -13.0207	0.000310688	  -13.0321	0.000318823	  -13.0321	   7.97058	
  -13.1793	0.000296747	    -13.15	0.000335927	  -13.1483	0.000304163	  -13.1592	0.000312279	  -13.1592	   7.80698	
  -13.3053	0.00029016	  -13.2762	0.000329407	  -13.2754	0.000297537	  -13.2856	0.000305701	  -13.2856	   7.64253	
  -13.4304	0.000283436	   -13.402	0.000322845	   -13.402	0.000290817	  -13.4115	0.000299033	  -13.4115	   7.47582	
  -13.5535	0.000276569	  -13.5276	0.000316182	   -13.528	0.000284067	  -13.5364	0.000292273	  -13.5364	   7.30681	
   -13.676	0.000269701	  -13.6525	0.000309428	  -13.6542	0.000277364	  -13.6609	0.000285498	  -13.6609	   7.13744	
  -13.7965	0.000262917	  -13.7763	0.000302647	  -13.7798	0.000270729	  -13.7842	0.000278764	  -13.7842	   6.96911	
  -13.9191	0.000256259	     -13.9	0.000295907	  -13.9051	0.000264111	   -13.908	0.000272092	   -13.908	   6.80231	
  -14.0409	0.000249635	  -14.0235	0.00028922	  -14.0298	0.00025744	  -14.0314	0.000265432	  -14.0314	   6.63579	
   -14.165	0.000242883	  -14.1464	0.00028254	  -14.1543	0.000250682	  -14.1552	0.000258701	  -14.1552	   6.46753	
  -14.2887	0.000235929	  -14.2689	0.000275795	  -14.2778	0.000243866	  -14.2784	0.000251863	  -14.2784	   6.29659	
  -14.4115	0.000228884	  -14.3908	0.000268964	  -14.4009	0.000237061	  -14.4011	0.00024497	  -14.4011	   6.12424	
  -14.5335	0.000221907	  -14.5129	0.000262078	  -14.5238	0.000230321	  -14.5234	0.000238102	  -14.5234	   5.95255	
  -14.6546	0.000215077	  -14.6342	0.000255205	  -14.6463	0.000223634	   -14.645	0.000231305	   -14.645	   5.78263	
  -14.7749	0.000208362	  -14.7549	0.000248391	  -14.7674	0.000216945	  -14.7657	0.000224566	  -14.7657	   5.61415	
  -14.8946	0.000201616	  -14.8746	0.000241622	  -14.8879	0.000210198	  -14.8857	0.000217812	  -14.8857	    5.4453	
  -15.0141	0.000194709	  -14.9938	0.000234839	  -15.0076	0.000203388	  -15.0052	0.000210979	  -15.0052	   5.27447	
  -15.1337	0.00018763	  -15.1121	0.000227991	  -15.1274	0.000196557	  -15.1244	0.000204059	  -15.1244	   5.10148	
  -15.2528	0.000180501	    -15.23	0.000221078	  -15.2466	0.00018976	  -15.2432	0.000197113	  -15.2432	   4.92782	
  -15.3707	0.000173441	   -15.348	0.000214148	  -15.3653	0.000183027	  -15.3613	0.000190205	  -15.3613	   4.75513	
  -15.4883	0.000166574	  -15.4656	0.000207259	  -15.4829	0.000176333	  -15.4789	0.000183388	  -15.4789	   4.58471	
  -15.6049	0.000159807	  -15.5821	0.00020043	  -15.5997	0.000169618	  -15.5956	0.000176618	  -15.5956	   4.41546	
  -15.7211	0.000153019	  -15.6984	0.000193626	   -15.716	0.000162844	  -15.7118	0.00016983	  -15.7118	   4.24575	
  -15.8363	0.000146064	  -15.8143	0.000186797	  -15.8321	0.000156018	  -15.8276	0.00016296	  -15.8276	   4.07399	
  -15.9509	0.000138952	  -15.9295	0.000179909	  -15.9477	0.000149184	  -15.9427	0.000156015	  -15.9427	   3.90038	
   -16.065	0.000131763	  -16.0434	0.000172989	   -16.063	0.000142391	  -16.0572	0.000149048	  -16.0572	   3.72619	
  -16.1788	0.000124683	  -16.1568	0.00016608	  -16.1781	0.000135659	  -16.1712	0.000142141	  -16.1712	   3.55351	
  -16.2917	0.000117745	  -16.2687	0.000159221	  -16.2924	0.00012895	  -16.2842	0.000135305	  -16.2842	   3.38263	
  -16.4042	0.000110898	  -16.3802	0.000152403	  -16.4058	0.000122214	  -16.3968	0.000128505	  -16.3968	   3.21262	
  -16.5158	0.000104036	  -16.4911	0.000145591	  -16.5184	0.000115422	  -16.5084	0.000121683	  -16.5084	   3.04208	
  -16.6272	9.70403e-05	  -16.6007	0.000138751	  -16.6302	0.000108586	  -16.6194	0.000114792	  -16.6194	    2.8698	
  -16.7375	8.99027e-05	  -16.7095	0.000131866	  -16.7415	0.000101746	  -16.7295	0.000107838	  -16.7295	   2.69596	
  -16.8478	8.27251e-05	  -16.8181	0.000124953	  -16.8523	9.49481e-05	  -16.8394	0.000100875	  -16.8394	   2.52189	
  -16.9576	7.56298e-05	  -16.9258	0.000118037	  -16.9628	8.82009e-05	  -16.9487	9.39557e-05	  -16.9487	   2.34889	
  -17.0664	6.8647e-05	  -17.0329	0.00011114	  -17.0725	8.15167e-05	  -17.0573	8.71011e-05	  -17.0573	   2.17753	
  -17.1739	6.17211e-05	  -17.1387	0.000104293	  -17.1813	7.47987e-05	  -17.1646	8.02711e-05	  -17.1646	   2.00678	
  -17.2809	5.47412e-05	  -17.2439	9.74958e-05	  -17.2893	6.80186e-05	  -17.2714	7.34185e-05	  -17.2714	   1.83546	
  -17.3868	4.76385e-05	   -17.348	9.06634e-05	  -17.3967	6.11396e-05	  -17.3772	6.64805e-05	  -17.3772	   1.66201	
  -17.4919	4.04575e-05	  -17.4517	8.37822e-05	  -17.5031	5.42372e-05	  -17.4822	5.94923e-05	  -17.4822	   1.48731	
  -17.5964	3.33135e-05	  -17.5547	7.68624e-05	   -17.609	4.73852e-05	  -17.5867	5.25204e-05	  -17.5867	   1.31301	
  -17.7008	2.62638e-05	  -17.6574	6.99458e-05	  -17.7146	4.06651e-05	  -17.6909	4.56249e-05	  -17.6909	   1.14062	
  -17.8048	1.9302e-05	  -17.7589	6.31035e-05	  -17.8194	3.40207e-05	  -17.7944	3.88087e-05	  -17.7944	  0.970218	
  -17.9075	1.23785e-05	  -17.8599	5.63694e-05	  -17.9233	2.73681e-05	  -17.8969	3.20387e-05	  -17.8969	  0.800966	
  -18.0086	5.40574e-06	  -17.9609	4.96533e-05	  -18.0263	2.06331e-05	  -17.9986	2.52307e-05	  -17.9986	  0.630768	
  -18.1093	-1.63063e-06	  -18.0611	4.28594e-05	  -18.1283	1.38156e-05	  -18.0996	1.83481e-05	  -18.0996	  0.458703	
  -18.2096	-8.68356e-06	  -18.1609	3.59735e-05	  -18.2296	6.97781e-06	     -18.2	1.14226e-05	     -18.2	  0.285564	
  -18.3093	-1.57097e-05	  -18.2602	2.90433e-05	    -18.33	2.13756e-07	  -18.2998	4.51577e-06	  -18.2998	  0.112894	
  -18.4082	-2.27032e-05	  -18.3588	2.21597e-05	  -18.4291	-6.45721e-06	  -18.3987	-2.33356e-06	  -18.3987	-0.0583391	
  -18.5072	-2.96556e-05	  -18.4568	1.53844e-05	  -18.5277	-1.30848e-05	  -18.4972	-9.11864e-06	  -18.4972	 -0.227966	
  -18.6052	-3.65774e-05	  -18.5541	8.68494e-06	   -18.625	-1.97408e-05	  -18.5948	-1.58778e-05	  -18.5948	 -0.396945	
   -18.703	-4.34808e-05	  -18.6511	1.9835e-06	  -18.7215	-2.6454e-05	  -18.6919	-2.26504e-05	  -18.6919	 -0.566261	
  -18.7995	-5.03595e-05	  -18.7469	-4.77799e-06	  -18.8179	-3.32054e-05	  -18.7881	-2.94476e-05	  -18.7881	 -0.736191	
  -18.8954	-5.72173e-05	  -18.8423	-1.16174e-05	  -18.9129	-3.99336e-05	  -18.8835	-3.62561e-05	  -18.8835	 -0.906402	
   -18.991	-6.40897e-05	  -18.9368	-1.84913e-05	  -19.0074	-4.65939e-05	  -18.9784	-4.30583e-05	  -18.9784	  -1.07646	
   -19.086	-7.09876e-05	  -19.0305	-2.53232e-05	  -19.1009	-5.31882e-05	  -19.0725	-4.9833e-05	  -19.0725	  -1.24582	
  -19.1795	-7.78768e-05	  -19.1234	-3.20522e-05	  -19.1937	-5.98215e-05	  -19.1655	-5.65835e-05	  -19.1655	  -1.41459	
  -19.2727	-8.47466e-05	  -19.2158	-3.86697e-05	  -19.2855	-6.64622e-05	   -19.258	-6.32928e-05	   -19.258	  -1.58232	
  -19.3647	-9.15749e-05	  -19.3069	-4.52408e-05	  -19.3766	-7.31514e-05	  -19.3494	-6.9989e-05	  -19.3494	  -1.74973	
  -19.4567	-9.83356e-05	  -19.3975	-5.18607e-05	  -19.4666	-7.98016e-05	  -19.4403	-7.6666e-05	  -19.4403	  -1.91665	
  -19.5473	-0.000105067	  -19.4879	-5.85554e-05	  -19.5548	-8.63061e-05	    -19.53	-8.33095e-05	    -19.53	  -2.08274	
  -19.6371	-0.000111806	  -19.5776	-6.5277e-05	  -19.6423	-9.26752e-05	   -19.619	-8.99192e-05	   -19.619	  -2.24798	
  -19.7258	-0.000118551	  -19.6664	-7.19681e-05	  -19.7293	-9.90802e-05	  -19.7072	-9.65333e-05	  -19.7072	  -2.41333	
   -19.814	-0.000125302	  -19.7543	-7.85881e-05	  -19.8155	-0.000105616	  -19.7946	-0.000103169	  -19.7946	  -2.57921	
  -19.9015	-0.000132047	  -19.8418	-8.51669e-05	  -19.9008	-0.000112283	  -19.8814	-0.000109832	  -19.8814	  -2.74581	
  -19.9881	-0.000138747	  -19.9287	-9.17371e-05	  -19.9852	-0.000118963	  -19.9673	-0.000116482	  -19.9673	  -2.91206	
  -20.0738	-0.000145384	  -20.0149	-9.83351e-05	  -20.0682	-0.000125524	  -20.0523	-0.000123081	  -20.0523	  -3.07703	
  -20.1583	-0.00015199	  -20.1002	-0.000104933	   -20.151	-0.000131871	  -20.1365	-0.000129598	  -20.1365	  -3.23995	
  -20.2418	-0.000158612	  -20.1848	-0.000111526	  -20.2325	-0.000138128	  -20.2197	-0.000136089	  -20.2197	  -3.40222	
  -20.3241	-0.000165256	  -20.2682	-0.000118064	  -20.3139	-0.00014442	  -20.3021	-0.00014258	  -20.3021	   -3.5645	
  -20.4062	-0.00017189	  -20.3513	-0.000124544	  -20.3943	-0.00015081	  -20.3839	-0.000149081	  -20.3839	  -3.72703	
  -20.4875	-0.000178462	  -20.4334	-0.000131008	  -20.4742	-0.000157262	   -20.465	-0.000155577	   -20.465	  -3.88943	
  -20.5677	-0.00018495	  -20.5154	-0.000137489	   -20.553	-0.000163722	  -20.5453	-0.000162054	  -20.5453	  -4.05134	
  -20.6471	-0.000191378	  -20.5963	-0.000143997	   -20.631	-0.000170088	  -20.6248	-0.000168488	  -20.6248	  -4.21219	
  -20.7256	-0.000197806	  -20.6761	-0.000150507	  -20.7079	-0.000176345	  -20.7032	-0.000174886	  -20.7032	  -4.37214	
  -20.8032	-0.000204277	  -20.7549	-0.000157001	  -20.7839	-0.000182554	  -20.7807	-0.000181277	  -20.7807	  -4.53193	
  -20.8805	-0.000210794	   -20.833	-0.000163413	  -20.8592	-0.000188789	  -20.8576	-0.000187665	  -20.8576	  -4.69163	
  -20.9563	-0.000217302	  -20.9106	-0.000169797	  -20.9344	-0.000195034	  -20.9337	-0.000194044	  -20.9337	  -4.85111	
  -21.0314	-0.000223746	  -20.9873	-0.000176223	  -21.0081	-0.000201308	  -21.0089	-0.000200426	  -21.0089	  -5.01064	
  -21.1059	-0.000230094	  -21.0631	-0.000182709	  -21.0815	-0.000207576	  -21.0835	-0.000206793	  -21.0835	  -5.16983	
  -21.1799	-0.000236374	  -21.1382	-0.000189183	  -21.1542	-0.000213815	  -21.1574	-0.000213124	  -21.1574	   -5.3281	
  -21.2527	-0.000242648	  -21.2122	-0.000195587	  -21.2262	-0.000220006	  -21.2304	-0.000219414	  -21.2304	  -5.48535	
  -21.3248	-0.000248969	  -21.2863	-0.000201871	  -21.2968	-0.000226163	  -21.3027	-0.000225667	  -21.3027	  -5.64168	
  -21.3962	-0.000255322	  -21.3591	-0.000208076	  -21.3672	-0.000232256	  -21.3742	-0.000231885	  -21.3742	  -5.79712	
  -21.4669	-0.000261658	  -21.4308	-0.000214304	  -21.4367	-0.000238312	  -21.4448	-0.000238092	  -21.4448	  -5.95229	
  -21.5363	-0.000267923	  -21.5009	-0.000220627	  -21.5056	-0.00024435	  -21.5143	-0.0002443	  -21.5143	   -6.1075	
  -21.6053	-0.000274092	  -21.5699	-0.000227015	  -21.5735	-0.000250384	  -21.5829	-0.000250497	  -21.5829	  -6.26243	
  -21.6734	-0.000280199	  -21.6381	-0.000233397	  -21.6405	-0.000256416	  -21.6507	-0.000256671	  -21.6507	  -6.41677	
  -21.7411	-0.000286305	   -21.706	-0.00023969	   -21.707	-0.000262445	   -21.718	-0.000262813	   -21.718	  -6.57033	
  -21.8078	-0.000292447	  -21.7727	-0.00024587	  -21.7728	-0.000268439	  -21.7844	-0.000268919	  -21.7844	  -6.72296	
  -21.8735	-0.000298606	  -21.8387	-0.000251995	  -21.8379	-0.000274383	    -21.85	-0.000274994	    -21.85	  -6.87486	
  -21.9385	-0.000304727	  -21.9033	-0.000258172	  -21.9026	-0.000280275	  -21.9148	-0.000281058	  -21.9148	  -7.02645	
  -22.0027	-0.000310767	  -21.9669	-0.000264424	  -21.9665	-0.000286138	  -21.9787	-0.00028711	  -21.9787	  -7.17775	
  -22.0658	-0.000316728	  -22.0296	-0.0002707	  -22.0302	-0.000292005	  -22.0419	-0.000293144	  -22.0419	   -7.3286	
  -22.1288	-0.000322653	  -22.0914	-0.000276901	  -22.0927	-0.000297879	  -22.1043	-0.000299144	  -22.1043	  -7.47861	
  -22.1906	-0.00032859	  -22.1515	-0.000282983	  -22.1547	-0.000303767	  -22.1656	-0.000305113	  -22.1656	  -7.62783	
  -22.2513	-0.00033455	  -22.2104	-0.000288964	  -22.2159	-0.000309633	  -22.2259	-0.000311049	  -22.2259	  -7.77623	
  -22.3112	-0.000340508	  -22.2681	-0.000294947	  -22.2766	-0.000315469	  -22.2853	-0.000316975	  -22.2853	  -7.92437	
  -22.3706	-0.000346414	  -22.3254	-0.000300996	  -22.3365	-0.000321286	  -22.3442	-0.000322899	  -22.3442	  -8.07247	
  -22.4283	-0.00035225	  -22.3817	-0.000307117	   -22.396	-0.000327073	   -22.402	-0.000328813	   -22.402	  -8.22034	
  -22.4847	-0.000358026	  -22.4369	-0.000313235	  -22.4546	-0.000332807	  -22.4587	-0.000334689	  -22.4587	  -8.36724	
  -22.5402	-0.000363782	  -22.4914	-0.000319247	  -22.5122	-0.000338481	  -22.5146	-0.000340503	  -22.5146	  -8.51258	
  -22.5949	-0.000369546	  -22.5451	-0.000325124	  -22.5689	-0.000344117	  -22.5696	-0.000346262	  -22.5696	  -8.65655	
  -22.6482	-0.000375313	  -22.5981	-0.000330914	  -22.6247	-0.000349746	  -22.6236	-0.000351991	  -22.6236	  -8.79978	
  -22.7009	-0.000381053	  -22.6506	-0.000336716	  -22.6794	-0.000355384	  -22.6769	-0.000357718	  -22.6769	  -8.94294	
  -22.7526	-0.000386731	  -22.7019	-0.000342576	  -22.7329	-0.000361023	  -22.7291	-0.000363443	  -22.7291	  -9.08608	
  -22.8042	-0.000392343	  -22.7524	-0.000348479	  -22.7857	-0.000366632	  -22.7807	-0.000369151	  -22.7807	  -9.22878	
  -22.8545	-0.000397915	  -22.8016	-0.00035434	  -22.8376	-0.000372178	  -22.8312	-0.000374811	  -22.8312	  -9.37028	
   -22.904	-0.000403483	  -22.8502	-0.000360081	  -22.8886	-0.000377651	  -22.8809	-0.000380405	  -22.8809	  -9.51013	
  -22.9522	-0.000409074	  -22.8977	-0.000365704	  -22.9385	-0.000383086	  -22.9295	-0.000385955	  -22.9295	  -9.64887	
  -22.9995	-0.000414672	  -22.9444	-0.00037127	  -22.9878	-0.000388515	  -22.9772	-0.000391486	  -22.9772	  -9.78715	
  -23.0456	-0.00042023	  -22.9899	-0.000376863	  -23.0361	-0.000393955	  -23.0239	-0.000397016	  -23.0239	   -9.9254	
  -23.0906	-0.000425681	  -23.0353	-0.00038252	  -23.0837	-0.000399392	  -23.0699	-0.000402531	  -23.0699	  -10.0633	
  -23.1348	-0.000431025	  -23.0793	-0.000388208	  -23.1298	-0.000404792	  -23.1146	-0.000408008	  -23.1146	  -10.2002	
  -23.1786	-0.000436313	  -23.1226	-0.000393839	  -23.1749	-0.000410133	  -23.1587	-0.000413428	  -23.1587	  -10.3357	
  -23.2222	-0.000441627	  -23.1648	-0.000399359	  -23.2191	-0.000415418	   -23.202	-0.000418801	   -23.202	    -10.47	
  -23.2642	-0.000446989	  -23.2061	-0.000404784	  -23.2625	-0.000420673	  -23.2442	-0.000424149	  -23.2442	  -10.6037	
   -23.305	-0.000452386	  -23.2473	-0.00041018	  -23.3049	-0.000425926	  -23.2858	-0.000429497	  -23.2858	  -10.7374	
  -23.3439	-0.000457731	  -23.2879	-0.000415613	  -23.3464	-0.000431185	  -23.3261	-0.000434843	  -23.3261	  -10.8711	
  -23.3813	-0.000462966	   -23.328	-0.000421091	  -23.3869	-0.000436435	  -23.3654	-0.000440164	  -23.3654	  -11.0041	
  -23.4175	-0.000468119	  -23.3672	-0.000426562	  -23.4268	-0.00044164	  -23.4038	-0.000445441	  -23.4038	   -11.136	
  -23.4535	-0.00047324	  -23.4059	-0.000431967	  -23.4658	-0.000446787	  -23.4418	-0.000450665	  -23.4418	  -11.2666	
  -23.4888	-0.000478363	  -23.4432	-0.000437313	  -23.5042	-0.000451881	  -23.4787	-0.000455852	  -23.4787	  -11.3963	
  -23.5232	-0.000483522	  -23.4802	-0.000442595	  -23.5414	-0.000456954	  -23.5149	-0.000461023	  -23.5149	  -11.5256	
  -23.5572	-0.000488709	  -23.5163	-0.000447817	  -23.5777	-0.000462026	  -23.5504	-0.000466184	  -23.5504	  -11.6546	
    -23.59	-0.000493859	  -23.5517	-0.00045302	   -23.613	-0.000467097	  -23.5849	-0.000471326	  -23.5849	  -11.7831	
   -23.622	-0.000498924	  -23.5862	-0.000458235	  -23.6475	-0.000472137	  -23.6186	-0.000476432	  -23.6186	  -11.9108	
  -23.6535	-0.000503916	  -23.6202	-0.000463413	   -23.681	-0.000477121	  -23.6516	-0.000481483	  -23.6516	  -12.0371	
   -23.684	-0.000508877	  -23.6531	-0.00046856	  -23.7138	-0.000482044	  -23.6836	-0.000486494	  -23.6836	  -12.1623	
  -23.7141	-0.000513852	  -23.6853	-0.000473662	  -23.7454	-0.00048693	  -23.7149	-0.000491482	  -23.7149	   -12.287	
  -23.7433	-0.00051886	  -23.7167	-0.000478739	  -23.7764	-0.0004918	  -23.7455	-0.000496466	  -23.7455	  -12.4117	
  -23.7718	-0.000523866	  -23.7471	-0.000483809	  -23.8064	-0.000496661	  -23.7751	-0.000501445	  -23.7751	  -12.5361	
  -23.8001	-0.000528816	  -23.7761	-0.000488907	  -23.8352	-0.000501497	  -23.8038	-0.000506407	  -23.8038	  -12.6602	
  -23.8276	-0.000533682	  -23.8049	-0.000493987	  -23.8629	-0.000506289	  -23.8318	-0.000511319	  -23.8318	   -12.783	
  -23.8548	-0.000538478	  -23.8324	-0.000499003	  -23.8893	-0.000511021	  -23.8588	-0.000516167	  -23.8588	  -12.9042	
  -23.8811	-0.000543257	  -23.8586	-0.00050393	   -23.914	-0.000515704	  -23.8846	-0.000520964	  -23.8846	  -13.0241	
  -23.9062	-0.000548075	  -23.8838	-0.0005088	  -23.9383	-0.000520359	  -23.9094	-0.000525744	  -23.9094	  -13.1436	
  -23.9307	-0.000552953	   -23.908	-0.000513658	  -23.9609	-0.000525001	  -23.9332	-0.000530537	  -23.9332	  -13.2634	
  -23.9537	-0.00055784	  -23.9309	-0.000518559	   -23.982	-0.000529632	  -23.9556	-0.000535343	  -23.9556	  -13.3836	
  -23.9759	-0.000562665	  -23.9527	-0.000523507	  -24.0016	-0.00053423	  -23.9767	-0.000540134	  -23.9767	  -13.5034	
  -23.9971	-0.000567394	  -23.9731	-0.000528455	  -24.0203	-0.000538777	  -23.9969	-0.000544875	  -23.9969	  -13.6219	
  -24.0175	-0.000572038	  -23.9925	-0.000533342	  -24.0381	-0.000543262	   -24.016	-0.000549547	   -24.016	  -13.7387	
  -24.0372	-0.000576636	  -24.0101	-0.000538154	  -24.0553	-0.000547697	  -24.0342	-0.000554163	  -24.0342	  -13.8541	
  -24.0565	-0.000581252	  -24.0267	-0.000542921	   -24.071	-0.000552108	  -24.0514	-0.00055876	  -24.0514	   -13.969	
  -24.0744	-0.000585891	  -24.0418	-0.000547704	  -24.0854	-0.000556506	  -24.0672	-0.000563367	  -24.0672	  -14.0842	
  -24.0913	-0.000590522	  -24.0559	-0.000552544	  -24.0991	-0.000560889	  -24.0821	-0.000567985	  -24.0821	  -14.1996	
  -24.1072	-0.000595105	  -24.0691	-0.000557451	  -24.1112	-0.000565233	  -24.0958	-0.000572596	  -24.0958	  -14.3149	
  -24.1222	-0.000599621	  -24.0813	-0.000562292	  -24.1223	-0.000569521	  -24.1086	-0.000577145	  -24.1086	  -14.4286	
  -24.1359	-0.000604072	  -24.0916	-0.000567058	  -24.1323	-0.000573754	    -24.12	-0.000581628	    -24.12	  -14.5407	
  -24.1489	-0.000608498	  -24.1015	-0.000571674	  -24.1415	-0.000577951	  -24.1307	-0.000586041	  -24.1307	   -14.651	
  -24.1606	-0.000612928	  -24.1101	-0.000576151	  -24.1494	-0.000582129	    -24.14	-0.000590403	    -24.14	  -14.7601	
  -24.1714	-0.000617361	   -24.118	-0.000580606	  -24.1563	-0.00058629	  -24.1486	-0.000594752	  -24.1486	  -14.8688	
  -24.1814	-0.000621773	  -24.1248	-0.000585217	  -24.1626	-0.000590435	  -24.1562	-0.000599142	  -24.1562	  -14.9785	
  -24.1904	-0.000626133	  -24.1307	-0.000589961	  -24.1677	-0.00059453	  -24.1629	-0.000603541	  -24.1629	  -15.0885	
  -24.1982	-0.000630426	  -24.1354	-0.000594749	  -24.1712	-0.000598545	  -24.1682	-0.000607907	  -24.1682	  -15.1977	
  -24.2052	-0.000634661	  -24.1391	-0.000599433	   -24.174	-0.000602515	  -24.1727	-0.000612203	  -24.1727	  -15.3051	
  -24.2107	-0.000638868	  -24.1416	-0.0006039	  -24.1762	-0.000606473	  -24.1762	-0.000616414	  -24.1762	  -15.4103	
  -24.2154	-0.000643082	  -24.1441	-0.000608175	  -24.1772	-0.000610446	  -24.1789	-0.000620568	  -24.1789	  -15.5142	
  -24.2185	-0.000647318	  -24.1453	-0.000612441	  -24.1773	-0.000614413	  -24.1804	-0.000624724	  -24.1804	  -15.6181	
  -24.2204	-0.000651545	  -24.1456	-0.000616839	  -24.1769	-0.000618326	   -24.181	-0.000628903	   -24.181	  -15.7226	
   -24.221	-0.000655724	  -24.1449	-0.000621369	  -24.1756	-0.000622147	  -24.1805	-0.00063308	  -24.1805	   -15.827	
  -24.2203	-0.000659812	  -24.1429	-0.00062591	  -24.1734	-0.000625888	  -24.1789	-0.000637203	  -24.1789	  -15.9301	
  -24.2184	-0.000663827	  -24.1402	-0.000630316	    -24.17	-0.000629598	  -24.1762	-0.000641247	  -24.1762	  -16.0312	
  -24.2163	-0.000667814	  -24.1369	-0.000634509	  -24.1657	-0.000633309	  -24.1729	-0.000645211	  -24.1729	  -16.1303	
  -24.2128	-0.000671797	  -24.1322	-0.00063857	  -24.1605	-0.000637023	  -24.1685	-0.00064913	  -24.1685	  -16.2282	
   -24.209	-0.000675788	  -24.1271	-0.000642661	  -24.1549	-0.000640739	  -24.1637	-0.000653062	  -24.1637	  -16.3266	
  -24.2038	-0.000679748	  -24.1206	-0.000646915	  -24.1481	-0.000644447	  -24.1575	-0.000657037	  -24.1575	  -16.4259	
  -24.1976	-0.000683667	   -24.113	-0.000651282	  -24.1402	-0.000648115	  -24.1503	-0.000661021	  -24.1503	  -16.5255	
  -24.1903	-0.000687513	  -24.1047	-0.000655591	  -24.1316	-0.000651724	  -24.1422	-0.000664942	  -24.1422	  -16.6236	
  -24.1821	-0.000691339	  -24.0956	-0.000659707	  -24.1224	-0.000655248	  -24.1334	-0.000668764	  -24.1334	  -16.7191	
  -24.1729	-0.000695189	  -24.0852	-0.00066363	  -24.1121	-0.000658719	  -24.1234	-0.000672513	  -24.1234	  -16.8128	
   -24.163	-0.000699143	  -24.0734	-0.000667507	  -24.1009	-0.000662171	  -24.1124	-0.000676274	  -24.1124	  -16.9068	
  -24.1522	-0.000703034	  -24.0609	-0.000671522	  -24.0891	-0.000665602	  -24.1007	-0.000680053	  -24.1007	  -17.0013	
  -24.1399	-0.00070676	  -24.0472	-0.000675712	  -24.0766	-0.000669033	  -24.0879	-0.000683835	  -24.0879	  -17.0959	
  -24.1267	-0.000710242	  -24.0331	-0.000679948	  -24.0632	-0.000672475	  -24.0743	-0.000687555	  -24.0743	  -17.1889	
  -24.1123	-0.000713599	  -24.0181	-0.000684049	  -24.0496	-0.000675887	    -24.06	-0.000691178	    -24.06	  -17.2795	
  -24.0975	-0.000717005	  -24.0028	-0.000687924	  -24.0347	-0.000679219	   -24.045	-0.000694716	   -24.045	  -17.3679	
  -24.0817	-0.000720656	  -23.9868	-0.000691629	  -24.0181	-0.000682474	  -24.0289	-0.000698253	  -24.0289	  -17.4563	
  -24.0647	-0.000724464	  -23.9697	-0.000695338	  -23.9999	-0.000685663	  -24.0114	-0.000701822	  -24.0114	  -17.5455	
   -24.046	-0.000728228	  -23.9508	-0.000699184	  -23.9808	-0.000688855	  -23.9925	-0.000705422	  -23.9925	  -17.6356	
  -24.0258	-0.000731753	  -23.9311	-0.000703148	  -23.9608	-0.000692093	  -23.9726	-0.000708998	  -23.9726	   -17.725	
  -24.0044	-0.000735029	  -23.9106	-0.000707098	  -23.9399	-0.000695374	  -23.9516	-0.0007125	  -23.9516	  -17.8125	
  -23.9816	-0.000738183	  -23.8895	-0.000710903	  -23.9186	-0.000698628	  -23.9299	-0.000715905	  -23.9299	  -17.8976	
  -23.9581	-0.000741442	  -23.8675	-0.000714526	  -23.8967	-0.00070179	  -23.9075	-0.000719253	  -23.9075	  -17.9813	
  -23.9342	-0.000744888	  -23.8451	-0.000718044	  -23.8737	-0.00070485	  -23.8843	-0.000722594	  -23.8843	  -18.0649	
  -23.9096	-0.000748419	  -23.8214	-0.000721583	  -23.8492	-0.000707875	  -23.8601	-0.000725959	  -23.8601	   -18.149	
  -23.8844	-0.000751845	  -23.7963	-0.000725216	  -23.8238	-0.000710922	  -23.8348	-0.000729328	  -23.8348	  -18.2332	
  -23.8586	-0.000755066	  -23.7703	-0.000728907	  -23.7975	-0.00071401	  -23.8088	-0.000732661	  -23.8088	  -18.3165	
  -23.8321	-0.000758114	  -23.7435	-0.000732555	  -23.7708	-0.000717108	  -23.7821	-0.000735926	  -23.7821	  -18.3981	
  -23.8046	-0.000761137	  -23.7154	-0.00073606	  -23.7433	-0.00072017	  -23.7544	-0.000739123	  -23.7544	  -18.4781	
  -23.7765	-0.000764279	  -23.6867	-0.000739418	  -23.7149	-0.00072317	   -23.726	-0.000742289	   -23.726	  -18.5572	
  -23.7472	-0.000767553	  -23.6566	-0.000742727	  -23.6854	-0.000726116	  -23.6964	-0.000745465	  -23.6964	  -18.6366	
  -23.7175	-0.000770842	  -23.6258	-0.000746077	  -23.6549	-0.000729043	  -23.6661	-0.000748654	  -23.6661	  -18.7163	
  -23.6869	-0.000773997	   -23.594	-0.000749507	  -23.6235	-0.000731984	  -23.6348	-0.000751829	  -23.6348	  -18.7957	
  -23.6556	-0.00077694	  -23.5618	-0.000752966	  -23.5914	-0.000734958	  -23.6029	-0.000754955	  -23.6029	  -18.8739	
  -23.6234	-0.00077969	  -23.5283	-0.000756343	  -23.5584	-0.000737969	    -23.57	-0.000758001	    -23.57	    -18.95	
  -23.5898	-0.000782435	  -23.4943	-0.000759579	  -23.5241	-0.000740994	  -23.5361	-0.000761003	  -23.5361	  -19.0251	
  -23.5558	-0.000785351	  -23.4593	-0.000762719	  -23.4893	-0.000743938	  -23.5014	-0.000764003	  -23.5014	  -19.1001	
  -23.5213	-0.000788477	  -23.4233	-0.000765846	  -23.4537	-0.000746731	  -23.4661	-0.000767018	  -23.4661	  -19.1755	
  -23.4855	-0.000791555	  -23.3855	-0.00076902	  -23.4172	-0.000749427	  -23.4294	-0.000770001	  -23.4294	    -19.25	
   -23.449	-0.000794401	  -23.3473	-0.000772234	  -23.3796	-0.000752114	  -23.3919	-0.000772916	  -23.3919	  -19.3229	
   -23.411	-0.000796921	  -23.3082	-0.000775414	  -23.3407	-0.0007549	  -23.3533	-0.000775745	  -23.3533	  -19.3936	
  -23.3724	-0.000799287	  -23.2677	-0.000778491	  -23.3014	-0.000757804	  -23.3138	-0.000778528	  -23.3138	  -19.4632	
  -23.3325	-0.000801772	   -23.226	-0.000781456	  -23.2604	-0.000760755	   -23.273	-0.000781328	   -23.273	  -19.5332	
  -23.2914	-0.000804562	  -23.1837	-0.000784368	  -23.2187	-0.000763634	  -23.2313	-0.000784188	  -23.2313	  -19.6047	
  -23.2487	-0.000807522	  -23.1401	-0.000787298	  -23.1755	-0.000766365	  -23.1881	-0.000787062	  -23.1881	  -19.6765	
  -23.2055	-0.000810381	  -23.0955	-0.000790268	  -23.1315	-0.000768978	  -23.1442	-0.000789876	  -23.1442	  -19.7469	
  -23.1602	-0.000812919	  -23.0495	-0.000793242	   -23.086	-0.000771584	  -23.0986	-0.000792582	  -23.0986	  -19.8145	
  -23.1133	-0.000815169	  -23.0031	-0.000796154	  -23.0404	-0.000774269	  -23.0523	-0.000795198	  -23.0523	  -19.8799	
  -23.0654	-0.000817355	  -22.9553	-0.000798961	  -22.9938	-0.000777036	  -23.0048	-0.000797784	  -23.0048	  -19.9446	
  -23.0168	-0.000819733	  -22.9069	-0.000801684	  -22.9461	-0.000779822	  -22.9566	-0.000800413	  -22.9566	  -20.0103	
  -22.9671	-0.000822361	  -22.8579	-0.000804386	  -22.8977	-0.000782527	  -22.9075	-0.000803091	  -22.9075	  -20.0773	
  -22.9165	-0.000825074	   -22.808	-0.000807116	  -22.8484	-0.000785092	  -22.8576	-0.000805761	  -22.8576	   -20.144	
  -22.8649	-0.000827609	  -22.7568	-0.000809873	   -22.798	-0.000787554	  -22.8066	-0.000808345	  -22.8066	  -20.2086	
  -22.8124	-0.000829849	  -22.7047	-0.000812609	  -22.7465	-0.000789999	  -22.7546	-0.000810819	  -22.7546	  -20.2705	
  -22.7586	-0.000831887	   -22.652	-0.000815269	  -22.6939	-0.000792507	  -22.7015	-0.000813221	  -22.7015	  -20.3305	
  -22.7036	-0.000833955	  -22.5987	-0.000817829	  -22.6405	-0.000795095	  -22.6476	-0.000815626	  -22.6476	  -20.3907	
  -22.6476	-0.000836226	  -22.5445	-0.000820323	  -22.5867	-0.000797699	  -22.5929	-0.000818083	  -22.5929	  -20.4521	
  -22.5911	-0.000838689	    -22.49	-0.000822809	   -22.532	-0.000800207	  -22.5377	-0.000820568	  -22.5377	  -20.5142	
   -22.534	-0.000841149	  -22.4344	-0.000825322	  -22.4764	-0.000802584	  -22.4816	-0.000823018	  -22.4816	  -20.5755	
  -22.4763	-0.000843399	  -22.3777	-0.000827853	  -22.4201	-0.000804876	  -22.4247	-0.000825376	  -22.4247	  -20.6344	
  -22.4172	-0.000845367	    -22.32	-0.000830355	  -22.3629	-0.000807155	  -22.3667	-0.000827626	  -22.3667	  -20.6906	
  -22.3573	-0.00084717	  -22.2618	-0.000832781	  -22.3047	-0.000809488	  -22.3079	-0.000829813	  -22.3079	  -20.7453	
   -22.296	-0.000849016	  -22.2022	-0.000835128	  -22.2459	-0.000811876	  -22.2481	-0.000832006	  -22.2481	  -20.8002	
  -22.2339	-0.000851031	  -22.1424	-0.000837433	   -22.186	-0.000814251	  -22.1874	-0.000834238	  -22.1874	   -20.856	
  -22.1708	-0.000853158	  -22.0818	-0.000839745	  -22.1249	-0.000816542	  -22.1258	-0.000836481	  -22.1258	   -20.912	
  -22.1069	-0.000855214	  -22.0198	-0.000842084	  -22.0632	-0.000818734	  -22.0633	-0.000838678	  -22.0633	  -20.9669	
  -22.0421	-0.000857056	  -21.9569	-0.00084442	  -22.0004	-0.000820863	  -21.9998	-0.00084078	  -21.9998	  -21.0195	
  -21.9767	-0.000858693	  -21.8938	-0.000846705	   -21.937	-0.000822985	  -21.9358	-0.000842795	  -21.9358	  -21.0699	
  -21.9103	-0.000860272	  -21.8297	-0.000848912	  -21.8731	-0.000825142	   -21.871	-0.000844775	   -21.871	  -21.1194	
   -21.843	-0.000861952	  -21.7646	-0.000851052	  -21.8088	-0.000827325	  -21.8055	-0.000846776	  -21.8055	  -21.1694	
  -21.7751	-0.000863783	  -21.6991	-0.000853152	  -21.7434	-0.000829478	  -21.7392	-0.000848804	  -21.7392	  -21.2201	
  -21.7062	-0.000865658	  -21.6319	-0.000855247	  -21.6775	-0.000831552	  -21.6718	-0.000850819	  -21.6718	  -21.2705	
  -21.6364	-0.000867421	  -21.5633	-0.00085736	  -21.6105	-0.000833547	  -21.6034	-0.000852776	  -21.6034	  -21.3194	
   -21.566	-0.000868987	  -21.4934	-0.000859499	  -21.5425	-0.000835504	  -21.5339	-0.000854663	  -21.5339	  -21.3666	
  -21.4945	-0.000870418	  -21.4226	-0.000861634	   -21.473	-0.000837475	  -21.4634	-0.000856509	  -21.4634	  -21.4127	
  -21.4219	-0.000871866	  -21.3509	-0.000863728	  -21.4028	-0.000839482	  -21.3919	-0.000858358	  -21.3919	   -21.459	
  -21.3484	-0.000873442	  -21.2786	-0.000865759	  -21.3316	-0.000841498	  -21.3195	-0.000860233	  -21.3195	  -21.5058	
  -21.2739	-0.000875132	  -21.2055	-0.000867714	  -21.2596	-0.000843466	  -21.2463	-0.000862104	  -21.2463	  -21.5526	
  -21.1987	-0.000876811	  -21.1314	-0.000869611	  -21.1865	-0.000845355	  -21.1722	-0.000863926	  -21.1722	  -21.5981	
  -21.1229	-0.000878342	  -21.0566	-0.000871495	  -21.1123	-0.000847182	  -21.0973	-0.000865673	  -21.0973	  -21.6418	
  -21.0461	-0.000879706	  -20.9811	-0.000873382	   -21.037	-0.000848993	  -21.0214	-0.00086736	  -21.0214	   -21.684	
  -20.9683	-0.000880996	  -20.9046	-0.000875264	  -20.9608	-0.000850829	  -20.9446	-0.00086903	  -20.9446	  -21.7257	
  -20.8898	-0.000882348	  -20.8269	-0.000877143	  -20.8838	-0.000852691	  -20.8668	-0.000870727	  -20.8668	  -21.7682	
  -20.8101	-0.000883817	  -20.7486	-0.000878982	   -20.806	-0.000854542	  -20.7882	-0.000872447	  -20.7882	  -21.8112	
  -20.7295	-0.000885326	  -20.6697	-0.000880762	  -20.7269	-0.000856334	  -20.7087	-0.00087414	  -20.7087	  -21.8535	
   -20.648	-0.000886738	  -20.5899	-0.000882486	  -20.6473	-0.00085805	  -20.6284	-0.000875758	  -20.6284	   -21.894	
  -20.5658	-0.000887997	  -20.5093	-0.000884178	  -20.5671	-0.000859706	  -20.5474	-0.000877294	  -20.5474	  -21.9323	
  -20.4827	-0.000889173	  -20.4281	-0.00088585	  -20.4859	-0.000861343	  -20.4656	-0.000878789	  -20.4656	  -21.9697	
  -20.3989	-0.000890363	  -20.3464	-0.000887526	  -20.4037	-0.000862991	   -20.383	-0.000880293	   -20.383	  -22.0073	
  -20.3144	-0.000891626	  -20.2637	-0.000889196	  -20.3208	-0.000864649	  -20.2996	-0.000881824	  -20.2996	  -22.0456	
  -20.2291	-0.000892932	  -20.1806	-0.000890779	  -20.2367	-0.000866278	  -20.2154	-0.00088333	  -20.2154	  -22.0832	
  -20.1427	-0.000894171	  -20.0965	-0.000892322	  -20.1523	-0.000867843	  -20.1305	-0.000884779	  -20.1305	  -22.1195	
  -20.0555	-0.000895251	  -20.0116	-0.000893939	   -20.067	-0.000869334	  -20.0447	-0.000886175	  -20.0447	  -22.1544	
  -19.9676	-0.000896209	  -19.9253	-0.00089563	   -19.981	-0.000870777	   -19.958	-0.000887539	   -19.958	  -22.1885	
  -19.8796	-0.000897156	  -19.8382	-0.00089731	  -19.8948	-0.000872211	  -19.8708	-0.000888892	  -19.8708	  -22.2223	
  -19.7903	-0.000898189	  -19.7479	-0.000898888	   -19.808	-0.000873652	  -19.7821	-0.000890243	  -19.7821	  -22.2561	
  -19.7005	-0.000899316	  -19.6576	-0.000900379	  -19.7203	-0.00087509	  -19.6928	-0.000891595	  -19.6928	  -22.2899	
  -19.6103	-0.000900457	  -19.5672	-0.000901815	  -19.6314	-0.00087649	   -19.603	-0.000892921	   -19.603	   -22.323	
  -19.5196	-0.000901501	  -19.4774	-0.000903308	  -19.5416	-0.000877827	  -19.5129	-0.000894212	  -19.5129	  -22.3553	
  -19.4284	-0.000902407	  -19.3887	-0.00090484	  -19.4512	-0.000879127	  -19.4228	-0.000895458	  -19.4228	  -22.3864	
  -19.3366	-0.000903233	  -19.2988	-0.000906367	    -19.36	-0.000880399	  -19.3318	-0.000896666	  -19.3318	  -22.4167	
  -19.2437	-0.000904089	  -19.2083	-0.000907772	  -19.2682	-0.000881657	  -19.2401	-0.000897839	  -19.2401	   -22.446	
  -19.1503	-0.000905039	  -19.1163	-0.000909055	  -19.1758	-0.000882892	  -19.1474	-0.000898995	  -19.1474	  -22.4749	
  -19.0556	-0.000906055	  -19.0229	-0.000910306	  -19.0818	-0.000884067	  -19.0534	-0.000900143	  -19.0534	  -22.5036	
  -18.9607	-0.000907044	  -18.9288	-0.000911619	  -18.9868	-0.000885172	  -18.9588	-0.000901278	  -18.9588	   -22.532	
  -18.8648	-0.000907921	  -18.8338	 -0.000913	  -18.8906	-0.000886263	  -18.8631	-0.000902395	  -18.8631	  -22.5599	
  -18.7683	-0.000908686	  -18.7387	-0.000914426	  -18.7941	-0.000887379	  -18.7671	-0.000903497	  -18.7671	  -22.5874	
  -18.6711	-0.00090942	  -18.6429	-0.000915788	  -18.6967	-0.000888516	  -18.6703	-0.000904574	  -18.6703	  -22.6144	
  -18.5736	-0.000910215	  -18.5468	-0.000917004	   -18.599	-0.000889641	  -18.5732	-0.00090562	  -18.5732	  -22.6405	
  -18.4753	-0.000911094	  -18.4503	-0.000918107	  -18.5003	-0.000890701	  -18.4753	-0.000906634	  -18.4753	  -22.6658	
  -18.3766	-0.000911996	  -18.3527	-0.000919214	  -18.4005	-0.000891654	  -18.3766	-0.000907621	  -18.3766	  -22.6905	
  -18.2771	-0.000912829	  -18.2541	-0.000920395	     -18.3	-0.000892517	  -18.2771	-0.00090858	  -18.2771	  -22.7145	
  -18.1772	-0.000913538	  -18.1546	-0.000921661	   -18.199	-0.000893359	  -18.1769	-0.000909519	  -18.1769	   -22.738	
  -18.0764	-0.00091415	  -18.0545	-0.000922935	   -18.097	-0.000894235	   -18.076	-0.00091044	   -18.076	   -22.761	
  -17.9753	-0.000914751	  -17.9533	-0.000924112	  -17.9948	-0.000895172	  -17.9745	-0.000911345	  -17.9745	  -22.7836	
  -17.8728	-0.00091542	  -17.8506	-0.000925159	  -17.8919	-0.00089614	  -17.8718	-0.00091224	  -17.8718	   -22.806	
  -17.7694	-0.000916198	  -17.7477	-0.000926165	  -17.7887	-0.000897055	  -17.7686	-0.000913139	  -17.7686	  -22.8285	
  -17.6652	-0.000916976	  -17.6439	-0.00092721	   -17.685	-0.000897879	  -17.6647	-0.000914022	  -17.6647	  -22.8505	
  -17.5604	-0.000917643	  -17.5395	-0.000928322	  -17.5811	-0.000898641	  -17.5603	-0.000914868	  -17.5603	  -22.8717	
  -17.4554	-0.000918106	  -17.4347	-0.00092944	  -17.4764	-0.000899383	  -17.4555	-0.000915643	  -17.4555	  -22.8911	
  -17.3501	-0.000918443	  -17.3285	-0.000930481	  -17.3711	-0.000900142	  -17.3499	-0.000916355	  -17.3499	  -22.9089	
  -17.2445	-0.000918795	  -17.2221	-0.000931286	  -17.2654	-0.000900934	   -17.244	-0.000917005	   -17.244	  -22.9251	
  -17.1381	-0.000919315	  -17.1148	-0.000931953	  -17.1591	-0.000901744	  -17.1373	-0.000917671	  -17.1373	  -22.9418	
  -17.0309	-0.000919968	  -17.0073	-0.000932721	  -17.0519	-0.000902539	    -17.03	-0.00091841	    -17.03	  -22.9602	
  -16.9231	-0.000920597	  -16.8988	-0.000933694	  -16.9438	-0.000903286	  -16.9219	-0.000919192	  -16.9219	  -22.9798	
  -16.8146	-0.000921052	  -16.7891	-0.000934835	  -16.8352	-0.000903976	   -16.813	-0.000919954	   -16.813	  -22.9989	
  -16.7056	-0.000921338	  -16.6773	-0.000935959	  -16.7263	-0.000904639	  -16.7031	-0.000920645	  -16.7031	  -23.0161	
  -16.5963	-0.000921579	  -16.5648	-0.000936789	  -16.6164	-0.000905305	  -16.5925	-0.000921224	  -16.5925	  -23.0306	
  -16.4864	-0.000921942	  -16.4506	-0.000937241	  -16.5062	-0.000905983	  -16.4811	-0.000921722	  -16.4811	   -23.043	
  -16.3761	-0.000922457	  -16.3379	-0.000937555	  -16.3945	-0.000906663	  -16.3695	-0.000922225	  -16.3695	  -23.0556	
  -16.2648	-0.000923029	   -16.226	-0.000938038	  -16.2824	-0.000907307	  -16.2578	-0.000922791	  -16.2578	  -23.0698	
   -16.153	-0.000923483	  -16.1143	-0.000938818	    -16.17	-0.000907904	  -16.1458	-0.000923402	  -16.1458	   -23.085	
  -16.0405	-0.00092373	   -16.003	-0.000939787	   -16.057	-0.000908478	  -16.0335	-0.000923998	  -16.0335	     -23.1	
  -15.9275	-0.000923821	  -15.8899	-0.000940673	  -15.9433	-0.000909051	  -15.9203	-0.000924515	  -15.9203	  -23.1129	
  -15.8142	-0.000923895	  -15.7763	-0.000941236	  -15.8289	-0.000909628	  -15.8065	-0.00092492	  -15.8065	   -23.123	
  -15.6997	-0.000924092	  -15.6619	-0.000941496	  -15.7137	-0.00091021	  -15.6918	-0.000925266	  -15.6918	  -23.1316	
  -15.5844	-0.000924463	   -15.547	-0.000941701	  -15.5973	-0.000910772	  -15.5762	-0.000925645	  -15.5762	  -23.1411	
  -15.4682	-0.000924861	  -15.4317	-0.000942097	  -15.4803	-0.00091129	  -15.4601	-0.000926083	  -15.4601	  -23.1521	
  -15.3515	-0.000925121	  -15.3156	-0.000942728	  -15.3626	-0.000911765	  -15.3432	-0.000926538	  -15.3432	  -23.1634	
  -15.2342	-0.000925171	   -15.199	-0.000943461	  -15.2443	-0.000912221	  -15.2258	-0.000926951	  -15.2258	  -23.1738	
  -15.1165	-0.000925046	  -15.0818	-0.000944049	  -15.1256	-0.000912667	  -15.1079	-0.000927254	  -15.1079	  -23.1813	
  -14.9984	-0.0009249	  -14.9638	-0.000944331	  -15.0057	-0.000913111	  -14.9893	-0.000927447	  -14.9893	  -23.1862	
  -14.8798	-0.000924886	   -14.845	-0.000944372	  -14.8852	-0.000913535	    -14.87	-0.000927598	    -14.87	  -23.1899	
  -14.7606	-0.000924993	  -14.7259	-0.000944388	  -14.7643	-0.000913909	  -14.7503	-0.000927763	  -14.7503	  -23.1941	
  -14.6407	-0.000925087	  -14.6063	-0.000944572	  -14.6428	-0.000914238	    -14.63	-0.000927966	    -14.63	  -23.1991	
  -14.5207	-0.000925037	  -14.4859	-0.000944945	  -14.5204	-0.000914555	   -14.509	-0.000928179	   -14.509	  -23.2045	
  -14.4001	-0.000924824	  -14.3644	-0.000945348	  -14.3975	-0.000914892	  -14.3873	-0.000928355	  -14.3873	  -23.2089	
  -14.2789	-0.000924507	  -14.2426	-0.000945567	   -14.274	-0.000915242	  -14.2652	-0.000928439	  -14.2652	   -23.211	
  -14.1572	-0.000924237	  -14.1209	-0.00094552	  -14.1499	-0.00091558	  -14.1427	-0.000928446	  -14.1427	  -23.2111	
  -14.0351	-0.000924055	  -13.9987	-0.000945318	  -14.0251	-0.000915856	  -14.0197	-0.000928409	  -14.0197	  -23.2102	
  -13.9121	-0.000923879	  -13.8758	-0.000945164	  -13.8996	-0.000916058	  -13.8959	-0.000928367	  -13.8959	  -23.2092	
  -13.7886	-0.000923627	  -13.7528	-0.000945184	  -13.7736	-0.000916193	  -13.7717	-0.000928335	  -13.7717	  -23.2084	
  -13.6645	-0.000923313	  -13.6291	-0.000945335	  -13.6473	-0.000916301	   -13.647	-0.000928317	   -13.647	  -23.2079	
  -13.5403	-0.000922969	  -13.5055	-0.00094545	  -13.5203	-0.000916434	  -13.5221	-0.000928284	  -13.5221	  -23.2071	
   -13.415	-0.000922633	  -13.3813	-0.000945372	   -13.393	-0.000916589	  -13.3964	-0.000928198	  -13.3964	   -23.205	
  -13.2901	-0.000922309	  -13.2568	-0.000945089	  -13.2653	-0.000916735	  -13.2707	-0.000928045	  -13.2707	  -23.2011	
  -13.1645	-0.000921974	  -13.1318	-0.000944738	  -13.1371	-0.000916824	  -13.1445	-0.000927845	  -13.1445	  -23.1961	
  -13.0386	-0.000921573	  -13.0067	-0.000944479	  -13.0083	-0.000916838	  -13.0179	-0.00092763	  -13.0179	  -23.1907	
  -12.9113	-0.000921077	  -12.8814	-0.000944369	  -12.8789	-0.000916786	  -12.8905	-0.000927411	  -12.8905	  -23.1853	
  -12.7837	-0.000920562	  -12.7555	-0.000944317	  -12.7495	-0.00091672	  -12.7629	-0.0009272	  -12.7629	    -23.18	
  -12.6547	-0.000920071	  -12.6288	-0.000944161	  -12.6196	-0.000916678	  -12.6344	-0.00092697	  -12.6344	  -23.1743	
  -12.5261	-0.000919591	  -12.5015	-0.000943804	  -12.4891	-0.000916652	  -12.5056	-0.000926682	  -12.5056	  -23.1671	
  -12.3962	-0.00091918	  -12.3734	-0.000943275	  -12.3583	-0.000916599	   -12.376	-0.000926351	   -12.376	  -23.1588	
  -12.2659	-0.000918789	  -12.2452	-0.000942718	  -12.2273	-0.000916482	  -12.2461	-0.000925996	  -12.2461	  -23.1499	
  -12.1347	-0.000918325	  -12.1157	-0.000942293	  -12.0961	-0.000916292	  -12.1155	-0.000925637	  -12.1155	  -23.1409	
  -12.0036	-0.000917747	  -11.9856	-0.000942051	  -11.9649	-0.000916059	  -11.9847	-0.000925285	  -11.9847	  -23.1321	
  -11.8715	-0.000917105	  -11.8547	-0.000941858	  -11.8338	-0.000915831	  -11.8534	-0.000924932	  -11.8534	  -23.1233	
  -11.7394	-0.000916426	  -11.7235	-0.000941526	  -11.7026	-0.000915626	  -11.7218	-0.000924526	  -11.7218	  -23.1132	
  -11.6071	-0.000915789	  -11.5917	-0.000940937	  -11.5713	-0.000915421	    -11.59	-0.000924049	    -11.59	  -23.1012	
  -11.4748	-0.000915226	  -11.4592	-0.000940157	  -11.4397	-0.000915173	  -11.4579	-0.000923519	  -11.4579	   -23.088	
  -11.3416	-0.000914682	   -11.326	-0.000939344	  -11.3074	-0.000914856	   -11.325	-0.000922961	   -11.325	   -23.074	
  -11.2081	-0.000914079	  -11.1924	-0.000938616	  -11.1747	-0.000914447	  -11.1917	-0.00092238	  -11.1917	  -23.0595	
  -11.0737	-0.000913399	   -11.059	-0.000937992	  -11.0416	-0.000913957	  -11.0581	-0.000921783	  -11.0581	  -23.0446	
  -10.9387	-0.000912661	   -10.925	-0.000937349	  -10.9085	-0.000913495	  -10.9241	-0.000921168	  -10.9241	  -23.0292	
  -10.8031	-0.000911905	  -10.7909	-0.000936563	  -10.7748	-0.000913168	  -10.7896	-0.000920546	  -10.7896	  -23.0136	
   -10.667	-0.000911179	  -10.6565	-0.000935629	    -10.64	-0.000912937	  -10.6545	-0.000919915	  -10.6545	  -22.9979	
  -10.5307	-0.000910496	  -10.5221	-0.000934656	  -10.5037	-0.000912662	  -10.5188	-0.000919271	  -10.5188	  -22.9818	
  -10.3941	-0.000909796	  -10.3869	-0.000933737	  -10.3658	-0.000912217	  -10.3823	-0.000918583	  -10.3823	  -22.9646	
  -10.2576	-0.000909027	  -10.2516	-0.000932886	  -10.2275	-0.000911562	  -10.2456	-0.000917825	  -10.2456	  -22.9456	
  -10.1207	-0.000908187	  -10.1163	-0.000932031	  -10.0913	-0.000910781	  -10.1094	 -0.000917	  -10.1094	   -22.925	
  -9.98339	-0.000907306	  -9.98086	-0.000931075	  -9.95456	-0.000910059	  -9.97294	-0.000916147	  -9.97294	  -22.9037	
   -9.8454	-0.000906423	   -9.8444	-0.000929978	  -9.81997	-0.0009095	  -9.83659	-0.0009153	  -9.83659	  -22.8825	
  -9.70752	-0.000905565	  -9.70775	-0.000928851	  -9.68435	-0.000909042	  -9.69987	-0.000914486	  -9.69987	  -22.8622	
  -9.56888	-0.000904712	   -9.5706	-0.000927739	  -9.54904	-0.000908516	  -9.56284	-0.000913656	  -9.56284	  -22.8414	
  -9.42947	-0.000903814	  -9.43266	-0.000926688	  -9.41315	-0.000907809	   -9.4251	-0.00091277	   -9.4251	  -22.8193	
  -9.28985	-0.000902843	  -9.29367	-0.000925603	  -9.27614	-0.00090692	  -9.28655	-0.000911789	  -9.28655	  -22.7947	
  -9.15048	-0.000901822	  -9.15418	-0.000924435	   -9.1383	-0.000905974	  -9.14765	-0.000910744	  -9.14765	  -22.7686	
  -9.01078	-0.000900782	  -9.01419	-0.000923152	  -8.99988	-0.0009051	  -9.00828	-0.000909678	  -9.00828	   -22.742	
  -8.87123	-0.00089975	  -8.87393	-0.000921845	  -8.86089	-0.000904341	  -8.86868	-0.000908645	  -8.86868	  -22.7161	
  -8.73151	-0.000898723	  -8.73285	-0.000920572	  -8.72157	-0.0009036	  -8.72864	-0.000907632	  -8.72864	  -22.6908	
  -8.59183	-0.000897669	  -8.59228	-0.00091937	  -8.58215	-0.000902751	  -8.58875	-0.000906597	  -8.58875	  -22.6649	
  -8.45187	-0.000896558	  -8.45055	-0.000918183	  -8.44286	-0.000901726	  -8.44843	-0.000905489	  -8.44843	  -22.6372	
  -8.31135	-0.000895389	  -8.30849	-0.000916926	  -8.30257	-0.000900562	  -8.30747	-0.000904292	  -8.30747	  -22.6073	
  -8.17024	-0.000894186	  -8.16582	-0.000915543	  -8.16157	-0.000899372	  -8.16588	-0.000903034	  -8.16588	  -22.5758	
  -8.02855	-0.000892976	   -8.0228	-0.000914066	  -8.01987	-0.000898271	  -8.02374	-0.000901771	  -8.02374	  -22.5443	
  -7.88628	-0.000891778	  -7.87969	-0.00091257	  -7.87853	-0.000897276	   -7.8815	-0.000900541	   -7.8815	  -22.5135	
  -7.74395	-0.000890577	  -7.73645	-0.000911127	  -7.73694	-0.000896303	  -7.73911	-0.000899336	  -7.73911	  -22.4834	
  -7.60073	-0.000889338	  -7.59304	-0.00090975	  -7.59482	-0.000895237	   -7.5962	-0.000898108	   -7.5962	  -22.4527	
  -7.45691	-0.000888039	   -7.4497	-0.000908393	  -7.45268	-0.000894021	   -7.4531	-0.000896818	   -7.4531	  -22.4205	
  -7.31246	-0.000886691	   -7.3058	-0.000906969	  -7.31021	-0.000892703	  -7.30949	-0.000895454	  -7.30949	  -22.3864	
  -7.16795	-0.000885323	  -7.16218	-0.000905437	   -7.1674	-0.000891393	  -7.16585	-0.000894051	  -7.16585	  -22.3513	
  -7.02283	-0.000883972	    -7.018	-0.000903832	  -7.02449	-0.000890167	  -7.02177	-0.000892657	  -7.02177	  -22.3164	
   -6.8779	-0.000882625	  -6.87404	-0.000902225	  -6.88145	-0.000889003	   -6.8778	-0.000891284	   -6.8778	  -22.2821	
  -6.73311	-0.000881232	  -6.72972	-0.000900684	  -6.73823	-0.000887805	  -6.73369	-0.000889907	  -6.73369	  -22.2477	
  -6.58789	-0.000879754	  -6.58555	-0.000899199	  -6.59534	-0.000886489	  -6.58959	-0.00088848	  -6.58959	   -22.212	
  -6.44248	-0.000878202	  -6.44123	-0.000897688	  -6.45245	-0.000885042	  -6.44538	-0.000886977	  -6.44538	  -22.1744	
  -6.29714	-0.00087661	  -6.29698	-0.000896071	  -6.30897	-0.000883533	  -6.30103	-0.000885405	  -6.30103	  -22.1351	
  -6.15129	-0.000875043	  -6.15302	-0.000894344	  -6.16519	-0.000882063	   -6.1565	-0.000883817	   -6.1565	  -22.0954	
  -6.00601	-0.000873492	  -6.00903	-0.000892603	  -6.02134	-0.000880679	  -6.01212	-0.000882258	  -6.01212	  -22.0565	
  -5.86014	-0.000871939	  -5.86443	-0.000890909	  -5.87712	-0.000879331	  -5.86723	-0.000880726	  -5.86723	  -22.0182	
  -5.71449	-0.000870339	  -5.72004	-0.000889246	  -5.73306	-0.000877918	  -5.72253	-0.000879168	  -5.72253	  -21.9792	
  -5.56875	-0.000868653	  -5.57552	-0.000887527	  -5.58936	-0.000876367	  -5.57788	-0.000877516	  -5.57788	  -21.9379	
  -5.42315	-0.000866878	  -5.43164	-0.000885725	  -5.44569	-0.000874689	  -5.43349	-0.000875764	  -5.43349	  -21.8941	
  -5.27711	-0.000865068	   -5.2883	-0.000883834	  -5.30173	-0.00087296	  -5.28905	-0.000873954	  -5.28905	  -21.8488	
  -5.13144	-0.00086327	  -5.14516	-0.000881988	    -5.158	-0.000871283	  -5.14487	-0.00087218	  -5.14487	  -21.8045	
  -4.98579	-0.000861486	  -5.00136	-0.000880186	  -5.01417	-0.000869665	  -5.00044	-0.000870446	  -5.00044	  -21.7611	
  -4.84039	-0.000859691	  -4.85692	-0.00087834	  -4.87048	-0.000868031	  -4.85593	-0.000868687	  -4.85593	  -21.7172	
   -4.6944	-0.000857832	  -4.71158	-0.000876391	  -4.72686	-0.000866309	  -4.71095	-0.000866844	  -4.71095	  -21.6711	
  -4.54863	-0.000855874	  -4.56539	-0.000874323	  -4.58328	-0.000864476	  -4.56576	-0.000864891	  -4.56576	  -21.6223	
  -4.40222	-0.000853835	   -4.4189	-0.000872161	  -4.43915	-0.000862592	  -4.42009	-0.000862863	  -4.42009	  -21.5716	
  -4.25599	-0.000851773	  -4.27158	-0.000870071	  -4.29475	-0.000860634	  -4.27411	-0.000860826	  -4.27411	  -21.5206	
  -4.10988	-0.000849617	  -4.12479	-0.000868061	  -4.15031	-0.000858543	  -4.12833	-0.00085874	  -4.12833	  -21.4685	
  -3.96386	-0.000847496	  -3.97819	-0.000866037	  -4.00555	-0.000856344	  -3.98253	-0.000856626	  -3.98253	  -21.4157	
  -3.81789	-0.000845383	  -3.83067	-0.000864029	  -3.86018	-0.000854066	  -3.83625	-0.000854492	  -3.83625	  -21.3623	
  -3.67192	-0.000843216	  -3.68333	-0.000862014	  -3.71422	-0.000851801	  -3.68983	-0.000852344	  -3.68983	  -21.3086	
  -3.52567	-0.00084096	  -3.53482	-0.000859946	  -3.56612	-0.000849639	   -3.5422	-0.000850182	   -3.5422	  -21.2545	
