# User: ACHyster
# File name: C:/ACHYSTER/ACHyster SENS/SHAMS/CoFe2O4-1gl-water-60 Glycerol-Sens-08-03-2023/CoFe2O4-1gl-water-60 Glycerol- 10_100F- 24 kAm -Sens-08-03-20230004#1.txt
# Saved at: mi. mar. 8 13:22:02 2023
# Hyster Loop (3 iterations). Intensity: 24.0 kA/m; Tuned frequency: 50.0 kHz
# Units x axis: (kA/m)
# Units y axis: "Repeats y" & "Average y" (10^(-3)Am^2); "Mass avg y" (Am^2/kg)
# Magnetic mass: 4e-05 g
# Parameter      	Repeat   1	Repeat   2	Repeat   3	Average   	Sigma     
# H_C (kA/m)     	      17.8	      17.6	      18.0	      17.8	       0.1
# M_R (Am^2/kg)  	      17.7	      16.8	      17.9	      17.5	       0.5
# M_max (Am^2/kg)	      15.1	      14.7	      14.9	      14.9	       0.2
# Area (mJ/kg)   	    1582.7	    1495.0	    1599.2	    1559.0	      45.7
# SAR (W/g)      	      79.1	      74.7	      80.0	      77.9	       2.3
#Repeat 1 x	Repeat 1 y	Repeat 2 x	Repeat 2 y	Repeat 3 x	Repeat 3 y	Average x 	Average y 	Mass avg x 	Mass avg y 
  -3.23678	-0.00076808	  -3.21978	-0.000730261	   -3.2304	-0.000775631	  -3.22899	-0.000757991	  -3.22899	  -18.9498	
  -3.08736	-0.000765781	  -3.07008	-0.000728042	  -3.07877	-0.000773221	  -3.07874	-0.000755681	  -3.07874	   -18.892	
  -2.93802	-0.000763538	  -2.91946	-0.000725834	  -2.92718	-0.000770829	  -2.92822	-0.0007534	  -2.92822	   -18.835	
  -2.78846	-0.000761316	  -2.76895	-0.000723634	  -2.77574	-0.000768483	  -2.77771	-0.000751144	  -2.77771	  -18.7786	
  -2.63871	-0.000759034	  -2.61858	-0.000721426	  -2.62447	-0.000766158	  -2.62725	-0.000748873	  -2.62725	  -18.7218	
    -2.489	-0.000756633	  -2.46786	-0.000719164	  -2.47357	-0.000763815	  -2.47681	-0.000746537	  -2.47681	  -18.6634	
  -2.33901	-0.000754122	  -2.31761	-0.000716817	  -2.32227	-0.000761411	   -2.3263	-0.000744117	   -2.3263	  -18.6029	
  -2.18844	-0.000751531	  -2.16735	-0.000714388	  -2.17101	-0.000758914	   -2.1756	-0.000741611	   -2.1756	  -18.5403	
   -2.0379	-0.000748932	  -2.01631	-0.000711898	  -2.02004	-0.000756321	  -2.02475	-0.00073905	  -2.02475	  -18.4763	
  -1.88691	-0.000746366	  -1.86476	-0.000709391	  -1.86818	-0.000753646	  -1.87328	-0.000736468	  -1.87328	  -18.4117	
  -1.73535	-0.00074384	  -1.71295	-0.000706891	  -1.71606	-0.000750943	  -1.72146	-0.000733891	  -1.72146	  -18.3473	
  -1.58327	-0.000741326	  -1.56146	-0.000704399	  -1.56453	-0.000748253	  -1.56975	-0.000731326	  -1.56975	  -18.2832	
  -1.43115	-0.000738741	  -1.41011	-0.000701889	  -1.41313	-0.000745573	  -1.41813	-0.000728734	  -1.41813	  -18.2184	
  -1.27919	-0.000736035	  -1.25878	-0.000699318	  -1.26137	-0.000742906	  -1.26645	-0.000726087	  -1.26645	  -18.1522	
   -1.1264	-0.000733197	  -1.10764	-0.000696658	  -1.10939	-0.000740202	  -1.11448	-0.000723352	  -1.11448	  -18.0838	
 -0.973687	-0.000730271	 -0.956398	-0.000693911	  -0.95763	-0.000737436	 -0.962572	-0.000720539	 -0.962572	  -18.0135	
 -0.821134	-0.000727332	 -0.805082	-0.000691104	 -0.806161	-0.00073458	 -0.810792	-0.000717672	 -0.810792	  -17.9418	
 -0.668597	-0.000724428	 -0.653567	-0.000688277	 -0.654483	-0.000731653	 -0.658882	-0.000714786	 -0.658882	  -17.8696	
 -0.515778	-0.000721561	  -0.50233	-0.000685455	 -0.503075	-0.000728689	 -0.507061	-0.000711902	 -0.507061	  -17.7975	
 -0.363251	-0.000718705	 -0.351184	-0.00068264	 -0.351751	-0.000725708	 -0.355395	-0.000709018	 -0.355395	  -17.7254	
 -0.211372	-0.000715791	 -0.199759	-0.000679804	 -0.200481	-0.000722716	  -0.20387	-0.000706104	  -0.20387	  -17.6526	
-0.0596117	-0.000712759	-0.0479415	-0.000676905	 -0.049806	-0.000719697	-0.0524531	-0.00070312	-0.0524531	   -17.578	
 0.0920022	-0.000709588	  0.103938	-0.000673915	  0.100629	-0.000716632	 0.0988563	-0.000700045	 0.0988563	  -17.5011	
  0.244069	-0.000706308	  0.255757	-0.000670829	  0.250586	-0.000713515	  0.250137	-0.000696884	  0.250137	  -17.4221	
   0.39606	-0.000702988	  0.408332	-0.000667678	  0.400472	-0.000710346	  0.401621	-0.00069367	  0.401621	  -17.3418	
  0.547771	-0.000699689	  0.560709	-0.000664509	  0.550775	-0.000707129	  0.553085	-0.000690442	  0.553085	  -17.2611	
  0.699706	-0.000696425	  0.713462	-0.000661352	   0.70126	-0.000703871	  0.704809	-0.000687216	  0.704809	  -17.1804	
  0.851577	-0.000693173	  0.866433	-0.000658198	  0.851932	-0.000700572	  0.856647	-0.000683981	  0.856647	  -17.0995	
   1.00358	-0.000689872	   1.01956	-0.000655016	   1.00201	-0.000697236	   1.00838	-0.000680708	   1.00838	  -17.0177	
    1.1555	-0.000686483	   1.17262	-0.000651758	   1.15236	-0.000693864	   1.16016	-0.000677368	   1.16016	  -16.9342	
   1.30756	-0.000682993	    1.3255	-0.000648407	   1.30199	-0.000690457	   1.31168	-0.000673952	   1.31168	  -16.8488	
    1.4599	-0.000679416	   1.47807	-0.000644973	   1.45169	-0.000687014	   1.46322	-0.000670468	   1.46322	  -16.7617	
   1.61117	-0.000675799	   1.63068	-0.000641491	   1.60145	-0.000683532	   1.61443	-0.000666941	   1.61443	  -16.6735	
    1.7626	-0.000672159	   1.78276	-0.000638005	   1.75138	-0.000680007	   1.76558	-0.00066339	   1.76558	  -16.5848	
   1.91373	-0.000668518	   1.93467	-0.000634538	   1.90102	-0.000676442	   1.91647	-0.000659833	   1.91647	  -16.4958	
   2.06474	-0.00066487	   2.08586	-0.000631082	   2.05086	-0.000672803	   2.06715	-0.000656251	   2.06715	  -16.4063	
   2.21464	-0.000661183	   2.23671	-0.000627586	   2.20061	-0.000669099	   2.21732	-0.000652623	   2.21732	  -16.3156	
   2.36503	-0.000657439	   2.38737	-0.000623992	   2.35077	-0.000665333	   2.36772	-0.000648921	   2.36772	   -16.223	
   2.51515	-0.000653623	   2.53793	-0.000620262	   2.50058	-0.000661555	   2.51789	-0.000645147	   2.51789	  -16.1287	
   2.66478	-0.000649741	   2.68826	-0.000616408	   2.65067	-0.00065782	   2.66791	-0.000641323	   2.66791	  -16.0331	
   2.81364	-0.000645807	   2.83854	-0.000612503	   2.80053	-0.000654143	   2.81757	-0.000637484	   2.81757	  -15.9371	
   2.96261	-0.00064183	   2.98787	-0.00060862	   2.95033	-0.000650478	   2.96694	-0.000633643	   2.96694	  -15.8411	
   3.11141	-0.00063783	   3.13673	-0.000604806	   3.10021	-0.000646741	   3.11612	-0.000629792	   3.11612	  -15.7448	
   3.25995	-0.000633811	   3.28563	-0.000601056	   3.25018	-0.000642868	   3.26525	-0.000625912	   3.26525	  -15.6478	
   3.40907	-0.000629767	   3.43516	-0.000597288	   3.39947	-0.000638828	   3.41457	-0.000621961	   3.41457	   -15.549	
   3.55783	-0.000625686	   3.58507	-0.000593436	   3.54898	-0.000634681	   3.56396	-0.000617935	   3.56396	  -15.4484	
   3.70643	-0.000621551	   3.73529	-0.000589434	   3.69812	-0.000630507	   3.71328	-0.000613831	   3.71328	  -15.3458	
   3.85462	-0.000617353	   3.88611	-0.000585314	   3.84726	-0.000626383	   3.86266	-0.000609683	   3.86266	  -15.2421	
   4.00228	-0.00061309	   4.03625	-0.000581109	   3.99636	-0.000622339	   4.01163	-0.000605513	   4.01163	  -15.1378	
   4.14997	-0.000608779	   4.18625	-0.000576889	   4.14557	-0.000618333	    4.1606	-0.000601333	    4.1606	  -15.0333	
   4.29757	-0.000604437	   4.33567	-0.000572707	   4.29485	-0.00061429	   4.30936	-0.000597145	   4.30936	  -14.9286	
   4.44498	-0.000600074	   4.48472	-0.000568551	   4.44394	-0.000610118	   4.45788	-0.000592914	   4.45788	  -14.8229	
   4.59254	-0.000595689	   4.63244	-0.000564398	   4.59255	-0.000605795	   4.60584	-0.000588627	   4.60584	  -14.7157	
   4.74037	-0.00059127	   4.78045	-0.000560187	   4.74052	-0.00060136	   4.75378	-0.000584273	   4.75378	  -14.6068	
   4.88768	-0.000586804	   4.92761	-0.000555869	   4.88865	-0.000596888	   4.90131	-0.000579854	   4.90131	  -14.4963	
   5.03468	-0.000582286	    5.0753	-0.000551448	   5.03596	-0.000592449	   5.04865	-0.000575394	   5.04865	  -14.3849	
   5.18144	-0.000577717	    5.2227	-0.000546976	   5.18352	-0.000588061	   5.19589	-0.000570918	   5.19589	   -14.273	
   5.32813	-0.000573101	   5.37001	-0.000542517	   5.33113	-0.000583697	   5.34309	-0.000566438	   5.34309	   -14.161	
   5.47481	-0.000568447	   5.51694	-0.000538074	    5.4785	-0.000579293	   5.49008	-0.000561938	   5.49008	  -14.0485	
   5.62139	-0.000563762	   5.66343	-0.000533635	   5.62582	-0.000574789	   5.63688	-0.000557395	   5.63688	  -13.9349	
   5.76769	-0.000559054	   5.80932	-0.000529137	    5.7723	-0.000570161	    5.7831	-0.000552784	    5.7831	  -13.8196	
   5.91389	-0.000554317	   5.95551	-0.000524524	   5.91814	-0.000565434	   5.92918	-0.000548092	   5.92918	  -13.7023	
   6.05971	-0.000549544	   6.10144	-0.000519805	   6.06433	-0.000560669	   6.07516	-0.000543339	   6.07516	  -13.5835	
   6.20567	-0.000544723	   6.24688	-0.00051502	   6.21017	-0.000555926	   6.22091	-0.000538556	   6.22091	  -13.4639	
   6.35167	-0.000539849	   6.39175	-0.000510247	   6.35522	-0.00055123	   6.36621	-0.000533775	   6.36621	  -13.3444	
   6.49719	-0.000534929	   6.53593	-0.000505534	   6.50004	-0.000546552	   6.51105	-0.000529005	   6.51105	  -13.2251	
   6.64285	-0.000529976	   6.68004	-0.000500865	   6.64447	-0.000541835	   6.65579	-0.000524225	   6.65579	  -13.1056	
   6.78825	-0.000525009	   6.82401	-0.000496188	   6.78888	-0.000537022	   6.80038	-0.000519406	   6.80038	  -12.9852	
   6.93368	-0.000520033	   6.96819	-0.000491411	   6.93325	-0.000532098	   6.94504	-0.000514514	   6.94504	  -12.8628	
   7.07828	-0.000515036	   7.11168	-0.000486495	   7.07775	-0.000527088	   7.08924	-0.00050954	   7.08924	  -12.7385	
    7.2227	-0.000510034	    7.2548	-0.000481407	   7.22151	-0.000522046	     7.233	-0.000504496	     7.233	  -12.6124	
   7.36687	-0.000505013	   7.39748	-0.000476265	   7.36492	-0.000517017	   7.37642	-0.000499431	   7.37642	  -12.4858	
   7.51045	-0.000499855	   7.54011	-0.000471162	   7.50801	-0.000512008	   7.51952	-0.000494342	   7.51952	  -12.3585	
     7.654	-0.000494591	   7.68252	-0.000466176	    7.6513	-0.000506997	    7.6626	-0.000489255	    7.6626	  -12.2314	
   7.79708	-0.000489243	   7.82471	-0.000461299	   7.79401	-0.000501939	   7.80527	-0.00048416	   7.80527	   -12.104	
   7.94022	-0.000483907	   7.96704	-0.000456418	    7.9361	-0.000496797	   7.94779	-0.00047904	   7.94779	   -11.976	
   8.08386	-0.000478674	   8.11173	-0.000451442	   8.07762	-0.000491556	   8.09107	-0.000473891	   8.09107	  -11.8473	
   8.22811	-0.000473497	   8.25497	-0.000446248	   8.21878	-0.00048624	   8.23395	-0.000468662	   8.23395	  -11.7166	
    8.3719	-0.000468293	   8.39969	-0.000440864	   8.35962	-0.000480889	   8.37707	-0.000463349	   8.37707	  -11.5837	
   8.51587	-0.00046289	   8.54141	-0.000435388	   8.50023	-0.000475541	   8.51917	-0.00045794	   8.51917	  -11.4485	
   8.65683	-0.000457213	   8.68311	-0.000429941	   8.64006	-0.000470204	      8.66	-0.000452453	      8.66	  -11.3113	
   8.79758	-0.000451383	    8.8219	-0.000424627	   8.77902	-0.000464858	    8.7995	-0.000446956	    8.7995	  -11.1739	
   8.93483	-0.000445563	   8.95965	-0.000419439	   8.91795	-0.000459458	   8.93748	-0.000441487	   8.93748	  -11.0372	
   9.07193	-0.000439975	   9.09724	-0.000414305	   9.05706	-0.000453973	   9.07541	-0.000436085	   9.07541	  -10.9021	
   9.20765	-0.000434634	   9.23486	-0.000409105	   9.19589	-0.000448403	    9.2128	-0.000430714	    9.2128	  -10.7679	
   9.34402	-0.000429401	   9.37268	-0.000403747	   9.33431	-0.000442776	   9.35033	-0.000425308	   9.35033	  -10.6327	
   9.47996	-0.000424055	   9.51055	-0.000398226	   9.47159	-0.000437126	   9.48737	-0.000419802	   9.48737	  -10.4951	
   9.61616	-0.000418377	   9.64823	-0.000392591	   9.60806	-0.000431517	   9.62415	-0.000414162	   9.62415	   -10.354	
   9.75115	-0.000412353	   9.78633	-0.000386959	   9.74418	-0.000425915	   9.76056	-0.000408409	   9.76056	  -10.2102	
   9.88625	-0.000406137	   9.92296	-0.000381402	   9.87984	-0.000420284	   9.89635	-0.000402608	   9.89635	  -10.0652	
   10.0216	-0.00039996	   10.0603	-0.000375946	   10.0152	-0.000414559	   10.0324	-0.000396822	   10.0324	  -9.92054	
   10.1568	-0.000394032	   10.1964	-0.00037053	   10.1505	-0.000408686	   10.1679	-0.000391083	   10.1679	  -9.77707	
   10.2913	-0.00038837	   10.3317	-0.00036506	   10.2856	-0.000402703	   10.3028	-0.000385378	   10.3028	  -9.63444	
   10.4253	-0.000382845	   10.4658	-0.000359478	   10.4201	-0.000396696	   10.4371	-0.000379673	   10.4371	  -9.49182	
   10.5582	-0.00037725	   10.5998	-0.000353771	   10.5541	-0.00039076	   10.5707	-0.000373927	   10.5707	  -9.34817	
   10.6911	-0.000371408	   10.7334	-0.00034801	   10.6871	-0.000384945	   10.7039	-0.000368121	   10.7039	  -9.20302	
   10.8236	-0.000365294	   10.8672	-0.0003423	   10.8203	-0.000379206	    10.837	-0.000362267	    10.837	  -9.05666	
   10.9567	-0.000359009	   11.0005	-0.000336721	   10.9534	-0.00037342	   10.9702	-0.000356383	   10.9702	  -8.90958	
   11.0898	-0.000352741	   11.1334	-0.00033121	   11.0864	-0.000367493	   11.1032	-0.000350481	   11.1032	  -8.76203	
   11.2224	-0.000346664	   11.2655	-0.000325596	   11.2191	-0.000361378	   11.2357	-0.000344546	   11.2357	  -8.61365	
   11.3547	-0.000340816	   11.3972	-0.000319792	   11.3517	-0.000355127	   11.3679	-0.000338578	   11.3679	  -8.46446	
    11.486	-0.00033511	   11.5285	-0.000313795	   11.4838	-0.000348851	   11.4994	-0.000332585	   11.4994	  -8.31463	
   11.6169	-0.000329365	   11.6594	-0.000307675	   11.6157	-0.000342642	   11.6307	-0.000326561	   11.6307	  -8.16402	
   11.7475	-0.000323421	   11.7899	-0.000301634	   11.7471	-0.000336567	   11.7615	-0.000320541	   11.7615	  -8.01352	
   11.8775	-0.000317238	   11.9201	-0.000295787	   11.8787	-0.000330582	   11.8921	-0.000314536	   11.8921	  -7.86339	
   12.0072	-0.000310902	   12.0496	-0.000290153	     12.01	-0.000324593	   12.0223	-0.000308549	   12.0223	  -7.71374	
   12.1364	-0.000304597	   12.1791	-0.000284597	    12.141	-0.000318492	   12.1522	-0.000302562	   12.1522	  -7.56405	
   12.2656	-0.000298469	   12.3081	-0.000278913	   12.2714	-0.000312222	   12.2817	-0.000296535	   12.2817	  -7.41337	
   12.3942	-0.000292546	   12.4368	-0.000273034	   12.4008	-0.000305823	   12.4106	-0.000290467	   12.4106	  -7.26169	
   12.5224	-0.000286735	   12.5655	-0.000266893	     12.53	-0.000299389	   12.5393	-0.000284339	   12.5393	  -7.10847	
   12.6505	-0.000280869	   12.6936	-0.000260701	   12.6584	-0.000293029	   12.6675	-0.0002782	   12.6675	  -6.95499	
   12.7783	-0.000274822	   12.8212	-0.000254621	   12.7863	-0.000286789	   12.7952	-0.000272077	   12.7952	  -6.80193	
   12.9057	-0.000268574	   12.9474	-0.000248754	   12.9136	-0.00028061	   12.9222	-0.00026598	   12.9222	  -6.64949	
   13.0334	-0.000262214	   13.0727	-0.000243083	   13.0407	-0.000274432	   13.0489	-0.00025991	   13.0489	  -6.49775	
   13.1605	-0.000255891	   13.1976	-0.000237409	   13.1666	-0.000268194	   13.1749	-0.000253831	   13.1749	  -6.34578	
   13.2869	-0.000249711	   13.3221	-0.0002316	   13.2923	-0.000261881	   13.3004	-0.000247731	   13.3004	  -6.19327	
   13.4123	-0.000243697	   13.4467	-0.000225528	   13.4176	-0.000255508	   13.4255	-0.000241578	   13.4255	  -6.03944	
   13.5366	-0.000237766	   13.5711	-0.000219239	   13.5417	-0.00024911	   13.5498	-0.000235372	   13.5498	  -5.88429	
   13.6605	-0.000231783	   13.6947	-0.000212898	   13.6656	-0.000242724	   13.6736	-0.000229135	   13.6736	  -5.72837	
   13.7836	-0.000225652	   13.8179	-0.000206664	   13.7885	-0.000236355	   13.7967	-0.00022289	   13.7967	  -5.57226	
   13.9062	-0.000219358	   13.9406	-0.000200648	   13.9105	-0.000229992	   13.9191	-0.000216666	   13.9191	  -5.41665	
   14.0283	-0.000212981	   14.0621	-0.000194808	   14.0322	-0.000223607	   14.0409	-0.000210465	   14.0409	  -5.26163	
     14.15	-0.000206644	    14.183	-0.000189006	   14.1529	-0.00021718	    14.162	-0.000204277	    14.162	  -5.10692	
   14.2711	-0.00020044	   14.3031	-0.000183088	   14.2732	-0.000210718	   14.2825	-0.000198082	   14.2825	  -4.95204	
   14.3921	-0.000194376	   14.4229	-0.000176945	   14.3931	-0.000204239	   14.4027	-0.000191854	   14.4027	  -4.79634	
   14.5127	-0.000188382	   14.5428	-0.000170618	   14.5124	-0.000197772	   14.5226	-0.000185591	   14.5226	  -4.63976	
   14.6321	-0.000182339	   14.6617	-0.000164246	   14.6301	-0.000191328	   14.6413	-0.000179304	   14.6413	  -4.48261	
   14.7511	-0.00017616	   14.7799	-0.000157976	   14.7471	-0.000184908	   14.7594	-0.000173015	   14.7594	  -4.32537	
   14.8688	-0.000169839	   14.8977	-0.000151895	   14.8638	-0.000178494	   14.8768	-0.000166743	   14.8768	  -4.16857	
   14.9859	-0.000163448	   15.0147	-0.000145967	   14.9807	-0.000172064	   14.9938	-0.000160493	   14.9938	  -4.01232	
   15.1035	-0.000157097	    15.131	-0.000140064	    15.097	-0.000165596	   15.1105	-0.000154252	   15.1105	   -3.8563	
   15.2206	-0.000150866	   15.2465	-0.000134054	    15.213	-0.000159094	   15.2267	-0.000148005	   15.2267	  -3.70011	
   15.3372	-0.00014473	   15.3612	-0.00012787	   15.3279	-0.000152578	   15.3421	-0.000141726	   15.3421	  -3.54315	
   15.4527	-0.000138655	   15.4753	-0.000121552	   15.4424	-0.000146079	   15.4568	-0.000135428	   15.4568	  -3.38571	
    15.567	-0.00013251	   15.5886	-0.000115216	   15.5562	-0.000139616	   15.5706	-0.000129114	   15.5706	  -3.22785	
   15.6811	-0.000126274	   15.7017	-0.000108982	    15.669	-0.000133184	    15.684	-0.000122813	    15.684	  -3.07033	
   15.7944	-0.000119963	   15.8143	-0.000102913	   15.7814	-0.000126762	   15.7967	-0.000116546	   15.7967	  -2.91365	
   15.9073	-0.000113639	   15.9258	-9.69723e-05	   15.8937	-0.000120316	   15.9089	-0.000110309	   15.9089	  -2.75772	
    16.021	-0.000107383	   16.0369	-9.1049e-05	   16.0055	-0.000113879	   16.0211	-0.000104104	   16.0211	   -2.6026	
    16.134	-0.000101184	   16.1472	-8.50274e-05	   16.1169	-0.000107441	   16.1327	-9.78841e-05	   16.1327	   -2.4471	
   16.2464	-9.50195e-05	   16.2562	-7.88498e-05	   16.2277	-0.000100997	   16.2434	-9.1622e-05	   16.2434	  -2.29055	
   16.3578	-8.88221e-05	   16.3647	-7.25528e-05	    16.338	-9.45187e-05	   16.3535	-8.52979e-05	   16.3535	  -2.13245	
   16.4681	-8.25483e-05	   16.4725	-6.62443e-05	   16.4476	-8.80187e-05	   16.4628	-7.89371e-05	   16.4628	  -1.97343	
   16.5775	-7.62135e-05	   16.5795	-6.00381e-05	   16.5572	-8.15174e-05	   16.5714	-7.25897e-05	   16.5714	  -1.81474	
   16.6857	-6.98525e-05	   16.6863	-5.39866e-05	   16.6661	-7.50223e-05	   16.6794	-6.62871e-05	   16.6794	  -1.65718	
   16.7934	-6.35303e-05	   16.7929	-4.80494e-05	   16.7743	-6.85843e-05	   16.7869	-6.00547e-05	   16.7869	  -1.50137	
      16.9	-5.72821e-05	   16.8984	-4.21175e-05	   16.8819	-6.22065e-05	   16.8934	-5.38687e-05	   16.8934	  -1.34672	
   17.0065	-5.10962e-05	   17.0039	-3.60888e-05	    16.989	-5.58778e-05	   16.9998	-4.76876e-05	   16.9998	  -1.19219	
   17.1128	-4.49261e-05	   17.1081	-2.99154e-05	   17.0955	-4.95603e-05	   17.1055	-4.14673e-05	   17.1055	  -1.03668	
   17.2185	-3.87093e-05	   17.2112	-2.36367e-05	   17.2014	-4.32024e-05	   17.2104	-3.51828e-05	   17.2104	 -0.879571	
    17.324	-3.24143e-05	   17.3132	-1.73562e-05	    17.307	-3.67748e-05	   17.3147	-2.88485e-05	   17.3147	 -0.721211	
    17.429	-2.60544e-05	   17.4149	-1.11734e-05	   17.4113	-3.02975e-05	   17.4184	-2.25084e-05	   17.4184	 -0.562711	
   17.5328	-1.968e-05	   17.5162	-5.13174e-06	   17.5155	-2.37733e-05	   17.5215	-1.6195e-05	   17.5215	 -0.404876	
   17.6358	-1.33529e-05	   17.6169	8.04531e-07	    17.619	-1.73183e-05	   17.6239	-9.95555e-06	   17.6239	 -0.248889	
   17.7377	-7.09196e-06	   17.7165	6.73015e-06	   17.7213	-1.09656e-05	   17.7252	-3.77582e-06	   17.7252	-0.0943954	
   17.8384	-8.67593e-07	   17.8151	1.27323e-05	   17.8233	-4.74307e-06	   17.8256	2.37388e-06	   17.8256	  0.059347	
   17.9389	5.33569e-06	   17.9135	1.88533e-05	   17.9251	1.4071e-06	   17.9258	8.53203e-06	   17.9258	  0.213301	
   18.0391	1.15327e-05	   18.0117	2.5058e-05	   18.0281	7.62194e-06	   18.0263	1.47375e-05	   18.0263	  0.368438	
   18.1378	1.77227e-05	   18.1099	3.12592e-05	   18.1296	1.39813e-05	   18.1258	2.09877e-05	   18.1258	  0.524693	
   18.2362	2.39134e-05	   18.2071	3.73712e-05	   18.2311	2.05296e-05	   18.2248	2.72714e-05	   18.2248	  0.681785	
   18.3338	3.01038e-05	   18.3039	4.33547e-05	    18.329	2.71753e-05	   18.3222	3.35446e-05	   18.3222	  0.838615	
   18.4302	3.62989e-05	   18.3999	4.92362e-05	    18.427	3.37648e-05	    18.419	3.97666e-05	    18.419	  0.994166	
   18.5258	4.2505e-05	   18.4958	5.50968e-05	   18.5199	4.01918e-05	   18.5139	4.59312e-05	   18.5139	   1.14828	
   18.6208	4.87181e-05	   18.5905	6.10161e-05	   18.6122	4.64074e-05	   18.6078	5.20472e-05	   18.6078	   1.30118	
   18.7149	5.4923e-05	   18.6843	6.70306e-05	   18.7032	5.24967e-05	   18.7008	5.81501e-05	   18.7008	   1.45375	
   18.8081	6.10939e-05	   18.7772	7.31164e-05	    18.795	5.85976e-05	   18.7934	6.42693e-05	   18.7934	   1.60673	
   18.9011	6.72183e-05	   18.8694	7.91955e-05	   18.8869	6.48337e-05	   18.8858	7.04158e-05	   18.8858	    1.7604	
   18.9935	7.33009e-05	   18.9607	8.51946e-05	   18.9791	7.12502e-05	   18.9777	7.65819e-05	   18.9777	   1.91455	
   19.0852	7.93676e-05	    19.051	9.10762e-05	   19.0702	7.77584e-05	   19.0688	8.27341e-05	   19.0688	   2.06835	
   19.1759	8.54408e-05	   19.1405	9.68695e-05	   19.1606	8.42286e-05	    19.159	8.88463e-05	    19.159	   2.22116	
   19.2657	9.15246e-05	    19.229	0.000102641	     19.25	9.05385e-05	   19.2483	9.49015e-05	   19.2483	   2.37254	
   19.3551	9.76079e-05	   19.3169	0.000108464	   19.3386	9.6657e-05	   19.3368	0.000100909	   19.3368	   2.52274	
   19.4433	0.000103668	   19.4042	0.000114358	   19.4257	0.00010266	   19.4244	0.000106895	   19.4244	   2.67238	
   19.5307	0.000109698	   19.4909	0.000120302	    19.512	0.000108658	   19.5112	0.000112886	   19.5112	   2.82215	
   19.6165	0.000115695	   19.5766	0.000126232	   19.5975	0.000114751	   19.5969	0.000118893	   19.5969	   2.97231	
   19.7012	0.000121668	   19.6611	0.00013209	   19.6828	0.000120972	   19.6817	0.00012491	   19.6817	   3.12275	
   19.7846	0.000127624	    19.745	0.000137852	    19.767	0.000127277	   19.7656	0.000130918	   19.7656	   3.27294	
   19.8677	0.000133574	   19.8285	0.000143539	    19.851	0.000133575	   19.8491	0.000136896	   19.8491	   3.42239	
   19.9497	0.000139519	   19.9117	0.000149206	   19.9342	0.000139763	   19.9319	0.000142829	   19.9319	   3.57073	
   20.0308	0.00014545	   19.9939	0.000154899	   20.0169	0.000145806	   20.0139	0.000148718	   20.0139	   3.71796	
   20.1108	0.000151364	   20.0756	0.000160639	   20.0986	0.000151593	    20.095	0.000154532	    20.095	    3.8633	
   20.1902	0.000157253	   20.1575	0.000166403	   20.1795	0.00015732	   20.1757	0.000160325	   20.1757	   4.00813	
    20.269	0.00016311	    20.238	0.000172144	   20.2586	0.000163091	   20.2552	0.000166115	   20.2552	   4.15287	
   20.3474	0.000168938	    20.318	0.000177821	   20.3375	0.000169069	   20.3343	0.000171942	   20.3343	   4.29856	
   20.4249	0.000174745	   20.3972	0.000183418	   20.4163	0.000175215	   20.4128	0.000177793	   20.4128	   4.44481	
   20.5015	0.000180538	    20.476	0.00018896	   20.4944	0.000181389	   20.4906	0.000183629	   20.4906	   4.59072	
   20.5774	0.000186319	   20.5534	0.000194491	   20.5715	0.000187404	   20.5674	0.000189405	   20.5674	   4.73512	
   20.6524	0.000192092	   20.6297	0.000200048	   20.6475	0.000193092	   20.6432	0.000195077	   20.6432	   4.87693	
   20.7266	0.000197849	   20.7054	0.00020564	   20.7228	0.000198511	   20.7183	0.000200667	   20.7183	   5.01667	
   20.8009	0.000203581	   20.7809	0.000211242	    20.798	0.000203809	   20.7932	0.000206211	   20.7932	   5.15527	
   20.8744	0.00020929	   20.8554	0.000216811	   20.8722	0.000209205	   20.8673	0.000211769	   20.8673	   5.29422	
   20.9473	0.000214973	   20.9294	0.000222317	   20.9455	0.00021483	   20.9408	0.000217374	   20.9408	   5.43434	
   21.0196	0.000220639	   21.0033	0.000227754	   21.0181	0.00022066	   21.0136	0.000223018	   21.0136	   5.57544	
    21.091	0.000226278	   21.0761	0.000233143	   21.0899	0.000226565	   21.0857	0.000228662	   21.0857	   5.71655	
   21.1617	0.000231899	   21.1483	0.000238532	   21.1614	0.000232348	   21.1571	0.00023426	   21.1571	   5.85649	
   21.2321	0.000237496	   21.2201	0.000243945	   21.2323	0.000237891	   21.2282	0.000239777	   21.2282	   5.99444	
   21.3018	0.000243068	   21.2904	0.000249393	   21.3019	0.000243217	    21.298	0.000245226	    21.298	   6.13065	
   21.3708	0.000248625	     21.36	0.00025485	     21.37	0.000248449	    21.367	0.000250642	    21.367	   6.26604	
   21.4388	0.000254167	   21.4292	0.000260272	   21.4375	0.000253753	   21.4351	0.000256064	   21.4351	    6.4016	
   21.5062	0.000259687	   21.4976	0.000265614	    21.504	0.000259228	   21.5026	0.00026151	   21.5026	   6.53774	
   21.5729	0.000265157	    21.565	0.000270862	   21.5697	0.000264861	   21.5692	0.00026696	   21.5692	     6.674	
   21.6392	0.00027056	   21.6315	0.000276029	    21.634	0.000270545	   21.6349	0.000272378	   21.6349	   6.80944	
    21.705	0.000275912	   21.6978	0.000281141	   21.6969	0.000276131	   21.6999	0.000277728	   21.6999	    6.9432	
   21.7703	0.000281252	   21.7625	0.000286249	   21.7589	0.000281528	   21.7639	0.00028301	   21.7639	   7.07524	
   21.8341	0.000286673	   21.8263	0.000291397	   21.8199	0.000286742	   21.8268	0.00028827	   21.8268	   7.20676	
   21.8965	0.00029219	   21.8893	0.000296624	     21.88	0.00029187	   21.8886	0.000293561	   21.8886	   7.33903	
   21.9573	0.000297756	   21.9518	0.000301905	    21.939	0.000297057	   21.9494	0.000298906	   21.9494	   7.47265	
   22.0167	0.000303274	   22.0131	0.000307191	   21.9972	0.000302386	    22.009	0.000304284	    22.009	    7.6071	
   22.0747	0.000308639	    22.072	0.000312398	   22.0545	0.000307853	   22.0671	0.00030963	   22.0671	   7.74075	
   22.1324	0.00031387	   22.1287	0.000317486	   22.1107	0.000313359	   22.1239	0.000314905	   22.1239	   7.87263	
   22.1893	0.000318992	   22.1841	0.000322437	   22.1658	0.000318764	   22.1798	0.000320065	   22.1798	   8.00161	
   22.2463	0.000324093	   22.2387	0.000327264	    22.221	0.000323996	   22.2353	0.000325118	   22.2353	   8.12794	
   22.3033	0.000329242	   22.2934	0.000332061	    22.275	0.000329061	   22.2906	0.000330122	   22.2906	   8.25304	
   22.3603	0.000334467	   22.3481	0.000336874	   22.3284	0.000334061	   22.3456	0.000335134	   22.3456	   8.37835	
   22.4162	0.000339794	   22.4031	0.000341709	   22.3815	0.000339126	   22.4003	0.00034021	   22.4003	   8.50525	
   22.4719	0.000345136	   22.4582	0.000346554	   22.4338	0.000344324	   22.4546	0.000345338	   22.4546	   8.63346	
   22.5264	0.000350449	   22.5122	0.000351381	   22.4851	0.000349628	   22.5079	0.000350486	   22.5079	   8.76216	
   22.5802	0.000355648	   22.5659	0.000356201	   22.5363	0.000354931	   22.5608	0.000355593	   22.5608	   8.88983	
   22.6319	0.000360715	   22.6187	0.000361012	    22.587	0.000360111	   22.6125	0.000360612	   22.6125	   9.01531	
   22.6831	0.000365704	   22.6709	0.000365792	   22.6369	0.000365114	   22.6636	0.000365537	   22.6636	   9.13842	
   22.7322	0.000370707	     22.72	0.000370533	    22.686	0.000369975	   22.7127	0.000370405	   22.7127	   9.26012	
   22.7811	0.000375782	   22.7686	0.000375206	   22.7338	0.000374812	   22.7612	0.000375267	   22.7612	   9.38167	
   22.8285	0.000380952	   22.8153	0.000379826	    22.781	0.000379719	   22.8083	0.000380166	   22.8083	   9.50414	
   22.8761	0.000386172	   22.8623	0.000384425	   22.8271	0.000384761	   22.8552	0.000385119	   22.8552	   9.62798	
    22.922	0.000391383	   22.9076	0.000389012	   22.8723	0.000389815	   22.9007	0.00039007	   22.9007	   9.75175	
   22.9676	0.000396507	   22.9528	0.000393607	   22.9166	0.000394847	   22.9457	0.000394987	   22.9457	   9.87467	
   23.0121	0.000401498	   22.9961	0.000398209	     22.96	0.000399702	   22.9894	0.000399803	   22.9894	   9.99507	
   23.0553	 0.0004064	   23.0379	0.000402793	   23.0021	0.000404416	   23.0318	0.000404536	   23.0318	   10.1134	
   23.0968	0.000411275	   23.0779	0.00040733	   23.0431	0.000409066	   23.0726	0.000409223	   23.0726	   10.2306	
   23.1371	0.000416197	   23.1182	0.000411793	   23.0829	0.000413736	   23.1127	0.000413909	   23.1127	   10.3477	
   23.1761	0.000421194	   23.1573	0.000416201	   23.1212	0.000418513	   23.1515	0.000418636	   23.1515	   10.4659	
   23.2143	0.000426233	   23.1959	0.000420585	   23.1589	0.000423305	   23.1897	0.000423375	   23.1897	   10.5844	
   23.2507	0.000431255	    23.233	0.000424978	   23.1957	0.000428034	   23.2264	0.000428089	   23.2264	   10.7022	
   23.2853	0.000436189	   23.2698	0.000429424	   23.2313	0.000432593	   23.2621	0.000432736	   23.2621	   10.8184	
   23.3191	0.00044101	   23.3047	0.000433886	   23.2657	0.000436964	   23.2965	0.000437287	   23.2965	   10.9322	
   23.3524	0.000445743	   23.3392	0.000438319	   23.2994	0.000441247	   23.3304	0.00044177	   23.3304	   11.0442	
    23.385	0.000450437	   23.3726	0.000442641	   23.3323	0.000445548	   23.3633	0.000446208	   23.3633	   11.1552	
   23.4169	0.000455155	   23.4053	0.000446833	   23.3646	0.00044997	   23.3956	0.000450652	   23.3956	   11.2663	
   23.4479	0.00045992	   23.4372	0.000450937	   23.3959	0.000454526	    23.427	0.000455127	    23.427	   11.3782	
   23.4781	0.000464712	   23.4685	0.00045496	   23.4265	0.000459119	   23.4577	0.000459597	   23.4577	   11.4899	
   23.5074	0.000469482	   23.4986	0.000459032	   23.4568	0.00046364	   23.4876	0.000464051	   23.4876	   11.6013	
   23.5362	0.000474172	    23.528	0.000463179	   23.4866	0.000467987	    23.517	0.000468446	    23.517	   11.7112	
   23.5643	0.000478758	   23.5565	0.000467406	   23.5152	0.000472154	   23.5453	0.000472772	   23.5453	   11.8193	
   23.5921	0.000483253	    23.584	0.000471615	   23.5429	0.000476235	    23.573	0.000477034	    23.573	   11.9259	
   23.6187	0.000487711	   23.6105	0.000475779	   23.5694	0.000480341	   23.5995	0.000481277	   23.5995	   12.0319	
   23.6444	0.000492186	   23.6363	0.000479869	   23.5951	0.000484559	   23.6252	0.000485538	   23.6252	   12.1385	
   23.6687	0.000496702	    23.661	0.000483891	   23.6195	0.000488895	   23.6497	0.000489829	   23.6497	   12.2457	
   23.6922	0.000501234	   23.6849	0.000487897	   23.6424	0.000493281	   23.6732	0.000494137	   23.6732	   12.3534	
   23.7144	0.000505736	   23.7078	0.000491912	   23.6642	0.000497634	   23.6955	0.000498428	   23.6955	   12.4607	
   23.7357	0.000510154	     23.73	0.00049598	   23.6848	0.000501871	   23.7168	0.000502669	   23.7168	   12.5667	
   23.7558	0.000514469	   23.7515	0.000500069	   23.7042	0.000505972	   23.7371	0.000506837	   23.7371	   12.6709	
   23.7747	0.000518685	   23.7724	0.000504143	   23.7231	0.000509992	   23.7568	0.00051094	   23.7568	   12.7735	
   23.7928	0.000522843	   23.7919	0.000508152	   23.7417	0.000514036	   23.7755	0.00051501	   23.7755	   12.8753	
   23.8102	0.000527034	   23.8109	0.000512081	   23.7594	0.000518169	   23.7935	0.000519095	   23.7935	   12.9774	
   23.8267	0.000531289	   23.8293	0.000515936	   23.7763	0.000522397	   23.8108	0.000523207	   23.8108	   13.0802	
   23.8421	0.000535612	   23.8468	0.000519771	   23.7921	0.000526651	    23.827	0.000527344	    23.827	   13.1836	
   23.8565	0.000539936	   23.8632	0.000523636	   23.8072	0.000530857	   23.8423	0.000531476	   23.8423	   13.2869	
   23.8698	0.000544158	   23.8782	0.000527556	   23.8216	0.000534941	   23.8565	0.000535552	   23.8565	   13.3888	
    23.882	0.000548227	    23.893	0.000531516	   23.8347	0.00053894	   23.8699	0.000539561	   23.8699	    13.489	
   23.8933	0.000552129	   23.9067	0.00053545	   23.8472	0.000542892	   23.8824	0.00054349	   23.8824	   13.5873	
   23.9036	0.000555947	   23.9195	0.000539301	    23.859	0.000546881	    23.894	0.000547376	    23.894	   13.6844	
   23.9127	0.000559788	   23.9313	0.000543041	   23.8702	0.000550919	   23.9047	0.00055125	   23.9047	   13.7812	
    23.921	0.000563721	    23.943	0.000546702	   23.8807	0.000554975	   23.9149	0.000555133	   23.9149	   13.8783	
   23.9288	0.000567749	    23.954	0.00055035	   23.8903	0.000558983	   23.9244	0.000559027	   23.9244	   13.9757	
   23.9351	0.000571791	   23.9637	0.000554035	    23.899	0.000562881	   23.9326	0.000562902	   23.9326	   14.0726	
   23.9408	0.000575754	   23.9722	0.000557775	   23.9065	0.000566694	   23.9398	0.000566741	   23.9398	   14.1685	
   23.9458	0.000579579	    23.979	0.000561538	    23.913	0.000570481	   23.9459	0.000570533	   23.9459	   14.2633	
   23.9497	0.000583272	   23.9854	0.000565264	   23.9189	0.000574306	   23.9513	0.000574281	   23.9513	    14.357	
   23.9531	0.000586913	   23.9905	0.000568907	   23.9237	0.000578196	   23.9558	0.000578005	   23.9558	   14.4501	
    23.956	0.000590576	   23.9953	0.000572451	   23.9276	0.000582114	   23.9596	0.000581714	   23.9596	   14.5428	
   23.9583	0.000594318	   23.9991	0.000575926	   23.9308	0.000585988	   23.9628	0.00058541	   23.9628	   14.6353	
   23.9601	0.000598105	   24.0019	0.000579382	   23.9332	0.000589754	   23.9651	0.000589081	   23.9651	    14.727	
   23.9604	0.000601877	   24.0042	0.000582856	   23.9345	0.000593398	   23.9664	0.00059271	   23.9664	   14.8178	
   23.9602	0.000605557	   24.0048	0.000586361	   23.9351	0.000596959	   23.9667	0.000596292	   23.9667	   14.9073	
   23.9589	0.000609105	   24.0042	0.000589868	   23.9344	0.000600511	   23.9658	0.000599828	   23.9658	   14.9957	
   23.9572	0.000612543	   24.0024	0.000593337	   23.9324	0.000604124	    23.964	0.000603334	    23.964	   15.0834	
   23.9551	0.000615925	   23.9995	 0.0005967	   23.9296	0.000607821	   23.9614	0.000606815	   23.9614	   15.1704	
    23.952	0.000619344	   23.9953	0.000599972	   23.9265	0.000611549	   23.9579	0.000610288	   23.9579	   15.2572	
    23.948	0.000622837	   23.9901	0.000603157	   23.9229	0.000615214	   23.9537	0.000613736	   23.9537	   15.3434	
   23.9443	0.000626387	    23.984	0.00060634	   23.9186	0.000618738	   23.9489	0.000617155	   23.9489	   15.4289	
   23.9394	0.000629927	   23.9772	0.00060958	    23.913	0.000622104	   23.9432	0.000620537	   23.9432	   15.5134	
   23.9337	0.000633367	   23.9692	0.00061289	   23.9064	0.000625377	   23.9364	0.000623878	   23.9364	   15.5969	
    23.927	0.000636673	   23.9601	0.00061623	   23.8988	0.000628647	   23.9287	0.000627184	   23.9287	   15.6796	
   23.9197	0.000639869	   23.9504	0.000619488	   23.8907	0.000631995	   23.9203	0.000630451	   23.9203	   15.7613	
   23.9113	0.000643034	   23.9394	 0.0006226	   23.8821	0.000635433	   23.9109	0.000633689	   23.9109	   15.8422	
   23.9018	0.00064624	    23.928	0.000625548	   23.8727	0.000638916	   23.9009	0.000636902	   23.9009	   15.9225	
    23.891	0.000649507	    23.916	0.000628397	   23.8624	0.000642353	   23.8898	0.000640086	   23.8898	   16.0021	
   23.8791	0.000652818	   23.9031	0.000631258	    23.851	0.000645658	   23.8777	0.000643245	   23.8777	   16.0811	
    23.866	0.000656123	   23.8894	0.000634205	   23.8385	0.00064881	   23.8646	0.000646379	   23.8646	   16.1595	
   23.8513	0.000659368	   23.8747	0.000637261	   23.8251	0.000651841	   23.8504	0.00064949	   23.8504	   16.2373	
   23.8351	0.000662527	   23.8594	0.000640365	   23.8108	0.000654838	   23.8351	0.000652577	   23.8351	   16.3144	
   23.8182	0.000665608	   23.8432	0.000643416	   23.7954	0.000657872	   23.8189	0.000655632	   23.8189	   16.3908	
   23.8003	0.000668657	   23.8256	0.000646342	   23.7787	0.000660971	   23.8016	0.000658657	   23.8016	   16.4664	
    23.782	0.000671712	   23.8076	0.000649116	   23.7608	0.000664122	   23.7835	0.00066165	   23.7835	   16.5413	
    23.763	0.000674792	   23.7883	0.000651788	   23.7416	0.000667288	   23.7643	0.000664623	   23.7643	   16.6156	
   23.7427	0.000677873	   23.7686	0.00065445	   23.7214	0.000670398	   23.7442	0.000667574	   23.7442	   16.6893	
    23.721	0.000680919	   23.7482	0.000657173	   23.6994	0.00067341	   23.7228	0.000670501	   23.7228	   16.7625	
   23.6984	0.000683878	   23.7264	0.000659983	   23.6757	0.000676318	   23.7002	0.000673393	   23.7002	   16.8348	
   23.6753	0.000686758	   23.7035	0.000662836	   23.6512	0.000679139	   23.6767	0.000676245	   23.6767	   16.9061	
   23.6511	0.000689591	   23.6797	0.000665647	   23.6256	0.000681928	   23.6521	0.000679055	   23.6521	   16.9764	
   23.6252	0.00069242	   23.6549	0.000668346	   23.5999	0.000684737	   23.6266	0.000681834	   23.6266	   17.0459	
   23.5983	0.000695283	   23.6294	0.000670907	   23.5743	0.000687573	   23.6007	0.000684587	   23.6007	   17.1147	
   23.5717	0.000698174	   23.6026	0.000673374	   23.5484	0.000690429	   23.5742	0.000687326	   23.5742	   17.1831	
   23.5446	0.000701067	    23.575	0.000675829	   23.5222	0.000693234	   23.5473	0.000690043	   23.5473	   17.2511	
   23.5161	0.000703907	   23.5461	0.000678339	   23.4947	0.000695983	   23.5189	0.000692743	   23.5189	   17.3186	
   23.4872	0.000706661	   23.5156	0.000680924	   23.4667	0.000698674	   23.4898	0.00069542	   23.4898	   17.3855	
   23.4575	0.000709334	   23.4845	0.000683539	   23.4365	0.000701327	   23.4595	0.000698067	   23.4595	   17.4517	
   23.4269	0.00071196	   23.4527	0.000686107	   23.4059	0.000703978	   23.4285	0.000700682	   23.4285	    17.517	
   23.3955	0.000714588	   23.4195	0.000688574	   23.3734	0.000706619	   23.3962	0.00070326	   23.3962	   17.5815	
   23.3632	0.000717246	    23.386	0.000690879	   23.3406	0.000709248	   23.3633	0.000705791	   23.3633	   17.6448	
   23.3299	0.000719929	   23.3514	0.000693114	   23.3065	0.00071185	   23.3292	0.000708298	   23.3292	   17.7075	
   23.2961	0.000722605	   23.3156	0.000695352	   23.2719	0.000714411	   23.2945	0.000710789	   23.2945	   17.7697	
   23.2613	0.000725223	   23.2791	0.000697697	   23.2359	0.00071694	   23.2587	0.000713287	   23.2587	   17.8322	
   23.2256	0.000727757	   23.2412	0.000700161	    23.199	0.000719442	   23.2219	0.000715787	   23.2219	   17.8947	
   23.1889	0.000730209	   23.2019	0.000702659	   23.1599	0.000721917	   23.1836	0.000718262	   23.1836	   17.9565	
   23.1511	0.00073261	   23.1617	0.000705093	   23.1208	0.000724377	   23.1446	0.000720694	   23.1446	   18.0173	
   23.1118	0.000735004	   23.1207	0.000707341	   23.0812	0.00072683	   23.1046	0.000723058	   23.1046	   18.0765	
   23.0721	0.00073742	   23.0797	0.000709407	   23.0409	0.000729308	   23.0642	0.000725378	   23.0642	   18.1345	
   23.0319	0.000739859	   23.0372	0.000711367	   22.9997	0.000731784	   23.0229	0.00072767	   23.0229	   18.1918	
   22.9907	0.000742289	   22.9945	0.000713339	   22.9577	0.000734205	    22.981	0.000729945	    22.981	   18.2486	
   22.9487	0.000744667	   22.9507	0.000715422	   22.9151	0.000736509	   22.9382	0.000732199	   22.9382	    18.305	
   22.9056	0.000746941	   22.9057	0.00071762	    22.872	0.00073869	   22.8944	0.000734417	   22.8944	   18.3604	
   22.8616	0.000749113	   22.8602	0.00071987	   22.8284	0.000740805	     22.85	0.000736596	     22.85	   18.4149	
   22.8165	0.000751242	   22.8137	0.000722054	   22.7846	0.000742892	   22.8049	0.000738729	   22.8049	   18.4682	
   22.7707	0.000753411	   22.7663	0.000724087	   22.7402	0.000745046	   22.7591	0.000740848	   22.7591	   18.5212	
   22.7244	0.000755685	   22.7181	0.000725964	   22.6951	0.000747282	   22.7125	0.000742977	   22.7125	   18.5744	
   22.6772	0.000758034	   22.6686	0.000727752	   22.6482	0.000749585	   22.6647	0.000745124	   22.6647	   18.6281	
   22.6294	0.000760387	   22.6185	0.000729556	   22.6008	0.000751862	   22.6163	0.000747268	   22.6163	   18.6817	
   22.5804	0.000762641	   22.5673	0.000731444	   22.5525	0.000754082	   22.5667	0.000749389	   22.5667	   18.7347	
   22.5307	0.000764732	   22.5159	0.000733419	   22.5035	0.000756198	   22.5167	0.00075145	   22.5167	   18.7862	
   22.4799	0.000766677	   22.4634	0.000735455	   22.4541	0.000758222	   22.4658	0.000753451	   22.4658	   18.8363	
   22.4276	0.000768563	   22.4101	0.000737427	   22.4043	0.00076021	    22.414	 0.0007554	    22.414	    18.885	
   22.3744	0.000770499	   22.3558	0.000739259	   22.3531	0.00076223	   22.3611	0.000757329	   22.3611	   18.9332	
   22.3203	0.000772544	   22.3005	0.00074091	   22.3008	0.000764334	   22.3072	0.000759263	   22.3072	   18.9816	
    22.265	0.000774685	   22.2452	0.000742433	   22.2474	0.000766516	   22.2525	0.000761211	   22.2525	   19.0303	
   22.2087	0.000776855	   22.1888	0.000743952	   22.1931	0.000768714	   22.1969	0.000763174	   22.1969	   19.0793	
    22.151	0.000778946	    22.132	0.000745553	   22.1374	0.000770861	   22.1401	0.00076512	   22.1401	    19.128	
   22.0926	0.000780915	   22.0743	0.000747303	   22.0804	0.000772903	   22.0825	0.00076704	   22.0825	    19.176	
   22.0337	0.000782728	   22.0164	0.000749148	   22.0227	0.000774938	   22.0243	0.000768938	   22.0243	   19.2235	
   21.9738	0.000784451	   21.9573	0.000750993	   21.9641	0.000776964	    21.965	0.000770803	    21.965	   19.2701	
   21.9129	0.000786138	   21.8971	0.000752724	    21.905	0.000778998	    21.905	0.00077262	    21.905	   19.3155	
   21.8508	0.000787851	   21.8361	0.000754283	    21.845	0.000780968	    21.844	0.000774368	    21.844	   19.3592	
   21.7881	0.000789648	   21.7738	0.000755653	   21.7841	0.000782873	    21.782	0.000776058	    21.782	   19.4014	
   21.7245	0.000791496	   21.7111	0.000756953	   21.7221	0.000784726	   21.7192	0.000777725	   21.7192	   19.4431	
   21.6595	0.000793352	   21.6475	0.000758305	   21.6614	0.00078652	   21.6561	0.000779392	   21.6561	   19.4848	
   21.5938	0.000795139	   21.5826	0.000759801	   21.6012	0.000788346	   21.5925	0.000781095	   21.5925	   19.5274	
   21.5274	0.000796802	   21.5172	0.000761436	   21.5388	0.000790241	   21.5278	0.000782826	   21.5278	   19.5707	
     21.46	0.00079836	   21.4512	0.000763077	   21.4763	0.000792221	   21.4625	0.000784553	   21.4625	   19.6138	
    21.391	0.000799858	    21.384	0.000764626	   21.4093	0.00079422	   21.3948	0.000786234	   21.3948	   19.6559	
   21.3213	0.000801376	   21.3162	0.000765957	   21.3421	0.000796124	   21.3266	0.000787819	   21.3266	   19.6955	
   21.2506	0.000802962	   21.2474	0.000767097	   21.2701	0.000797888	    21.256	0.000789316	    21.256	   19.7329	
   21.1793	0.000804641	   21.1781	0.000768162	   21.1977	0.000799502	    21.185	0.000790768	    21.185	   19.7692	
   21.1079	0.000806317	   21.1082	0.000769275	   21.1247	0.000801068	   21.1136	0.00079222	   21.1136	   19.8055	
   21.0356	0.000807903	   21.0376	0.000770537	    21.052	0.000802688	   21.0417	0.000793709	   21.0417	   19.8427	
   20.9631	0.000809304	   20.9659	0.000771929	   20.9786	0.000804386	   20.9692	0.000795206	   20.9692	   19.8802	
   20.8897	0.000810532	    20.893	0.000773355	   20.9051	0.000806132	   20.8959	0.000796673	   20.8959	   19.9168	
   20.8158	0.000811685	   20.8181	0.000774693	   20.8315	0.000807804	   20.8218	0.00079806	   20.8218	   19.9515	
   20.7412	0.000812876	   20.7422	0.000775853	   20.7566	0.000809337	   20.7467	0.000799355	   20.7467	   19.9839	
    20.666	0.000814218	   20.6656	0.000776851	   20.6805	0.000810722	   20.6707	0.000800597	   20.6707	   20.0149	
   20.5904	0.000815686	   20.5886	0.000777784	   20.6039	0.000812017	   20.5943	0.000801829	   20.5943	   20.0457	
   20.5141	0.000817193	   20.5108	0.000778761	   20.5258	0.00081332	   20.5169	0.000803092	   20.5169	   20.0773	
   20.4375	0.000818608	   20.4323	0.000779858	    20.447	0.000814717	   20.4389	0.000804394	   20.4389	   20.1099	
   20.3601	0.000819837	   20.3536	0.000781067	   20.3674	0.000816192	   20.3604	0.000805699	   20.3604	   20.1425	
   20.2821	0.000820864	   20.2741	0.000782307	   20.2877	0.000817721	   20.2813	0.000806964	   20.2813	   20.1741	
   20.2029	0.000821811	   20.1938	0.000783476	   20.2073	0.000819193	   20.2013	0.00080816	   20.2013	    20.204	
    20.123	0.000822812	    20.113	0.000784554	    20.127	0.000820537	    20.121	0.000809301	    20.121	   20.2325	
   20.0421	0.000823967	   20.0313	0.000785498	   20.0461	0.000821739	   20.0399	0.000810401	   20.0399	     20.26	
   19.9606	0.000825289	   19.9491	0.000786364	   19.9643	0.000822835	    19.958	0.000811496	    19.958	   20.2874	
   19.8787	0.000826673	   19.8654	0.000787189	   19.8814	0.000823898	   19.8752	0.000812587	   19.8752	   20.3147	
   19.7958	0.00082797	   19.7811	0.000788037	    19.798	0.000824976	   19.7917	0.000813661	   19.7917	   20.3415	
   19.7116	0.000829056	   19.6969	0.000788945	   19.7138	0.000826087	   19.7074	0.000814696	   19.7074	   20.3674	
    19.626	0.000829913	   19.6119	0.000789888	   19.6287	0.000827224	   19.6222	0.000815675	   19.6222	   20.3919	
   19.5392	0.000830639	   19.5255	0.000790861	   19.5422	0.000828333	   19.5356	0.000816611	   19.5356	   20.4153	
    19.452	0.000831394	   19.4383	0.000791796	   19.4549	0.000829379	   19.4484	0.000817523	   19.4484	   20.4381	
   19.3639	0.000832305	     19.35	0.000792665	   19.3669	0.000830377	   19.3603	0.000818449	   19.3603	   20.4612	
    19.275	 0.0008334	   19.2609	0.000793464	   19.2785	0.000831251	   19.2714	0.000819372	   19.2714	   20.4843	
   19.1851	0.000834588	    19.171	0.000794213	   19.1896	0.000832074	   19.1819	0.000820292	   19.1819	   20.5073	
   19.0947	0.000835725	   19.0801	0.000794957	   19.1002	0.000832867	   19.0917	0.000821183	   19.0917	   20.5296	
   19.0032	0.000836672	   18.9885	0.000795713	   19.0092	0.000833677	   19.0003	0.000822021	   19.0003	   20.5505	
   18.9109	0.000837395	   18.8959	0.000796482	    18.917	0.000834523	   18.9079	 0.0008228	   18.9079	     20.57	
   18.8174	0.000837965	   18.8025	0.000797243	   18.8239	0.000835419	   18.8146	0.000823542	   18.8146	   20.5886	
   18.7234	0.00083852	   18.7083	0.000797965	    18.731	0.000836361	   18.7209	0.000824282	   18.7209	    20.607	
   18.6286	0.000839204	   18.6134	0.000798632	   18.6371	0.000837264	   18.6264	0.000825033	   18.6264	   20.6258	
   18.5329	0.000840052	   18.5177	0.000799252	    18.542	0.000838079	   18.5309	0.000825794	   18.5309	   20.6449	
   18.4364	0.000841016	    18.421	0.000799849	   18.4456	0.000838738	   18.4343	0.000826534	   18.4343	   20.6634	
   18.3393	0.000841957	   18.3236	0.000800449	   18.3482	0.000839269	    18.337	0.000827225	    18.337	   20.6806	
   18.2418	0.000842742	   18.2258	0.000801061	   18.2504	0.000839731	   18.2393	0.000827845	   18.2393	   20.6961	
   18.1438	0.000843337	   18.1274	0.000801673	   18.1517	0.000840203	    18.141	0.000828404	    18.141	   20.7101	
    18.045	0.000843794	   18.0281	0.000802265	    18.052	0.000840763	   18.0417	0.000828941	   18.0417	   20.7235	
    17.945	0.000844248	   17.9282	0.000802812	   17.9524	0.000841404	   17.9419	0.000829488	   17.9419	   20.7372	
   17.8434	0.000844803	   17.8271	0.000803308	   17.8514	0.000842077	   17.8406	0.000830063	   17.8406	   20.7516	
   17.7414	0.000845486	   17.7254	0.000803763	   17.7492	0.000842703	   17.7386	0.000830651	   17.7386	   20.7663	
   17.6379	0.000846252	    17.623	0.000804192	   17.6467	0.000843222	   17.6359	0.000831222	   17.6359	   20.7805	
   17.5341	0.000846983	   17.5202	0.00080462	   17.5441	0.000843623	   17.5328	0.000831742	   17.5328	   20.7936	
   17.4301	0.000847589	    17.417	0.000805055	   17.4409	0.000843931	   17.4293	0.000832192	   17.4293	   20.8048	
   17.3254	0.000848064	   17.3132	0.00080549	   17.3373	0.000844223	   17.3253	0.000832593	   17.3253	   20.8148	
   17.2193	0.000848451	   17.2084	0.000805908	   17.2326	0.000844565	   17.2201	0.000832975	   17.2201	   20.8244	
   17.1129	0.000848807	   17.1037	0.000806286	   17.1274	0.000844981	   17.1147	0.000833358	   17.1147	    20.834	
   17.0058	0.000849205	   16.9978	0.00080662	   17.0221	0.000845446	   17.0086	0.000833757	   17.0086	   20.8439	
   16.8982	0.00084964	   16.8915	0.000806919	   16.9159	0.000845895	   16.9019	0.000834151	   16.9019	   20.8538	
   16.7896	0.000850094	   16.7844	0.000807202	   16.8089	0.000846273	   16.7943	0.000834523	   16.7943	   20.8631	
     16.68	0.000850528	    16.676	0.000807481	   16.7011	0.000846562	   16.6857	0.000834857	   16.6857	   20.8714	
   16.5704	0.000850903	   16.5674	0.000807795	    16.592	0.000846791	   16.5766	0.000835163	   16.5766	   20.8791	
   16.4603	0.000851227	   16.4583	0.000808117	   16.4818	0.000847014	   16.4668	0.000835452	   16.4668	   20.8863	
   16.3499	0.000851513	    16.348	0.000808417	   16.3704	0.000847252	   16.3561	0.000835727	   16.3561	   20.8932	
    16.239	0.000851788	   16.2366	0.000808655	   16.2588	0.000847531	   16.2448	0.000835991	   16.2448	   20.8998	
   16.1276	0.000852072	   16.1247	0.000808796	    16.146	0.000847821	   16.1328	0.00083623	   16.1328	   20.9057	
   16.0161	0.000852348	   16.0119	0.000808862	   16.0324	0.000848088	   16.0201	0.000836433	   16.0201	   20.9108	
   15.9039	0.000852608	   15.8981	0.000808903	   15.9179	0.000848299	   15.9066	0.000836603	   15.9066	   20.9151	
   15.7913	0.000852829	   15.7832	0.000808987	   15.8029	0.000848435	   15.7925	0.00083675	   15.7925	   20.9188	
   15.6787	0.000853007	   15.6679	0.00080915	   15.6866	0.000848541	   15.6777	 0.0008369	   15.6777	   20.9225	
    15.566	0.000853154	   15.5525	0.000809372	   15.5697	0.000848644	   15.5627	0.000837057	   15.5627	   20.9264	
    15.452	0.000853281	   15.4364	0.000809586	   15.4525	0.000848779	    15.447	0.000837216	    15.447	   20.9304	
   15.3373	0.000853406	   15.3199	0.00080972	   15.3357	0.000848946	    15.331	0.000837358	    15.331	   20.9339	
   15.2218	0.000853532	   15.2028	0.000809728	   15.2195	0.000849109	   15.2147	0.000837456	   15.2147	   20.9364	
   15.1058	0.000853652	   15.0849	0.000809647	   15.1026	0.000849237	   15.0977	0.000837512	   15.0977	   20.9378	
   14.9888	0.000853756	   14.9663	0.000809541	   14.9847	 0.0008493	   14.9799	0.000837532	   14.9799	   20.9383	
   14.8706	0.000853827	   14.8467	0.000809486	   14.8659	0.000849307	   14.8611	0.00083754	   14.8611	   20.9385	
    14.752	0.000853856	   14.7266	0.000809512	   14.7465	0.000849285	   14.7417	0.000837551	   14.7417	   20.9388	
   14.6328	0.000853852	   14.6063	0.000809573	   14.6265	0.000849269	   14.6218	0.000837565	   14.6218	   20.9391	
   14.5125	0.000853828	   14.4852	0.000809605	   14.5057	0.000849283	   14.5011	0.000837572	   14.5011	   20.9393	
   14.3913	0.000853805	   14.3644	0.000809543	   14.3846	0.000849291	   14.3801	0.000837547	   14.3801	   20.9387	
   14.2691	0.000853791	   14.2428	0.00080937	   14.2633	0.000849291	   14.2584	0.000837484	   14.2584	   20.9371	
   14.1464	0.000853783	   14.1208	0.000809145	   14.1414	0.000849286	   14.1362	0.000837405	   14.1362	   20.9351	
    14.023	0.000853763	    13.998	0.000808923	   14.0187	0.00084929	   14.0133	0.000837325	   14.0133	   20.9331	
   13.8991	0.000853711	   13.8749	0.000808763	   13.8956	 0.0008493	   13.8898	0.000837258	   13.8898	   20.9314	
   13.7748	0.000853613	   13.7509	0.000808666	   13.7715	0.000849297	   13.7657	0.000837192	   13.7657	   20.9298	
     13.65	0.00085347	   13.6265	0.000808586	   13.6473	0.000849257	   13.6413	0.000837104	   13.6413	   20.9276	
   13.5247	0.000853298	   13.5016	0.000808476	   13.5232	0.000849148	   13.5165	0.000836974	   13.5165	   20.9243	
   13.3982	0.000853119	   13.3766	0.00080826	   13.3981	0.000848972	    13.391	0.000836783	    13.391	   20.9196	
   13.2716	0.000852949	   13.2514	0.000807934	    13.272	0.00084875	    13.265	0.000836544	    13.265	   20.9136	
   13.1446	0.000852781	   13.1257	0.000807539	   13.1454	0.000848519	   13.1386	0.00083628	   13.1386	    20.907	
    13.017	 0.0008526	   12.9991	0.000807143	   13.0186	0.000848316	   13.0115	0.00083602	   13.0115	   20.9005	
   12.8882	0.000852383	   12.8722	0.000806814	   12.8912	0.00084815	   12.8838	0.000835782	   12.8838	   20.8946	
   12.7584	0.000852114	    12.745	0.000806556	   12.7638	0.000847993	   12.7557	0.000835554	   12.7557	   20.8889	
   12.6276	0.000851796	   12.6177	0.000806321	    12.636	0.000847805	   12.6271	0.000835307	   12.6271	   20.8827	
   12.4958	0.000851438	   12.4893	0.000806034	   12.5078	0.000847556	   12.4976	0.000835009	   12.4976	   20.8752	
   12.3636	0.000851064	     12.36	0.000805633	   12.3786	0.000847237	   12.3674	0.000834645	   12.3674	   20.8661	
    12.231	0.000850692	   12.2289	0.000805119	   12.2489	0.00084688	   12.2363	0.00083423	   12.2363	   20.8557	
   12.0986	0.000850321	   12.0985	0.000804534	   12.1188	0.00084651	   12.1053	0.000833789	   12.1053	   20.8447	
    11.966	0.00084994	   11.9675	0.000803955	    11.988	0.000846144	   11.9738	0.000833346	   11.9738	   20.8337	
   11.8325	0.000849518	   11.8359	0.000803438	    11.857	0.000845791	   11.8418	0.000832916	   11.8418	   20.8229	
   11.6984	0.000849038	   11.7039	0.000802975	   11.7253	0.000845431	   11.7092	0.000832481	   11.7092	    20.812	
   11.5639	0.000848495	   11.5716	0.00080252	   11.5931	0.000845046	   11.5762	0.00083202	   11.5762	   20.8005	
   11.4291	0.00084791	    11.438	0.000802002	   11.4601	0.000844612	   11.4424	0.000831508	   11.4424	   20.7877	
   11.2939	0.000847311	   11.3047	0.000801383	    11.326	0.000844121	   11.3082	0.000830938	   11.3082	   20.7735	
   11.1589	0.000846721	   11.1713	0.000800682	   11.1905	0.000843587	   11.1736	0.00083033	   11.1736	   20.7582	
   11.0236	0.000846136	   11.0377	0.000799931	   11.0549	0.000843026	   11.0387	0.000829698	   11.0387	   20.7424	
   10.8879	0.00084554	    10.903	0.000799175	   10.9187	0.000842462	   10.9032	0.000829059	   10.9032	   20.7265	
   10.7515	0.000844906	    10.768	0.000798432	   10.7826	 0.0008419	   10.7674	0.000828413	   10.7674	   20.7103	
   10.6148	0.000844214	   10.6324	0.000797696	    10.646	0.000841327	    10.631	0.000827745	    10.631	   20.6936	
   10.4778	0.000843462	   10.4964	0.000796943	   10.5091	0.000840723	   10.4944	0.000827042	   10.4944	   20.6761	
    10.341	0.000842667	   10.3596	0.00079613	   10.3724	0.000840072	   10.3576	0.00082629	   10.3576	   20.6572	
   10.2037	0.000841851	   10.2224	0.000795252	   10.2346	0.000839374	   10.2202	0.000825492	   10.2202	   20.6373	
   10.0665	0.000841031	   10.0847	0.000794317	   10.0967	0.000838639	   10.0827	0.000824662	   10.0827	   20.6166	
   9.92911	0.000840217	   9.94682	0.000793372	    9.9584	0.000837882	   9.94478	0.000823824	   9.94478	   20.5956	
   9.79111	0.000839403	   9.80815	0.000792444	   9.81931	0.000837114	   9.80619	0.000822987	   9.80619	   20.5747	
   9.65238	0.000838559	   9.66927	0.000791559	   9.68001	0.000836327	   9.66722	0.000822148	   9.66722	   20.5537	
   9.51332	0.000837647	   9.52984	0.000790685	   9.54061	0.000835515	   9.52792	0.000821283	   9.52792	   20.5321	
   9.37388	0.000836649	   9.38984	0.000789776	   9.40175	0.000834669	   9.38849	0.000820365	   9.38849	   20.5091	
   9.23433	0.000835576	   9.24886	0.000788794	   9.26248	0.000833793	   9.24856	0.000819388	   9.24856	   20.4847	
   9.09415	0.000834473	   9.10784	0.000787718	   9.12333	0.000832887	   9.10844	0.000818359	   9.10844	    20.459	
   8.95322	0.00083336	   8.96634	0.000786563	   8.98351	0.000831956	   8.96769	0.000817293	   8.96769	   20.4323	
   8.81183	0.000832282	    8.8245	0.000785385	   8.84288	0.000831007	    8.8264	0.000816225	    8.8264	   20.4056	
   8.66945	0.000831215	   8.68252	0.000784254	   8.70195	0.000830041	   8.68464	0.00081517	   8.68464	   20.3792	
   8.52668	0.000830135	   8.54023	0.000783204	   8.56058	0.000829055	   8.54249	0.000814131	   8.54249	   20.3533	
   8.38457	0.000828983	   8.39793	0.000782198	    8.4182	0.000828038	   8.40023	0.000813073	   8.40023	   20.3268	
   8.24246	0.000827747	   8.25541	0.00078117	   8.27585	0.000826979	    8.2579	0.000811966	    8.2579	   20.2991	
   8.09976	0.00082644	   8.11214	0.000780054	   8.13335	0.000825884	   8.11508	0.000810793	   8.11508	   20.2698	
   7.95637	0.000825108	   7.96868	0.000778819	   7.99055	0.000824758	   7.97187	0.000809562	   7.97187	    20.239	
   7.81278	0.000823785	    7.8244	0.000777492	   7.84722	0.000823604	   7.82813	0.000808294	   7.82813	   20.2073	
   7.66909	0.00082248	   7.68014	0.000776111	    7.7035	0.000822398	   7.68425	0.000806996	   7.68425	   20.1749	
   7.52464	0.000821178	   7.53532	0.000774746	   7.55944	0.000821159	    7.5398	0.000805694	    7.5398	   20.1424	
   7.38002	0.000819825	   7.39049	0.000773417	   7.41557	0.000819915	   7.39536	0.000804386	   7.39536	   20.1096	
    7.2361	0.000818402	   7.24617	0.000772127	   7.27078	0.000818702	   7.25102	0.000803077	   7.25102	   20.0769	
   7.09221	0.000816904	   7.10115	0.000770835	   7.12554	0.00081751	    7.1063	0.00080175	    7.1063	   20.0437	
   6.94796	0.000815357	   6.95601	0.000769496	    6.9791	0.000816309	   6.96102	0.000800387	   6.96102	   20.0097	
   6.80356	0.000813795	   6.81093	0.000768077	    6.8314	0.000815069	    6.8153	0.00079898	    6.8153	   19.9745	
   6.65937	0.000812234	   6.66507	0.000766585	   6.68309	0.00081374	   6.66918	0.00079752	   6.66918	    19.938	
   6.51504	0.000810701	   6.51875	0.000765051	   6.53448	0.000812322	   6.52276	0.000796025	   6.52276	   19.9006	
   6.37008	0.000809165	   6.37281	0.000763493	   6.38539	0.000810807	   6.37609	0.000794488	   6.37609	   19.8622	
    6.2244	0.000807587	   6.22672	0.000761925	   6.23672	0.000809241	   6.22928	0.000792918	   6.22928	   19.8229	
   6.07857	0.000805943	   6.08035	0.000760355	   6.08755	0.00080763	   6.08215	0.000791309	   6.08215	   19.7827	
   5.93257	0.000804218	   5.93367	0.00075877	   5.93887	0.000806026	   5.93504	0.000789671	   5.93504	   19.7418	
   5.78614	0.000802458	   5.78646	0.000757151	   5.79016	0.000804434	   5.78759	0.000788014	   5.78759	   19.7004	
   5.63883	0.000800695	   5.63927	0.000755478	   5.64162	0.000802832	   5.63991	0.000786335	   5.63991	   19.6584	
   5.49064	0.000798952	   5.49189	0.000753747	   5.49342	0.000801181	   5.49198	0.000784627	   5.49198	   19.6157	
   5.34262	0.000797246	   5.34413	0.000751995	   5.34381	0.000799436	   5.34352	0.000782892	   5.34352	   19.5723	
   5.19443	0.00079546	   5.19602	0.000750234	   5.19402	0.000797606	   5.19482	 0.0007811	   5.19482	   19.5275	
   5.04594	0.00079361	   5.04776	0.000748486	   5.04322	0.000795692	   5.04564	0.000779263	   5.04564	   19.4816	
   4.89668	 0.0007916	   4.89939	0.000746731	   4.89343	0.000793735	    4.8965	0.000777355	    4.8965	   19.4339	
   4.74699	0.000789534	   4.75033	0.000744933	   4.74338	0.000791781	    4.7469	0.000775416	    4.7469	   19.3854	
   4.59704	0.000787455	   4.60111	0.000743061	   4.59331	0.000789851	   4.59715	0.000773456	   4.59715	   19.3364	
   4.44636	0.00078542	   4.45194	0.000741112	   4.44272	0.00078794	   4.44701	0.000771491	   4.44701	   19.2873	
   4.29514	0.000783437	   4.30319	0.000739103	   4.29273	0.000786005	   4.29702	0.000769515	   4.29702	   19.2379	
   4.14355	0.000781362	   4.15452	0.000737068	   4.14212	0.000783993	   4.14673	0.000767474	   4.14673	   19.1869	
   3.99164	0.00077911	   4.00576	0.000734997	   3.99028	0.000781885	   3.99589	0.000765331	   3.99589	   19.1333	
   3.84034	0.00077663	   3.85678	0.000732923	    3.8389	0.000779689	   3.84534	0.000763081	   3.84534	    19.077	
   3.68903	0.000773998	   3.70737	0.000730804	   3.68737	0.000777449	   3.69459	0.00076075	   3.69459	   19.0188	
   3.53756	0.000771351	   3.55825	0.000728638	   3.53584	0.000775207	   3.54388	0.000758399	   3.54388	     18.96	
   3.38557	0.000768797	   3.40851	0.000726448	   3.38365	0.000772969	   3.39258	0.000756071	   3.39258	   18.9018	
   3.23366	0.000766392	   3.25875	0.000724253	   3.23175	0.000770719	   3.24139	0.000753788	   3.24139	   18.8447	
   3.08187	0.000764064	   3.10867	0.000722071	   3.08025	0.000768439	   3.09026	0.000751525	   3.09026	   18.7881	
   2.93045	0.000761687	   2.95882	0.000719853	   2.92895	0.000766127	    2.9394	0.000749223	    2.9394	   18.7306	
   2.77797	0.00075913	   2.80888	0.000717566	   2.77747	0.000763785	    2.7881	0.000746827	    2.7881	   18.6707	
   2.62611	0.00075634	   2.65872	0.000715187	   2.62602	0.000761411	   2.63695	0.000744313	   2.63695	   18.6078	
   2.47399	0.000753382	    2.5083	0.000712712	   2.47414	0.000758988	   2.48548	0.000741694	   2.48548	   18.5423	
   2.32163	0.000750386	   2.35748	0.00071019	   2.32183	0.000756511	   2.33365	0.000739029	   2.33365	   18.4757	
   2.16879	0.000747486	   2.20644	0.000707662	   2.16958	0.000753956	    2.1816	0.000736368	    2.1816	   18.4092	
   2.01606	0.000744733	    2.0554	0.000705146	   2.01725	0.000751339	   2.02957	0.000733739	   2.02957	   18.3435	
   1.86281	0.000742065	   1.90465	0.000702681	   1.86547	0.000748642	   1.87764	0.000731129	   1.87764	   18.2782	
   1.70934	0.000739352	   1.75372	0.000700192	   1.71404	0.000745959	    1.7257	0.000728501	    1.7257	   18.2125	
   1.55497	0.000736471	   1.60271	0.000697682	   1.56274	0.000743247	   1.57347	 0.0007258	   1.57347	    18.145	
   1.40136	0.000733373	   1.45184	0.000695081	   1.41108	0.000740556	   1.42143	0.000723003	   1.42143	   18.0751	
   1.24738	0.00073012	   1.30129	0.000692352	    1.2587	0.000737865	   1.26912	0.000720112	   1.26912	   18.0028	
   1.09377	0.000726831	   1.15101	0.000689537	   1.10664	0.000735132	   1.11714	0.000717166	   1.11714	   17.9292	
  0.939447	0.000723632	   1.00005	0.000686666	   0.95456	0.000732337	  0.964686	0.000714212	  0.964686	   17.8553	
  0.785034	0.00072057	  0.849011	0.000683829	   0.80268	0.000729411	  0.812242	0.00071127	  0.812242	   17.7817	
  0.630412	0.000717592	  0.697932	0.000681064	  0.651018	0.000726372	  0.659788	0.000708343	  0.659788	   17.7086	
  0.476159	0.000714579	  0.546507	0.000678346	  0.499534	0.000723234	    0.5074	0.000705386	    0.5074	   17.6347	
  0.322124	0.000711423	  0.394637	0.000675614	  0.347452	0.000720085	  0.354737	0.000702374	  0.354737	   17.5593	
   0.16816	0.000708069	  0.242562	0.00067277	  0.195718	0.000716982	  0.202147	0.000699274	  0.202147	   17.4818	
 0.0136249	0.000704573	 0.0905977	0.000669768	 0.0438217	0.000713945	 0.0493481	0.000696095	 0.0493481	   17.4024	
 -0.140875	0.000701039	-0.0619969	0.000666623	 -0.107674	0.000710938	 -0.103515	0.000692867	 -0.103515	   17.3217	
 -0.295296	0.000697586	 -0.214789	 0.0006634	 -0.259615	0.000707879	 -0.256567	0.000689622	 -0.256567	   17.2405	
 -0.449431	0.000694256	 -0.366866	0.000660198	 -0.411078	0.000704701	 -0.409125	0.000686385	 -0.409125	   17.1596	
 -0.602748	0.000690998	 -0.519616	0.000657066	 -0.561807	0.000701358	  -0.56139	0.000683141	  -0.56139	   17.0785	
 -0.755896	0.000687703	 -0.672429	0.000653985	 -0.712886	0.000697908	 -0.713737	0.000679865	 -0.713737	   16.9966	
 -0.909247	0.000684274	  -0.82526	0.000650883	 -0.864309	0.000694445	 -0.866272	0.000676534	 -0.866272	   16.9134	
  -1.06189	0.000680682	 -0.978576	0.000647672	  -1.01584	0.000691052	  -1.01877	0.000673135	  -1.01877	   16.8284	
  -1.21418	0.000676989	  -1.13153	0.000644313	  -1.16743	0.00068774	  -1.17105	0.000669681	  -1.17105	    16.742	
  -1.36617	0.000673293	  -1.28488	0.000640841	   -1.3191	0.000684445	  -1.32339	0.000666193	  -1.32339	   16.6548	
   -1.5183	0.000669676	  -1.43804	0.000637327	  -1.47126	0.000681079	  -1.47587	0.000662694	  -1.47587	   16.5673	
  -1.67001	0.000666153	  -1.59149	0.000633847	  -1.62263	0.000677571	  -1.62805	0.00065919	  -1.62805	   16.4798	
  -1.82181	0.000662649	  -1.74406	0.00063042	  -1.77445	0.000673918	  -1.78011	0.000655662	  -1.78011	   16.3916	
  -1.97286	0.000659086	  -1.89712	  0.000627	  -1.92584	0.000670181	  -1.93194	0.000652089	  -1.93194	   16.3022	
  -2.12399	0.000655402	  -2.05018	0.000623531	  -2.07725	0.000666442	  -2.08381	0.000648458	  -2.08381	   16.2115	
   -2.2743	0.00065163	  -2.20337	0.000619941	  -2.22848	0.000662763	  -2.23538	0.000644778	  -2.23538	   16.1194	
  -2.42391	0.000647764	  -2.35648	0.000616229	  -2.37925	0.000659143	  -2.38655	0.000641046	  -2.38655	   16.0261	
  -2.57333	0.000643768	  -2.50952	0.000612419	  -2.53005	0.000655521	  -2.53763	0.000637236	  -2.53763	   15.9309	
  -2.72285	0.000639691	  -2.66273	0.000608579	  -2.68113	0.000651813	  -2.68891	0.000633361	  -2.68891	    15.834	
  -2.87157	0.000635586	  -2.81557	0.000604767	  -2.83158	0.000647967	  -2.83957	0.00062944	  -2.83957	    15.736	
   -3.0197	0.000631492	  -2.96868	0.000600993	  -2.98159	0.000643993	  -2.98999	0.000625493	  -2.98999	   15.6373	
  -3.16506	0.000627448	  -3.12123	0.000597233	  -3.13151	0.000639959	  -3.13927	0.000621547	  -3.13927	   15.5387	
  -3.31178	0.000623455	  -3.27349	0.00059342	  -3.28167	0.000635931	  -3.28898	0.000617602	  -3.28898	   15.4401	
  -3.45718	0.000619473	  -3.42562	0.000589503	  -3.43114	0.000631959	  -3.43798	0.000613645	  -3.43798	   15.3411	
  -3.60782	0.000615428	  -3.57675	0.000585469	  -3.58022	0.000628025	  -3.58827	0.000609641	  -3.58827	    15.241	
  -3.75705	0.000611267	  -3.72784	0.000581344	   -3.7294	0.000624071	   -3.7381	0.000605561	   -3.7381	    15.139	
  -3.90926	0.000606998	  -3.87863	0.000577194	  -3.87842	0.000620027	  -3.88877	0.000601406	  -3.88877	   15.0352	
  -4.06026	0.000602643	  -4.02928	0.000573069	   -4.0271	0.000615855	  -4.03888	0.000597189	  -4.03888	   14.9297	
  -4.21215	0.000598282	  -4.17942	0.00056898	  -4.17542	0.000611564	    -4.189	0.000592942	    -4.189	   14.8235	
  -4.36231	0.000593948	  -4.32885	0.000564898	  -4.32347	0.00060721	  -4.33821	0.000588685	  -4.33821	   14.7171	
  -4.51252	0.000589644	  -4.47833	0.000560763	  -4.47168	0.000602868	  -4.48751	0.000584425	  -4.48751	   14.6106	
  -4.66188	0.000585342	  -4.62731	0.000556523	  -4.61986	0.000598569	  -4.63635	0.000580145	  -4.63635	   14.5036	
  -4.80925	0.000580981	  -4.77565	0.000552167	  -4.76747	0.000594303	  -4.78412	0.000575817	  -4.78412	   14.3954	
  -4.95665	0.000576551	  -4.92389	0.000547724	  -4.91437	0.00059001	  -4.93163	0.000571429	  -4.93163	   14.2857	
  -5.10388	0.000572039	  -5.07218	0.000543254	   -5.0611	0.000585624	  -5.07905	0.000566972	  -5.07905	   14.1743	
  -5.25145	0.000567467	  -5.21963	0.000538801	   -5.2075	0.000581122	  -5.22619	0.000562464	  -5.22619	   14.0616	
  -5.39846	0.000562871	  -5.36682	0.000534382	   -5.3534	0.000576536	  -5.37289	0.00055793	  -5.37289	   13.9482	
  -5.54579	0.000558268	  -5.51391	0.00052997	  -5.49901	0.000571916	  -5.51957	0.000553385	  -5.51957	   13.8346	
  -5.69356	0.000553668	  -5.66141	0.000525518	   -5.6445	0.000567297	  -5.66649	0.000548828	  -5.66649	   13.7207	
  -5.84017	0.000549049	  -5.80874	0.000520976	  -5.78969	0.000562679	  -5.81287	0.000544235	  -5.81287	   13.6059	
  -5.98521	0.000544389	   -5.9554	0.000516325	   -5.9358	0.000558045	   -5.9588	0.000539586	   -5.9588	   13.4897	
  -6.13065	0.000539666	  -6.10226	0.000511594	  -6.08086	0.000553367	  -6.10459	0.000534876	  -6.10459	   13.3719	
  -6.27595	0.000534871	  -6.24913	0.000506826	   -6.2268	0.000548599	  -6.25063	0.000530099	  -6.25063	   13.2525	
  -6.42093	0.000530028	  -6.39615	0.000502068	  -6.37237	0.000543756	  -6.39648	0.000525284	  -6.39648	   13.1321	
  -6.56578	0.000525157	  -6.54278	0.000497337	  -6.51807	0.00053886	  -6.54221	0.000520451	  -6.54221	   13.0113	
  -6.71066	0.000520278	  -6.68886	0.000492612	  -6.66304	0.000533957	  -6.68752	0.000515616	  -6.68752	   12.8904	
  -6.85505	0.00051539	  -6.83528	0.000487849	  -6.80783	0.000529062	  -6.83272	0.000510767	  -6.83272	   12.7692	
  -6.99916	0.000510469	  -6.98147	0.000483005	  -6.95194	0.000524175	  -6.97752	0.000505883	  -6.97752	   12.6471	
  -7.14315	0.000505498	  -7.12761	0.000478068	  -7.09593	0.000519264	  -7.12223	0.000500943	  -7.12223	   12.5236	
  -7.28688	0.000500406	  -7.27318	0.000473061	  -7.23962	0.000514273	  -7.26656	0.000495913	  -7.26656	   12.3978	
  -7.42984	0.00049524	  -7.41872	0.000468032	  -7.38355	0.000509187	   -7.4107	0.00049082	   -7.4107	   12.2705	
   -7.5726	0.000490052	  -7.56371	0.000463018	  -7.52683	0.000504023	  -7.55438	0.000485698	  -7.55438	   12.1424	
  -7.71467	0.000484828	  -7.70835	0.000458031	  -7.66968	0.000498816	  -7.69757	0.000480558	  -7.69757	    12.014	
  -7.85626	0.000479676	   -7.8525	0.000453046	  -7.81232	0.000493615	  -7.84036	0.000475446	  -7.84036	   11.8861	
   -7.9976	0.000474575	  -7.99669	0.000448022	  -7.95491	0.000488434	  -7.98307	0.000470344	  -7.98307	   11.7586	
  -8.13887	0.000469576	  -8.14007	0.000442928	  -8.09696	0.000483264	   -8.1253	0.000465256	   -8.1253	   11.6314	
  -8.27923	0.000464583	  -8.28286	0.000437756	  -8.23901	0.000478061	  -8.26703	0.000460133	  -8.26703	   11.5033	
  -8.41995	0.000459484	  -8.42528	0.000432531	  -8.38055	0.000472784	  -8.40859	0.000454933	  -8.40859	   11.3733	
   -8.5605	0.000454219	  -8.56753	0.000427283	  -8.52283	0.000467422	  -8.55029	0.000449642	  -8.55029	    11.241	
  -8.70072	0.000448727	  -8.70843	0.000422045	  -8.66423	0.000461986	  -8.69113	0.000444253	  -8.69113	   11.1063	
  -8.84013	0.000443125	   -8.8486	0.000416825	  -8.80501	0.000456523	  -8.83125	0.000438824	  -8.83125	   10.9706	
  -8.97932	0.000437518	  -8.98863	0.000411602	  -8.94506	0.000451077	    -8.971	0.000433399	    -8.971	    10.835	
  -9.11884	0.000432016	  -9.12905	0.000406344	  -9.08494	0.000445658	  -9.11094	0.000428006	  -9.11094	   10.7002	
  -9.25746	0.000426655	  -9.26896	0.000401017	  -9.22451	0.000440251	  -9.25031	0.000422641	  -9.25031	    10.566	
  -9.39545	0.000421352	   -9.4086	0.000395566	  -9.36398	0.000434813	  -9.38934	0.000417243	  -9.38934	   10.4311	
  -9.53372	0.000416011	  -9.54782	0.000390047	  -9.50318	0.000429316	  -9.52824	0.000411792	  -9.52824	   10.2948	
  -9.67209	0.000410523	  -9.68752	0.000384514	  -9.64266	0.000423751	  -9.66743	0.000406263	  -9.66743	   10.1566	
   -9.8104	0.000404865	  -9.82681	0.000379053	  -9.78156	0.000418136	  -9.80626	0.000400685	  -9.80626	   10.0171	
  -9.94746	0.000399095	  -9.96557	0.00037367	  -9.92044	0.000412505	  -9.94449	0.00039509	  -9.94449	   9.87724	
  -10.0839	0.000393319	   -10.103	0.000368371	  -10.0588	0.000406887	  -10.0819	0.000389526	  -10.0819	   9.73814	
  -10.2203	0.000387621	  -10.2408	0.000363056	  -10.1972	0.00040129	  -10.2194	0.000383989	  -10.2194	   9.59973	
  -10.3566	0.000382021	  -10.3776	0.000357592	  -10.3355	0.000395723	  -10.3566	0.000378445	  -10.3566	   9.46113	
  -10.4925	0.000376468	  -10.5136	0.000351915	  -10.4736	0.000390126	  -10.4932	0.000372836	  -10.4932	    9.3209	
  -10.6283	0.000370878	  -10.6495	0.000346062	  -10.6112	0.000384501	  -10.6297	0.000367147	  -10.6297	   9.17867	
  -10.7643	0.000365178	  -10.7849	0.000340169	  -10.7493	0.000378783	  -10.7662	0.000361377	  -10.7662	   9.03442	
  -10.8998	0.000359344	  -10.9191	0.000334364	  -10.8871	0.000372968	   -10.902	0.000355559	   -10.902	   8.88897	
  -11.0352	0.000353426	  -11.0529	0.000328753	  -11.0244	0.000367131	  -11.0375	0.00034977	  -11.0375	   8.74425	
  -11.1699	0.000347499	  -11.1867	0.000323296	  -11.1607	0.000361248	  -11.1724	0.000344014	  -11.1724	   8.60036	
  -11.3043	0.000341636	  -11.3206	0.00031788	  -11.2966	 0.0003554	  -11.3072	0.000338305	  -11.3072	   8.45763	
  -11.4381	0.000335862	  -11.4542	0.000312356	  -11.4318	0.000349562	  -11.4413	0.000332593	  -11.4413	   8.31483	
  -11.5713	0.000330127	  -11.5872	0.000306634	  -11.5664	0.000343721	   -11.575	0.000326827	   -11.575	   8.17069	
  -11.7038	0.000324389	  -11.7194	0.000300746	     -11.7	0.00033786	  -11.7077	0.000320998	  -11.7077	   8.02496	
  -11.8363	0.00031854	   -11.852	0.000294797	  -11.8333	0.000331929	  -11.8405	0.000315089	  -11.8405	   7.87721	
  -11.9678	0.00031256	  -11.9841	0.000288908	   -11.966	0.000325976	  -11.9726	0.000309148	  -11.9726	    7.7287	
  -12.0991	0.000306466	  -12.1156	0.000283217	  -12.0986	0.000320003	  -12.1044	0.000303229	  -12.1044	   7.58072	
  -12.2303	0.000300304	  -12.2465	0.000277622	  -12.2298	0.000314033	  -12.2355	0.000297319	  -12.2355	   7.43298	
  -12.3617	0.000294156	  -12.3773	0.000272092	  -12.3603	0.000308073	  -12.3664	0.00029144	  -12.3664	     7.286	
  -12.4924	0.000288079	  -12.5077	0.000266422	  -12.4897	0.000302094	  -12.4966	0.000285532	  -12.4966	   7.13829	
  -12.6223	0.000282087	  -12.6371	0.000260463	  -12.6186	0.000296083	   -12.626	0.000279544	   -12.626	   6.98861	
  -12.7522	0.000276148	  -12.7659	0.000254299	  -12.7472	0.000290014	  -12.7551	0.000273487	  -12.7551	   6.83717	
  -12.8815	0.000270184	  -12.8936	0.000247976	  -12.8753	0.000283892	  -12.8834	0.000267351	  -12.8834	   6.68377	
  -13.0101	0.00026413	  -13.0189	0.000241842	  -13.0019	0.00027774	  -13.0103	0.000261237	  -13.0103	   6.53093	
   -13.138	0.000257962	  -13.1428	0.000236047	  -13.1282	0.000271579	  -13.1363	0.000255196	  -13.1363	    6.3799	
   -13.265	0.000251721	  -13.2668	 0.0002306	  -13.2536	0.000265432	  -13.2618	0.000249251	  -13.2618	   6.23128	
  -13.3923	0.000245488	  -13.3914	0.000225322	  -13.3796	0.000259298	  -13.3878	0.000243369	  -13.3878	   6.08423	
  -13.5186	0.000239309	  -13.5168	0.000219831	  -13.5052	0.000253168	  -13.5135	0.000237436	  -13.5135	    5.9359	
  -13.6443	0.000233187	  -13.6438	0.000213917	  -13.6304	0.000247028	  -13.6395	0.000231377	  -13.6395	   5.78443	
  -13.7692	0.000227071	  -13.7698	0.000207559	  -13.7545	0.000240854	  -13.7645	0.000225162	  -13.7645	   5.62904	
  -13.8934	0.000220928	  -13.8955	0.000200991	   -13.878	0.00023468	   -13.889	0.000218866	   -13.889	   5.47166	
  -14.0167	0.000214732	  -14.0193	0.000194577	  -14.0011	0.000228465	  -14.0124	0.000212591	  -14.0124	   5.31478	
  -14.1395	0.000208467	  -14.1424	0.000188551	  -14.1231	0.000222221	   -14.135	0.000206413	   -14.135	   5.16032	
  -14.2618	0.000202138	  -14.2641	0.000182933	  -14.2445	0.000215923	  -14.2568	0.000200331	  -14.2568	   5.00828	
  -14.3841	0.000195814	   -14.385	0.000177507	  -14.3656	0.000209582	  -14.3783	0.000194301	  -14.3783	   4.85752	
  -14.5058	0.00018952	  -14.5059	0.000171931	  -14.4863	0.000203237	  -14.4993	0.000188229	  -14.4993	   4.70573	
  -14.6259	0.000183291	  -14.6258	0.00016598	  -14.6059	0.000196913	  -14.6192	0.000182061	  -14.6192	   4.55154	
  -14.7457	0.000177106	  -14.7456	0.000159629	  -14.7253	0.000190659	  -14.7389	0.000175798	  -14.7389	   4.39494	
  -14.8654	0.00017095	   -14.864	0.000153079	  -14.8439	0.000184454	  -14.8577	0.000169494	  -14.8577	   4.23736	
  -14.9842	0.000164782	  -14.9815	0.000146644	  -14.9618	0.000178266	  -14.9759	0.000163231	  -14.9759	   4.08077	
  -15.1024	0.000158539	  -15.0988	0.00014054	  -15.0793	0.000172047	  -15.0935	0.000157042	  -15.0935	   3.92605	
  -15.2201	0.000152217	  -15.2147	0.000134797	  -15.1967	0.000165757	  -15.2105	0.000150924	  -15.2105	   3.77309	
  -15.3371	0.000145842	  -15.3304	0.000129225	  -15.3138	0.000159401	  -15.3271	0.000144822	  -15.3271	   3.62056	
  -15.4532	0.000139475	   -15.445	0.000123526	  -15.4305	0.000153009	  -15.4429	0.00013867	  -15.4429	   3.46675	
  -15.5679	0.000133178	  -15.5586	0.000117499	  -15.5464	0.000146632	  -15.5576	0.000132436	  -15.5576	    3.3109	
  -15.6827	0.000126945	  -15.6719	0.000111123	  -15.6611	0.000140303	  -15.6719	0.000126124	  -15.6719	   3.15309	
  -15.7968	0.000120741	  -15.7852	0.000104605	  -15.7757	0.000134018	  -15.7859	0.000119788	  -15.7859	    2.9947	
  -15.9095	0.000114505	   -15.898	9.82276e-05	  -15.8895	0.000127748	   -15.899	0.000113494	   -15.899	   2.83734	
  -16.0216	0.000108191	  -16.0101	9.21816e-05	   -16.002	0.000121469	  -16.0113	0.000107281	  -16.0113	   2.68201	
  -16.1327	0.00010182	  -16.1218	8.64612e-05	  -16.1141	0.000115165	  -16.1229	0.000101149	  -16.1229	   2.52872	
  -16.2428	9.54259e-05	  -16.2333	8.0857e-05	  -16.2264	0.000108828	  -16.2342	9.50371e-05	  -16.2342	   2.37593	
  -16.3524	8.90679e-05	  -16.3443	7.51076e-05	  -16.3377	0.000102467	  -16.3448	8.8881e-05	  -16.3448	   2.22202	
  -16.4609	8.27731e-05	  -16.4551	6.90356e-05	  -16.4485	9.60893e-05	  -16.4548	8.26327e-05	  -16.4548	   2.06582	
  -16.5689	7.65235e-05	  -16.5653	6.26754e-05	  -16.5587	8.97112e-05	  -16.5643	7.63034e-05	  -16.5643	   1.90758	
  -16.6759	7.02894e-05	  -16.6756	5.62261e-05	  -16.6684	8.33443e-05	  -16.6733	6.99533e-05	  -16.6733	   1.74883	
  -16.7821	6.40261e-05	  -16.7856	4.99272e-05	  -16.7767	7.69937e-05	  -16.7815	6.3649e-05	  -16.7815	   1.59123	
  -16.8874	5.77169e-05	  -16.8949	4.39349e-05	  -16.8846	7.06779e-05	   -16.889	5.74433e-05	   -16.889	   1.43608	
  -16.9926	5.1375e-05	  -17.0035	3.82153e-05	  -16.9919	6.43695e-05	   -16.996	5.13199e-05	   -16.996	     1.283	
  -17.0969	4.50283e-05	  -17.1118	3.25983e-05	   -17.099	5.8065e-05	  -17.1026	4.52305e-05	  -17.1026	   1.13076	
  -17.2004	3.87198e-05	  -17.2194	2.68425e-05	  -17.2045	5.17509e-05	  -17.2081	3.91044e-05	  -17.2081	   0.97761	
  -17.3032	3.24684e-05	  -17.3264	2.08077e-05	  -17.3095	4.54269e-05	   -17.313	3.2901e-05	   -17.313	  0.822525	
  -17.4052	2.62638e-05	  -17.4326	1.45276e-05	  -17.4141	3.91157e-05	  -17.4173	2.66357e-05	  -17.4173	  0.665892	
  -17.5072	2.00737e-05	  -17.5379	8.1611e-06	  -17.5179	3.28053e-05	   -17.521	2.03467e-05	   -17.521	  0.508668	
   -17.608	1.3856e-05	  -17.6418	1.93808e-06	  -17.6198	2.65063e-05	  -17.6232	1.41001e-05	  -17.6232	  0.352503	
  -17.7083	7.59432e-06	  -17.7449	-4.0135e-06	  -17.7212	2.02192e-05	  -17.7248	7.93333e-06	  -17.7248	  0.198333	
  -17.8086	1.29373e-06	  -17.8471	-9.71907e-06	  -17.8212	1.39407e-05	  -17.8256	1.83845e-06	  -17.8256	 0.0459613	
  -17.9085	-5.01002e-06	  -17.9489	-1.53445e-05	  -17.9204	7.68174e-06	  -17.9259	-4.22427e-06	  -17.9259	 -0.105607	
  -18.0075	-1.13021e-05	  -18.0496	-2.10982e-05	  -18.0184	1.43576e-06	  -18.0252	-1.03215e-05	  -18.0252	 -0.258037	
  -18.1056	-1.75336e-05	  -18.1492	-2.70959e-05	   -18.116	-4.79784e-06	  -18.1236	-1.64758e-05	  -18.1236	 -0.411894	
  -18.2028	-2.37431e-05	  -18.2479	-3.33003e-05	  -18.2129	-1.10254e-05	  -18.2212	-2.26896e-05	  -18.2212	 -0.567241	
  -18.2992	-2.9907e-05	  -18.3463	-3.95513e-05	  -18.3095	-1.73053e-05	  -18.3183	-2.89212e-05	  -18.3183	  -0.72303	
  -18.3952	-3.60404e-05	  -18.4438	-4.56521e-05	  -18.4055	-2.35944e-05	  -18.4148	-3.50957e-05	  -18.4148	 -0.877391	
  -18.4905	-4.2153e-05	  -18.5405	-5.14955e-05	  -18.5012	-2.98615e-05	  -18.5108	-4.117e-05	  -18.5108	  -1.02925	
  -18.5855	-4.82427e-05	  -18.6374	-5.71231e-05	  -18.5964	-3.60457e-05	  -18.6064	-4.71372e-05	  -18.6064	  -1.17843	
  -18.6799	-5.43651e-05	  -18.7339	-6.26917e-05	   -18.691	-4.2145e-05	  -18.7016	-5.30673e-05	  -18.7016	  -1.32668	
  -18.7737	-6.05256e-05	  -18.8292	-6.83829e-05	  -18.7848	-4.82086e-05	  -18.7959	-5.9039e-05	  -18.7959	  -1.47598	
  -18.8673	-6.67532e-05	  -18.9232	-7.42917e-05	  -18.8779	-5.42999e-05	  -18.8895	-6.51149e-05	  -18.8895	  -1.62787	
  -18.9598	-7.30248e-05	   -19.016	-8.03732e-05	  -18.9702	-6.04841e-05	   -18.982	-7.1294e-05	   -18.982	  -1.78235	
  -19.0522	-7.92429e-05	  -19.1082	-8.64799e-05	   -19.062	-6.6748e-05	  -19.0741	-7.74903e-05	  -19.0741	  -1.93726	
  -19.1438	-8.53394e-05	  -19.1998	-9.24454e-05	  -19.1532	-7.30725e-05	  -19.1656	-8.36191e-05	  -19.1656	  -2.09048	
  -19.2352	-9.1279e-05	  -19.2906	-9.81864e-05	  -19.2435	-7.93392e-05	  -19.2564	-8.96015e-05	  -19.2564	  -2.24004	
  -19.3262	-9.71278e-05	  -19.3802	-0.000103738	  -19.3338	-8.55198e-05	  -19.3467	-9.54619e-05	  -19.3467	  -2.38655	
  -19.4177	-0.000102991	  -19.4689	-0.000109247	   -19.423	-9.15691e-05	  -19.4366	-0.000101269	  -19.4366	  -2.53173	
  -19.5097	-0.000108929	  -19.5569	-0.000114862	  -19.5116	-9.75126e-05	  -19.5261	-0.000107101	  -19.5261	  -2.67753	
   -19.601	-0.000114997	  -19.6443	-0.000120663	  -19.5997	-0.000103425	   -19.615	-0.000113029	   -19.615	  -2.82571	
   -19.692	-0.000121134	  -19.7311	-0.000126604	  -19.6876	-0.000109368	  -19.7036	-0.000119035	  -19.7036	  -2.97589	
  -19.7805	-0.000127275	  -19.8174	-0.000132552	   -19.775	-0.000115416	   -19.791	-0.000125081	   -19.791	  -3.12702	
   -19.868	-0.000133337	   -19.903	-0.00013836	  -19.8611	-0.00012155	  -19.8774	-0.000131082	  -19.8774	  -3.27706	
  -19.9536	-0.000139273	  -19.9882	-0.00014397	  -19.9466	-0.000127718	  -19.9628	-0.000136987	  -19.9628	  -3.42467	
  -20.0372	-0.000145119	  -20.0718	-0.000149425	  -20.0309	-0.00013383	  -20.0466	-0.000142791	  -20.0466	  -3.56978	
   -20.121	-0.000150912	   -20.155	-0.000154859	  -20.1149	-0.000139813	  -20.1303	-0.000148528	  -20.1303	   -3.7132	
  -20.2023	-0.000156736	  -20.2371	-0.000160402	  -20.1985	-0.000145667	  -20.2126	-0.000154268	  -20.2126	  -3.85671	
  -20.2837	-0.000162645	  -20.3184	-0.000166111	  -20.2809	-0.000151445	  -20.2944	-0.000160067	  -20.2944	  -4.00168	
   -20.364	-0.000168622	  -20.3989	-0.000171937	  -20.3633	-0.000157236	  -20.3754	-0.000165932	  -20.3754	  -4.14829	
  -20.4453	-0.000174618	  -20.4797	-0.000177752	  -20.4453	-0.000163108	  -20.4568	-0.000171826	  -20.4568	  -4.29564	
  -20.5245	-0.000180555	  -20.5596	-0.000183431	  -20.5263	-0.000169071	  -20.5368	-0.000177686	  -20.5368	  -4.44214	
  -20.6039	-0.000186393	  -20.6386	-0.000188921	  -20.6064	-0.000175065	  -20.6163	-0.00018346	  -20.6163	   -4.5865	
  -20.6804	-0.000192129	  -20.7169	-0.000194275	  -20.6862	-0.000181006	  -20.6945	-0.000189137	  -20.6945	  -4.72842	
  -20.7575	-0.000197806	  -20.7949	-0.000199611	  -20.7654	-0.000186827	  -20.7726	-0.000194748	  -20.7726	  -4.86871	
  -20.8324	-0.000203499	  -20.8718	-0.00020505	  -20.8437	-0.000192524	  -20.8493	-0.000200358	  -20.8493	  -5.00894	
  -20.9075	-0.00020926	  -20.9479	-0.000210639	  -20.9205	-0.000198154	  -20.9253	-0.000206018	  -20.9253	  -5.15044	
  -20.9817	-0.000215097	  -21.0235	-0.000216324	  -20.9958	-0.0002038	  -21.0003	-0.00021174	  -21.0003	  -5.29351	
  -21.0562	-0.000220965	  -21.0986	-0.000221991	  -21.0701	-0.000209528	   -21.075	-0.000217495	   -21.075	  -5.43736	
  -21.1283	-0.000226786	   -21.172	-0.000227528	  -21.1431	-0.000215337	  -21.1478	-0.000223217	  -21.1478	  -5.58042	
  -21.1998	-0.000232509	   -21.245	-0.000232894	  -21.2159	-0.000221172	  -21.2202	-0.000228859	  -21.2202	  -5.72147	
  -21.2703	-0.000238131	  -21.3165	-0.000238139	  -21.2873	-0.000226958	  -21.2914	-0.000234409	  -21.2914	  -5.86023	
  -21.3408	-0.000243702	  -21.3873	-0.000243368	  -21.3587	-0.000232634	  -21.3622	-0.000239901	  -21.3622	  -5.99753	
  -21.4096	-0.000249293	  -21.4567	-0.000248682	  -21.4298	-0.000238199	   -21.432	-0.000245391	   -21.432	  -6.13477	
  -21.4783	-0.00025494	  -21.5259	-0.000254117	     -21.5	-0.000243701	  -21.5014	-0.000250919	  -21.5014	  -6.27298	
   -21.546	-0.000260651	  -21.5945	-0.000259625	  -21.5691	-0.000249213	  -21.5699	-0.000256496	  -21.5699	   -6.4124	
  -21.6129	-0.000266373	  -21.6625	-0.000265104	  -21.6377	-0.000254788	  -21.6377	-0.000262089	  -21.6377	  -6.55221	
  -21.6792	-0.000272045	   -21.729	-0.00027046	  -21.7053	-0.000260433	  -21.7045	-0.000267646	  -21.7045	  -6.69115	
  -21.7442	-0.000277629	  -21.7944	-0.000275659	  -21.7719	-0.000266093	  -21.7702	-0.000273127	  -21.7702	  -6.82817	
  -21.8083	-0.000283121	  -21.8587	-0.000280747	  -21.8379	-0.000271701	   -21.835	-0.000278523	   -21.835	  -6.96307	
  -21.8723	-0.000288555	  -21.9226	-0.000285815	  -21.9029	-0.000277207	  -21.8993	-0.000283859	  -21.8993	  -7.09647	
   -21.935	-0.000293968	  -21.9858	-0.00029095	  -21.9666	-0.000282611	  -21.9625	-0.000289176	  -21.9625	  -7.22941	
  -21.9969	-0.000299403	  -22.0478	-0.000296184	  -22.0294	-0.000287964	  -22.0247	-0.000294517	  -22.0247	  -7.36293	
  -22.0578	-0.000304884	  -22.1089	-0.000301471	  -22.0913	-0.00029333	   -22.086	-0.000299895	   -22.086	  -7.49738	
  -22.1184	-0.00031039	  -22.1696	-0.000306723	  -22.1524	-0.000298753	  -22.1468	-0.000305289	  -22.1468	  -7.63222	
  -22.1784	-0.000315849	  -22.2293	-0.00031186	  -22.2122	-0.000304227	  -22.2066	-0.000310646	  -22.2066	  -7.76614	
  -22.2377	-0.000321231	  -22.2883	-0.000316859	  -22.2709	-0.000309703	  -22.2656	-0.000315931	  -22.2656	  -7.89828	
   -22.296	-0.000326546	  -22.3464	-0.000321758	  -22.3299	-0.000315123	  -22.3241	-0.000321142	  -22.3241	  -8.02855	
   -22.354	-0.000331864	  -22.4034	-0.000326638	  -22.3882	-0.000320446	  -22.3819	-0.000326316	  -22.3819	   -8.1579	
  -22.4111	-0.000337215	  -22.4594	-0.000331573	  -22.4452	-0.000325676	  -22.4386	-0.000331488	  -22.4386	   -8.2872	
   -22.468	-0.000342599	  -22.5137	-0.000336588	  -22.5013	-0.000330856	  -22.4943	-0.000336681	  -22.4943	  -8.41703	
  -22.5233	-0.000348002	  -22.5664	-0.000341644	  -22.5567	-0.000336038	  -22.5488	-0.000341895	  -22.5488	  -8.54737	
  -22.5776	-0.00035333	  -22.6181	-0.000346667	  -22.6111	-0.000341264	  -22.6023	-0.000347087	  -22.6023	  -8.67717	
  -22.6313	-0.000358562	  -22.6683	-0.000351584	  -22.6642	-0.00034653	  -22.6546	-0.000352226	  -22.6546	  -8.80564	
  -22.6839	-0.000363671	   -22.718	-0.000356412	  -22.7163	-0.000351799	  -22.7061	-0.000357294	  -22.7061	  -8.93235	
  -22.7358	-0.000368733	  -22.7671	-0.000361181	  -22.7678	-0.000357016	  -22.7569	-0.00036231	  -22.7569	  -9.05774	
  -22.7878	-0.000373769	  -22.8152	-0.000365938	  -22.8187	-0.000362148	  -22.8072	-0.000367285	  -22.8072	  -9.18212	
  -22.8385	-0.000378845	  -22.8627	-0.000370719	  -22.8685	-0.000367198	  -22.8565	-0.000372254	  -22.8565	  -9.30635	
  -22.8872	-0.000383985	  -22.9096	-0.000375488	  -22.9167	-0.000372204	  -22.9045	-0.000377226	  -22.9045	  -9.43065	
  -22.9349	-0.000389143	  -22.9564	-0.000380223	  -22.9641	-0.00037721	  -22.9518	-0.000382192	  -22.9518	   -9.5548	
  -22.9819	-0.00039427	  -23.0023	-0.000384928	  -23.0111	-0.000382245	  -22.9984	-0.000387148	  -22.9984	   -9.6787	
   -23.028	-0.0003993	  -23.0469	-0.000389612	   -23.057	-0.000387299	   -23.044	-0.00039207	   -23.044	  -9.80176	
  -23.0733	-0.000404225	  -23.0908	-0.000394304	   -23.102	-0.000392332	  -23.0887	-0.000396954	  -23.0887	  -9.92384	
  -23.1171	-0.000409064	  -23.1343	-0.000398991	  -23.1465	-0.000397312	  -23.1326	-0.000401789	  -23.1326	  -10.0447	
  -23.1606	-0.000413877	  -23.1771	-0.000403667	  -23.1905	-0.000402214	  -23.1761	-0.000406586	  -23.1761	  -10.1647	
  -23.2029	-0.000418726	  -23.2197	-0.000408321	  -23.2333	-0.000407051	  -23.2186	-0.000411366	  -23.2186	  -10.2841	
  -23.2436	-0.000423628	  -23.2607	-0.000412896	  -23.2749	-0.000411859	  -23.2597	-0.000416128	  -23.2597	  -10.4032	
  -23.2837	-0.000428553	  -23.3006	-0.000417433	  -23.3149	-0.000416689	  -23.2997	-0.000420892	  -23.2997	  -10.5223	
  -23.3225	-0.00043344	  -23.3399	-0.000421914	  -23.3539	-0.000421555	  -23.3388	-0.000425636	  -23.3388	  -10.6409	
    -23.36	-0.000438237	  -23.3783	-0.000426375	  -23.3916	-0.000426432	  -23.3766	-0.000430348	  -23.3766	  -10.7587	
  -23.3963	-0.00044294	  -23.4159	-0.000430801	  -23.4282	-0.00043126	  -23.4135	 -0.000435	  -23.4135	   -10.875	
   -23.432	-0.000447564	  -23.4532	-0.000435184	  -23.4641	-0.000435992	  -23.4498	-0.00043958	  -23.4498	  -10.9895	
  -23.4678	-0.000452166	  -23.4899	-0.000439534	  -23.4996	-0.000440622	  -23.4858	-0.000444107	  -23.4858	  -11.1027	
  -23.5026	-0.000456785	  -23.5257	-0.00044385	  -23.5337	-0.000445173	  -23.5207	-0.000448602	  -23.5207	  -11.2151	
  -23.5368	-0.000461427	  -23.5605	-0.000448159	  -23.5667	-0.000449695	  -23.5547	-0.000453094	  -23.5547	  -11.3273	
  -23.5703	-0.000466072	  -23.5949	-0.000452441	  -23.5984	-0.000454248	  -23.5879	-0.000457587	  -23.5879	  -11.4397	
  -23.6033	-0.000470673	  -23.6285	-0.000456719	  -23.6295	-0.000458857	  -23.6204	-0.000462083	  -23.6204	  -11.5521	
  -23.6358	-0.000475208	  -23.6603	-0.00046097	  -23.6592	-0.000463515	  -23.6518	-0.000466564	  -23.6518	  -11.6641	
   -23.668	-0.000479676	  -23.6902	-0.000465208	   -23.688	-0.000468185	  -23.6821	-0.000471023	  -23.6821	  -11.7756	
  -23.6996	-0.000484097	  -23.7177	-0.000469431	  -23.7158	-0.000472778	   -23.711	-0.000475435	   -23.711	  -11.8859	
  -23.7303	-0.000488506	  -23.7442	-0.000473622	  -23.7425	-0.000477273	   -23.739	-0.0004798	   -23.739	   -11.995	
  -23.7596	-0.000492917	  -23.7697	-0.000477773	  -23.7689	-0.000481659	  -23.7661	-0.000484116	  -23.7661	  -12.1029	
  -23.7878	-0.000497341	  -23.7938	-0.000481866	  -23.7942	-0.000486001	  -23.7919	-0.000488403	  -23.7919	  -12.2101	
  -23.8145	-0.000501748	   -23.818	-0.000485916	  -23.8184	-0.000490366	   -23.817	-0.000492676	   -23.817	  -12.3169	
  -23.8401	-0.000506112	  -23.8415	-0.000489945	  -23.8415	-0.000494774	   -23.841	-0.000496944	   -23.841	  -12.4236	
  -23.8639	-0.000510418	  -23.8638	-0.000493965	  -23.8631	-0.000499225	  -23.8636	-0.000501202	  -23.8636	  -12.5301	
  -23.8867	-0.00051467	  -23.8861	-0.000497974	  -23.8841	-0.000503672	  -23.8857	-0.000505439	  -23.8857	   -12.636	
  -23.9085	-0.000518919	  -23.9076	-0.000501968	  -23.9044	-0.000508067	  -23.9068	-0.000509651	  -23.9068	  -12.7413	
  -23.9292	-0.000523188	  -23.9286	-0.000505943	  -23.9232	-0.000512376	   -23.927	-0.000513836	   -23.927	  -12.8459	
  -23.9483	-0.000527469	  -23.9484	-0.000509915	  -23.9404	-0.000516598	  -23.9457	-0.000517994	  -23.9457	  -12.9498	
  -23.9664	-0.000531719	  -23.9667	-0.000513881	  -23.9566	-0.000520789	  -23.9633	-0.00052213	  -23.9633	  -13.0532	
  -23.9836	-0.00053589	  -23.9839	-0.000517835	  -23.9723	-0.000524993	  -23.9799	-0.000526239	  -23.9799	   -13.156	
  -24.0003	-0.000539973	   -24.001	-0.00052175	  -23.9874	-0.000529219	  -23.9962	-0.000530314	  -23.9962	  -13.2579	
  -24.0157	-0.000543987	   -24.017	-0.000525604	  -24.0012	-0.000533449	  -24.0113	-0.000534347	  -24.0113	  -13.3587	
  -24.0306	-0.000547978	  -24.0323	-0.000529368	  -24.0138	-0.000537632	  -24.0255	-0.000538326	  -24.0255	  -13.4582	
  -24.0442	-0.000552004	  -24.0468	-0.000533072	  -24.0256	-0.000541747	  -24.0389	-0.000542274	  -24.0389	  -13.5569	
  -24.0577	-0.00055608	  -24.0609	-0.00053673	  -24.0362	-0.000545773	  -24.0516	-0.000546194	  -24.0516	  -13.6549	
  -24.0704	-0.000560187	  -24.0736	-0.0005404	  -24.0458	-0.000549744	  -24.0633	-0.00055011	  -24.0633	  -13.7528	
  -24.0818	-0.000564273	  -24.0856	-0.000544077	  -24.0551	-0.000553705	  -24.0742	-0.000554018	  -24.0742	  -13.8505	
  -24.0922	-0.000568276	  -24.0963	-0.000547762	  -24.0637	-0.000557696	  -24.0841	-0.000557911	  -24.0841	  -13.9478	
  -24.1012	-0.000572168	   -24.106	-0.000551446	  -24.0716	-0.000561713	  -24.0929	-0.000561776	  -24.0929	  -14.0444	
  -24.1088	-0.000575955	  -24.1149	-0.000555095	  -24.0782	-0.000565747	  -24.1006	-0.000565599	  -24.1006	    -14.14	
  -24.1156	-0.0005797	  -24.1225	-0.0005587	  -24.0843	-0.00056973	  -24.1075	-0.000569377	  -24.1075	  -14.2344	
  -24.1212	-0.000583467	  -24.1294	-0.000562238	  -24.0895	-0.000573624	  -24.1134	-0.000573109	  -24.1134	  -14.3277	
  -24.1261	-0.000587279	  -24.1356	-0.000565718	  -24.0943	-0.00057742	  -24.1187	-0.000576806	  -24.1187	  -14.4201	
  -24.1295	-0.000591134	  -24.1404	-0.000569176	   -24.098	-0.000581146	  -24.1226	-0.000580485	  -24.1226	  -14.5121	
  -24.1317	-0.000594977	  -24.1443	-0.000572636	  -24.1009	-0.000584862	  -24.1256	-0.000584158	  -24.1256	   -14.604	
  -24.1333	-0.000598754	   -24.148	-0.000576119	  -24.1036	-0.000588604	  -24.1283	-0.000587826	  -24.1283	  -14.6956	
  -24.1338	-0.000602431	  -24.1508	-0.000579608	  -24.1059	-0.000592396	  -24.1302	-0.000591479	  -24.1302	   -14.787	
  -24.1333	-0.000606019	  -24.1528	-0.000583071	   -24.107	-0.000596206	   -24.131	-0.000595099	   -24.131	  -14.8775	
  -24.1314	-0.000609568	  -24.1538	-0.00058648	  -24.1068	-0.000599969	  -24.1307	-0.000598672	  -24.1307	  -14.9668	
  -24.1287	-0.000613129	  -24.1538	-0.000589813	  -24.1063	-0.00060364	  -24.1296	-0.000602194	  -24.1296	  -15.0548	
   -24.126	-0.000616737	  -24.1525	-0.000593087	   -24.105	-0.000607207	  -24.1278	-0.000605677	  -24.1278	  -15.1419	
  -24.1221	-0.000620381	    -24.15	-0.000596334	  -24.1024	-0.000610709	  -24.1249	-0.000609141	  -24.1249	  -15.2285	
  -24.1173	-0.000624001	  -24.1469	-0.000599586	   -24.099	-0.000614203	  -24.1211	-0.000612596	  -24.1211	  -15.3149	
  -24.1119	-0.000627583	  -24.1428	-0.000602858	  -24.0944	-0.000617727	  -24.1164	-0.000616056	  -24.1164	  -15.4014	
  -24.1064	-0.000631058	  -24.1379	-0.000606132	  -24.0895	-0.000621294	  -24.1113	-0.000619495	  -24.1113	  -15.4874	
  -24.0998	-0.000634444	  -24.1318	-0.000609379	  -24.0837	-0.000624866	  -24.1051	-0.000622896	  -24.1051	  -15.5724	
  -24.0921	-0.000637759	  -24.1244	-0.000612571	  -24.0766	-0.000628384	  -24.0977	-0.000626238	  -24.0977	  -15.6559	
  -24.0829	-0.000641013	  -24.1158	-0.000615689	  -24.0685	-0.000631808	  -24.0891	-0.000629503	  -24.0891	  -15.7376	
  -24.0734	-0.000644246	  -24.1061	-0.000618752	   -24.059	-0.000635135	  -24.0795	-0.000632711	  -24.0795	  -15.8178	
  -24.0628	-0.000647481	  -24.0959	-0.000621787	  -24.0481	-0.000638402	  -24.0689	-0.00063589	  -24.0689	  -15.8972	
  -24.0513	-0.000650747	  -24.0847	-0.000624822	  -24.0369	-0.000641661	  -24.0576	-0.000639077	  -24.0576	  -15.9769	
  -24.0391	-0.000654061	  -24.0732	-0.000627872	  -24.0241	-0.000644951	  -24.0455	-0.000642295	  -24.0455	  -16.0574	
  -24.0266	-0.000657389	  -24.0607	-0.000630923	  -24.0095	-0.000648275	  -24.0322	-0.000645529	  -24.0322	  -16.1382	
  -24.0124	-0.00066067	  -24.0463	-0.000633949	  -23.9944	-0.000651598	  -24.0177	-0.000648739	  -24.0177	  -16.2185	
  -23.9976	-0.000663856	  -24.0305	-0.000636922	  -23.9781	-0.000654873	  -24.0021	-0.000651884	  -24.0021	  -16.2971	
  -23.9821	-0.000666917	  -24.0136	-0.00063983	   -23.961	-0.000658064	  -23.9855	-0.000654937	  -23.9855	  -16.3734	
  -23.9657	-0.000669891	   -23.996	-0.000642681	  -23.9433	-0.000661169	  -23.9683	-0.000657914	  -23.9683	  -16.4478	
   -23.948	-0.000672845	  -23.9771	-0.000645499	  -23.9242	-0.000664212	  -23.9498	-0.000660852	  -23.9498	  -16.5213	
  -23.9294	-0.000675832	  -23.9576	-0.000648314	  -23.9043	-0.000667236	  -23.9304	-0.000663794	  -23.9304	  -16.5948	
  -23.9097	-0.000678881	  -23.9374	-0.000651136	   -23.884	-0.000670276	  -23.9104	-0.000666764	  -23.9104	  -16.6691	
  -23.8888	-0.000681951	  -23.9165	-0.000653956	   -23.863	-0.000673325	  -23.8894	-0.000669744	  -23.8894	  -16.7436	
  -23.8671	-0.000685005	  -23.8938	-0.000656751	  -23.8416	-0.000676343	  -23.8675	-0.0006727	  -23.8675	  -16.8175	
  -23.8442	-0.000687988	  -23.8701	-0.00065949	  -23.8188	-0.000679352	  -23.8444	-0.00067561	  -23.8444	  -16.8903	
  -23.8202	-0.000690879	  -23.8454	-0.000662165	  -23.7951	-0.000682323	  -23.8202	-0.000678456	  -23.8202	  -16.9614	
  -23.7956	-0.000693698	  -23.8203	-0.000664784	  -23.7715	-0.000685319	  -23.7958	-0.000681267	  -23.7958	  -17.0317	
  -23.7696	-0.000696468	  -23.7942	-0.000667377	  -23.7465	-0.000688317	  -23.7701	-0.000684054	  -23.7701	  -17.1014	
  -23.7423	-0.000699234	  -23.7673	-0.000669968	  -23.7201	-0.000691288	  -23.7432	-0.00068683	  -23.7432	  -17.1707	
  -23.7143	-0.000702033	  -23.7387	-0.000672569	  -23.6929	-0.000694214	  -23.7153	-0.000689605	  -23.7153	  -17.2401	
  -23.6848	-0.000704789	   -23.709	-0.000675168	  -23.6649	-0.000697058	  -23.6863	-0.000692338	  -23.6863	  -17.3085	
  -23.6547	-0.000707547	  -23.6782	-0.000677737	  -23.6357	-0.000699848	  -23.6562	-0.000695044	  -23.6562	  -17.3761	
  -23.6238	-0.000710233	  -23.6466	-0.000680239	  -23.6059	-0.000702633	  -23.6254	-0.000697702	  -23.6254	  -17.4425	
  -23.5918	-0.000712899	  -23.6139	-0.000682661	  -23.5752	-0.000705417	  -23.5936	-0.000700326	  -23.5936	  -17.5081	
  -23.5585	-0.000715593	   -23.581	-0.000684915	  -23.5442	-0.000708228	  -23.5612	-0.000702912	  -23.5612	  -17.5728	
  -23.5235	-0.000718287	  -23.5465	-0.000687107	  -23.5119	-0.000711031	  -23.5273	-0.000705475	  -23.5273	  -17.6369	
   -23.486	-0.000721025	  -23.5108	-0.000689315	  -23.4787	-0.000713798	  -23.4918	-0.000708046	  -23.4918	  -17.7011	
  -23.4474	-0.000723704	  -23.4744	-0.000691693	  -23.4447	-0.000716504	  -23.4555	-0.000710634	  -23.4555	  -17.7658	
  -23.4072	-0.000726326	  -23.4365	-0.000694233	  -23.4094	-0.000719144	  -23.4177	-0.000713234	  -23.4177	  -17.8309	
  -23.3679	-0.000728875	  -23.3973	-0.000696855	  -23.3734	-0.000721711	  -23.3796	-0.000715814	  -23.3796	  -17.8953	
  -23.3279	-0.00073136	  -23.3548	-0.000699446	  -23.3359	-0.00072424	  -23.3395	-0.000718349	  -23.3395	  -17.9587	
  -23.2891	-0.000733856	  -23.3111	-0.00070177	  -23.2978	-0.000726756	  -23.2993	-0.000720794	  -23.2993	  -18.0199	
  -23.2505	-0.000736367	   -23.266	-0.000703806	  -23.2586	-0.000729306	  -23.2584	-0.00072316	  -23.2584	   -18.079	
   -23.211	-0.000738905	  -23.2216	-0.000705607	  -23.2186	-0.000731912	  -23.2171	-0.000725475	  -23.2171	  -18.1369	
  -23.1699	-0.000741448	  -23.1783	-0.000707368	  -23.1776	-0.000734552	  -23.1753	-0.000727789	  -23.1753	  -18.1947	
  -23.1273	-0.000743939	  -23.1352	-0.000709298	  -23.1359	-0.000737165	  -23.1328	-0.000730134	  -23.1328	  -18.2534	
  -23.0831	-0.000746361	  -23.0934	-0.000711446	  -23.0929	-0.000739669	  -23.0898	-0.000732492	  -23.0898	  -18.3123	
  -23.0373	-0.000748757	  -23.0505	-0.000713777	  -23.0487	-0.000742035	  -23.0455	-0.000734856	  -23.0455	  -18.3714	
  -22.9904	-0.000751104	  -23.0062	-0.000716102	  -23.0034	-0.000744282	       -23	-0.000737163	       -23	  -18.4291	
  -22.9435	-0.000753466	  -22.9604	-0.000718248	  -22.9567	-0.000746492	  -22.9535	-0.000739402	  -22.9535	   -18.485	
  -22.8964	-0.000755768	  -22.9136	-0.000720147	  -22.9088	-0.000748751	  -22.9063	-0.000741555	  -22.9063	  -18.5389	
  -22.8486	-0.000757992	  -22.8662	-0.000721837	  -22.8594	-0.000751097	  -22.8581	-0.000743642	  -22.8581	   -18.591	
  -22.7992	-0.000760101	  -22.8171	-0.000723482	  -22.8093	-0.000753504	  -22.8086	-0.000745696	  -22.8086	  -18.6424	
  -22.7494	-0.000762084	  -22.7675	-0.000725231	  -22.7579	-0.000755896	  -22.7583	-0.000747737	  -22.7583	  -18.6934	
  -22.6982	-0.000764045	  -22.7166	-0.000727169	  -22.7054	-0.000758193	  -22.7068	-0.000749802	  -22.7068	  -18.7451	
  -22.6457	-0.000766042	  -22.6652	-0.000729293	  -22.6522	-0.000760353	  -22.6543	-0.000751896	  -22.6543	  -18.7974	
   -22.592	-0.000768142	  -22.6127	-0.000731416	  -22.5984	-0.0007624	   -22.601	-0.000753986	   -22.601	  -18.8496	
  -22.5373	-0.000770319	  -22.5584	-0.00073339	   -22.544	-0.000764409	  -22.5466	-0.000756039	  -22.5466	   -18.901	
  -22.4828	-0.000772483	   -22.504	-0.000735078	  -22.4888	-0.000766459	  -22.4919	-0.000758007	  -22.4919	  -18.9502	
   -22.427	-0.000774552	  -22.4474	-0.000736505	  -22.4329	-0.000768585	  -22.4357	-0.000759881	  -22.4357	   -18.997	
  -22.3705	-0.000776454	  -22.3903	-0.000737878	  -22.3754	-0.000770771	  -22.3787	-0.000761701	  -22.3787	  -19.0425	
  -22.3132	-0.000778213	  -22.3322	-0.000739367	   -22.317	-0.000772954	  -22.3208	-0.000763511	  -22.3208	  -19.0878	
  -22.2555	-0.00077991	  -22.2738	-0.000741132	   -22.258	-0.000775063	  -22.2624	-0.000765368	  -22.2624	  -19.1342	
  -22.1972	-0.000781641	  -22.2143	-0.000743107	   -22.198	-0.00077706	  -22.2032	-0.000767269	  -22.2032	  -19.1817	
  -22.1382	-0.000783467	  -22.1537	-0.000745096	   -22.137	-0.000778959	   -22.143	-0.000769174	   -22.143	  -19.2293	
  -22.0775	-0.000785366	  -22.0919	-0.00074691	  -22.0749	-0.000780818	  -22.0814	-0.000771031	  -22.0814	  -19.2758	
  -22.0161	-0.000787271	  -22.0296	-0.000748434	  -22.0124	-0.000782703	  -22.0194	-0.000772802	  -22.0194	  -19.3201	
  -21.9536	-0.000789097	  -21.9665	-0.00074975	   -21.949	-0.000784655	  -21.9564	-0.000774501	  -21.9564	  -19.3625	
    -21.89	-0.000790795	  -21.9027	-0.000751048	  -21.8848	-0.000786661	  -21.8925	-0.000776168	  -21.8925	  -19.4042	
  -21.8255	-0.000792377	  -21.8383	-0.000752504	  -21.8203	-0.000788663	   -21.828	-0.000777848	   -21.828	  -19.4462	
  -21.7603	-0.000793905	  -21.7728	-0.000754193	  -21.7552	-0.000790595	  -21.7627	-0.000779564	  -21.7627	  -19.4891	
  -21.6942	-0.000795459	  -21.7062	-0.000756033	  -21.6886	-0.000792421	  -21.6963	-0.000781304	  -21.6963	  -19.5326	
  -21.6271	-0.000797087	  -21.6389	-0.000757843	  -21.6214	-0.000794158	  -21.6292	-0.000783029	  -21.6292	  -19.5757	
  -21.5595	-0.000798779	  -21.5705	-0.000759479	  -21.5531	-0.000795861	  -21.5611	-0.000784706	  -21.5611	  -19.6177	
  -21.4913	-0.000800474	  -21.5017	-0.000760879	  -21.4844	-0.00079759	  -21.4925	-0.000786314	  -21.4925	  -19.6579	
  -21.4217	-0.000802097	  -21.4317	-0.000762221	  -21.4146	-0.000799371	  -21.4227	-0.000787896	  -21.4227	  -19.6974	
  -21.3511	-0.000803601	  -21.3612	-0.000763602	  -21.3436	-0.000801188	   -21.352	-0.000789464	   -21.352	  -19.7366	
  -21.2806	-0.000804995	  -21.2902	-0.000765061	  -21.2726	-0.000802993	  -21.2811	-0.000791016	  -21.2811	  -19.7754	
  -21.2093	-0.000806331	  -21.2187	-0.000766583	   -21.201	-0.000804732	  -21.2097	-0.000792549	  -21.2097	  -19.8137	
  -21.1373	-0.000807687	  -21.1458	-0.000768105	  -21.1282	-0.000806376	  -21.1371	-0.000794056	  -21.1371	  -19.8514	
  -21.0642	-0.000809112	  -21.0724	-0.00076959	  -21.0545	-0.000807936	  -21.0637	-0.000795546	  -21.0637	  -19.8886	
  -20.9903	-0.000810598	  -20.9984	-0.000770972	    -20.98	-0.000809438	  -20.9895	-0.000797002	  -20.9895	  -19.9251	
  -20.9163	-0.000812092	  -20.9234	-0.000772308	  -20.9049	-0.000810914	  -20.9149	-0.000798438	  -20.9149	   -19.961	
  -20.8411	-0.000813523	  -20.8479	-0.000773651	  -20.8283	-0.000812417	  -20.8391	-0.000799864	  -20.8391	  -19.9966	
  -20.7652	-0.000814847	  -20.7714	-0.000775037	  -20.7508	-0.000813977	  -20.7624	-0.000801287	  -20.7624	  -20.0322	
  -20.6887	-0.000816077	  -20.6942	-0.000776477	  -20.6726	-0.000815582	  -20.6852	-0.000802712	  -20.6852	  -20.0678	
  -20.6111	-0.000817262	  -20.6168	-0.0007779	  -20.5928	-0.00081717	  -20.6069	-0.000804111	  -20.6069	  -20.1028	
  -20.5324	-0.000818464	  -20.5377	-0.00077928	   -20.512	-0.000818676	  -20.5274	-0.000805473	  -20.5274	  -20.1368	
  -20.4526	-0.000819718	  -20.4578	-0.000780574	  -20.4308	-0.000820056	  -20.4471	-0.000806783	  -20.4471	  -20.1696	
  -20.3714	-0.000821015	  -20.3765	-0.000781793	  -20.3486	-0.000821321	  -20.3655	-0.000808043	  -20.3655	  -20.2011	
  -20.2903	-0.000822311	  -20.2952	-0.000782988	  -20.2664	-0.000822522	   -20.284	-0.000809273	   -20.284	  -20.2318	
  -20.2081	-0.000823545	  -20.2123	-0.000784166	  -20.1832	-0.000823721	  -20.2012	-0.000810477	  -20.2012	  -20.2619	
   -20.125	-0.000824685	  -20.1283	-0.000785368	  -20.0996	-0.000824973	  -20.1176	-0.000811675	  -20.1176	  -20.2919	
  -20.0412	-0.00082574	  -20.0435	-0.000786579	  -20.0151	-0.000826275	  -20.0333	-0.000812864	  -20.0333	  -20.3216	
  -19.9558	-0.000826726	  -19.9578	-0.000787777	  -19.9295	-0.000827585	  -19.9477	-0.000814029	  -19.9477	  -20.3507	
  -19.8693	-0.000827725	   -19.871	-0.000788928	  -19.8424	-0.00082884	  -19.8609	-0.000815164	  -19.8609	  -20.3791	
  -19.7813	-0.000828742	  -19.7834	-0.000789994	  -19.7545	-0.000829996	  -19.7731	-0.000816244	  -19.7731	  -20.4061	
   -19.693	-0.00082981	  -19.6952	-0.000791002	  -19.6658	-0.000831063	  -19.6847	-0.000817292	  -19.6847	  -20.4323	
  -19.6044	-0.000830899	  -19.6058	-0.000791982	  -19.5765	-0.000832082	  -19.5956	-0.000818321	  -19.5956	   -20.458	
  -19.5148	-0.000831958	  -19.5161	-0.000792975	  -19.4861	-0.000833109	  -19.5056	-0.000819347	  -19.5056	  -20.4837	
  -19.4243	-0.000832952	  -19.4255	-0.000794001	  -19.3947	-0.000834164	  -19.4148	-0.000820372	  -19.4148	  -20.5093	
  -19.3329	-0.000833817	  -19.3347	-0.000795043	  -19.3036	-0.000835247	  -19.3237	-0.000821369	  -19.3237	  -20.5342	
  -19.2411	-0.000834572	  -19.2431	-0.000796058	  -19.2115	-0.00083632	  -19.2319	-0.000822317	  -19.2319	  -20.5579	
  -19.1481	-0.000835252	  -19.1506	-0.000797005	  -19.1186	-0.000837343	  -19.1391	-0.0008232	  -19.1391	    -20.58	
  -19.0538	-0.000835929	  -19.0575	-0.000797869	  -19.0256	-0.000838291	  -19.0456	-0.00082403	  -19.0456	  -20.6007	
   -18.959	-0.000836664	  -18.9633	-0.000798673	  -18.9325	-0.000839163	  -18.9516	-0.000824833	  -18.9516	  -20.6208	
  -18.8636	-0.000837463	  -18.8686	-0.000799457	   -18.839	-0.000839992	  -18.8571	-0.000825637	  -18.8571	  -20.6409	
  -18.7671	-0.000838291	  -18.7732	-0.000800263	  -18.7445	-0.000840809	  -18.7616	-0.000826455	  -18.7616	  -20.6614	
  -18.6696	-0.000839087	  -18.6765	-0.000801109	  -18.6489	-0.000841641	   -18.665	-0.000827279	   -18.665	   -20.682	
  -18.5714	-0.000839784	  -18.5792	-0.00080197	  -18.5525	-0.000842485	  -18.5677	-0.00082808	  -18.5677	   -20.702	
  -18.4727	-0.000840375	  -18.4812	-0.000802807	  -18.4553	-0.000843313	  -18.4697	-0.000828832	  -18.4697	  -20.7208	
  -18.3732	-0.000840887	  -18.3824	-0.000803582	  -18.3577	-0.000844097	  -18.3711	-0.000829522	  -18.3711	  -20.7381	
  -18.2733	-0.000841378	  -18.2829	-0.000804289	  -18.2587	-0.000844816	  -18.2716	-0.000830161	  -18.2716	   -20.754	
  -18.1727	-0.000841902	  -18.1829	-0.000804945	  -18.1592	-0.000845476	  -18.1716	-0.000830774	  -18.1716	  -20.7694	
  -18.0726	-0.000842435	  -18.0824	-0.000805582	  -18.0585	-0.0008461	  -18.0712	-0.000831372	  -18.0712	  -20.7843	
  -17.9715	-0.00084297	  -17.9807	-0.000806227	  -17.9571	-0.000846719	  -17.9698	-0.000831972	  -17.9698	  -20.7993	
  -17.8692	-0.000843479	  -17.8774	-0.00080689	  -17.8547	-0.000847346	  -17.8671	-0.000832572	  -17.8671	  -20.8143	
  -17.7659	-0.000843975	  -17.7732	-0.000807554	  -17.7515	-0.000847979	  -17.7635	-0.000833169	  -17.7635	  -20.8292	
  -17.6616	-0.000844447	  -17.6683	-0.00080819	  -17.6476	-0.000848589	  -17.6592	-0.000833742	  -17.6592	  -20.8436	
  -17.5565	-0.000844885	  -17.5621	-0.00080877	  -17.5423	-0.000849154	  -17.5536	-0.00083427	  -17.5536	  -20.8567	
  -17.4507	-0.000845303	  -17.4551	-0.000809286	  -17.4362	-0.000849656	  -17.4473	-0.000834749	  -17.4473	  -20.8687	
  -17.3439	-0.000845674	   -17.347	-0.00080976	  -17.3297	-0.000850107	  -17.3402	-0.00083518	  -17.3402	  -20.8795	
   -17.237	-0.000845994	  -17.2377	-0.000810228	  -17.2222	-0.000850526	  -17.2323	-0.000835582	  -17.2323	  -20.8896	
  -17.1294	-0.000846262	  -17.1276	-0.000810715	  -17.1142	-0.000850941	  -17.1237	-0.000835973	  -17.1237	  -20.8993	
   -17.021	-0.000846497	   -17.017	-0.000811221	  -17.0051	-0.000851366	  -17.0144	-0.000836361	  -17.0144	   -20.909	
  -16.9125	-0.000846743	  -16.9058	-0.00081172	  -16.8953	-0.000851791	  -16.9045	-0.000836751	  -16.9045	  -20.9188	
  -16.8031	-0.000847002	  -16.7949	-0.00081218	  -16.7848	-0.000852256	  -16.7943	-0.000837146	  -16.7943	  -20.9287	
  -16.6927	-0.000847277	   -16.683	-0.000812574	  -16.6735	-0.000852687	   -16.683	-0.000837513	   -16.683	  -20.9378	
  -16.5811	-0.000847534	  -16.5711	-0.000812905	  -16.5613	-0.000853055	  -16.5711	-0.000837831	  -16.5711	  -20.9458	
  -16.4683	-0.000847746	  -16.4592	-0.000813201	  -16.4486	-0.000853318	  -16.4587	-0.000838088	  -16.4587	  -20.9522	
  -16.3554	-0.000847908	  -16.3464	-0.000813496	  -16.3355	-0.0008535	  -16.3458	-0.000838301	  -16.3458	  -20.9575	
  -16.2413	-0.000848021	  -16.2334	-0.000813808	  -16.2209	-0.000853677	  -16.2319	-0.000838502	  -16.2319	  -20.9626	
  -16.1269	-0.000848106	  -16.1191	-0.000814127	  -16.1055	-0.000853909	  -16.1172	-0.000838714	  -16.1172	  -20.9679	
  -16.0119	-0.000848186	  -16.0048	-0.000814424	  -15.9899	-0.000854249	  -16.0022	-0.000838953	  -16.0022	  -20.9738	
  -15.8962	-0.000848285	  -15.8902	-0.000814664	  -15.8738	-0.000854661	  -15.8867	-0.000839203	  -15.8867	  -20.9801	
  -15.7805	-0.000848421	  -15.7754	-0.000814831	  -15.7574	-0.000855071	  -15.7711	-0.000839441	  -15.7711	   -20.986	
  -15.6636	-0.000848575	  -15.6591	-0.000814916	  -15.6399	-0.000855395	  -15.6542	-0.000839629	  -15.6542	  -20.9907	
   -15.547	-0.000848712	  -15.5419	-0.000815002	  -15.5221	-0.000855592	   -15.537	-0.000839769	   -15.537	  -20.9942	
    -15.43	-0.000848791	   -15.424	-0.000815121	  -15.4036	-0.000855689	  -15.4192	-0.000839867	  -15.4192	  -20.9967	
  -15.3119	-0.000848775	  -15.3061	-0.000815297	  -15.2842	-0.000855753	  -15.3007	-0.000839942	  -15.3007	  -20.9985	
  -15.1933	-0.000848691	  -15.1873	-0.000815509	  -15.1652	-0.00085586	   -15.182	-0.00084002	   -15.182	  -21.0005	
  -15.0746	-0.000848586	  -15.0682	-0.000815659	  -15.0452	-0.000856043	  -15.0627	-0.000840096	  -15.0627	  -21.0024	
  -14.9546	-0.000848513	  -14.9485	-0.000815693	  -14.9254	-0.000856283	  -14.9428	-0.000840163	  -14.9428	  -21.0041	
  -14.8341	-0.000848492	   -14.828	-0.000815582	  -14.8046	-0.000856517	  -14.8222	-0.000840197	  -14.8222	  -21.0049	
  -14.7124	-0.000848496	  -14.7068	-0.000815379	  -14.6836	-0.000856686	  -14.7009	-0.000840187	  -14.7009	  -21.0047	
  -14.5897	-0.000848502	  -14.5848	-0.000815176	  -14.5614	-0.000856755	  -14.5787	-0.000840144	  -14.5787	  -21.0036	
  -14.4663	-0.000848457	  -14.4622	-0.000815038	  -14.4391	-0.000856737	  -14.4558	-0.000840077	  -14.4558	  -21.0019	
  -14.3419	-0.000848344	  -14.3388	-0.000814995	  -14.3162	-0.000856684	  -14.3323	-0.000840007	  -14.3323	  -21.0002	
  -14.2167	-0.000848173	   -14.214	-0.000814995	  -14.1931	-0.000856653	  -14.2079	-0.00083994	  -14.2079	  -20.9985	
   -14.091	-0.00084797	  -14.0884	-0.000814951	  -14.0695	-0.000856675	  -14.0829	-0.000839866	  -14.0829	  -20.9966	
  -13.9645	-0.00084778	  -13.9629	-0.000814797	  -13.9451	-0.000856734	  -13.9575	-0.00083977	  -13.9575	  -20.9943	
   -13.837	-0.000847623	  -13.8366	-0.000814511	  -13.8195	-0.000856778	   -13.831	-0.000839637	   -13.831	  -20.9909	
  -13.7089	-0.000847493	  -13.7096	-0.000814139	   -13.694	-0.000856753	  -13.7041	-0.000839462	  -13.7041	  -20.9865	
  -13.5799	-0.000847371	  -13.5815	-0.000813759	  -13.5678	-0.000856564	  -13.5764	-0.000839231	  -13.5764	  -20.9808	
  -13.4502	-0.000847217	  -13.4527	-0.000813438	   -13.441	-0.000856307	   -13.448	-0.000838988	   -13.448	  -20.9747	
  -13.3189	-0.000846999	  -13.3232	-0.000813194	  -13.3136	-0.000855995	  -13.3186	-0.000838729	  -13.3186	  -20.9682	
  -13.1878	-0.000846715	  -13.1928	-0.000812975	  -13.1857	-0.000855787	  -13.1888	-0.000838492	  -13.1888	  -20.9623	
  -13.0566	-0.00084638	  -13.0628	-0.000812714	  -13.0567	-0.000855749	  -13.0587	-0.000838281	  -13.0587	   -20.957	
  -12.9251	-0.000846036	  -12.9321	-0.000812356	  -12.9266	-0.000855838	  -12.9279	-0.000838077	  -12.9279	  -20.9519	
  -12.7927	-0.000845712	  -12.8006	-0.000811896	  -12.7943	-0.00085594	  -12.7959	-0.000837849	  -12.7959	  -20.9462	
    -12.66	-0.000845435	  -12.6683	-0.000811371	  -12.6609	-0.000855862	  -12.6631	-0.000837556	  -12.6631	  -20.9389	
  -12.5276	-0.000845189	  -12.5356	-0.000810835	  -12.5262	-0.000855519	  -12.5298	-0.000837181	  -12.5298	  -20.9295	
  -12.3955	-0.000844932	  -12.4027	-0.000810336	  -12.3922	-0.000854943	  -12.3968	-0.000836737	  -12.3968	  -20.9184	
  -12.2625	-0.000844612	  -12.2698	-0.000809871	  -12.2572	-0.000854362	  -12.2632	-0.000836282	  -12.2632	   -20.907	
  -12.1292	-0.00084418	   -12.136	-0.000809406	  -12.1236	-0.000853994	  -12.1296	-0.00083586	  -12.1296	  -20.8965	
  -11.9956	-0.000843663	  -12.0015	-0.000808912	  -11.9914	-0.000853833	  -11.9962	-0.000835469	  -11.9962	  -20.8867	
   -11.862	-0.000843104	  -11.8669	-0.000808384	  -11.8592	-0.000853738	  -11.8627	-0.000835075	  -11.8627	  -20.8769	
  -11.7282	-0.000842551	  -11.7313	-0.000807824	  -11.7261	-0.000853432	  -11.7285	-0.000834602	  -11.7285	  -20.8651	
   -11.594	-0.000842062	  -11.5952	-0.000807216	  -11.5917	-0.000852779	  -11.5936	-0.000834019	  -11.5936	  -20.8505	
  -11.4592	-0.000841599	  -11.4589	-0.000806533	  -11.4569	-0.000851865	  -11.4583	-0.000833333	  -11.4583	  -20.8333	
  -11.3238	-0.000841152	  -11.3218	-0.000805788	  -11.3212	-0.000850916	  -11.3222	-0.000832619	  -11.3222	  -20.8155	
  -11.1867	-0.000840649	  -11.1852	-0.000805015	  -11.1855	-0.000850223	  -11.1858	-0.000831962	  -11.1858	  -20.7991	
  -11.0485	-0.000840082	  -11.0492	-0.000804251	  -11.0497	-0.000849898	  -11.0491	-0.00083141	  -11.0491	  -20.7853	
  -10.9096	-0.000839465	  -10.9135	-0.000803498	  -10.9138	-0.000849821	  -10.9123	-0.000830928	  -10.9123	  -20.7732	
  -10.7702	-0.000838793	  -10.7784	-0.000802751	  -10.7787	-0.000849719	  -10.7758	-0.000830421	  -10.7758	  -20.7605	
  -10.6303	-0.000838117	  -10.6424	-0.000802001	  -10.6428	-0.000849292	  -10.6385	-0.000829804	  -10.6385	  -20.7451	
  -10.4911	-0.000837453	  -10.5049	-0.000801227	  -10.5067	-0.000848428	  -10.5009	-0.000829036	  -10.5009	  -20.7259	
  -10.3516	-0.000836794	  -10.3671	-0.000800442	  -10.3705	-0.000847261	  -10.3631	-0.000828166	  -10.3631	  -20.7041	
  -10.2121	-0.000836134	  -10.2285	-0.000799616	   -10.234	-0.000846069	  -10.2249	-0.000827273	  -10.2249	  -20.6818	
   -10.072	-0.000835428	  -10.0883	-0.00079874	  -10.0968	-0.000845121	  -10.0857	-0.00082643	  -10.0857	  -20.6607	
  -9.93214	-0.000834704	  -9.94759	-0.000797799	  -9.95864	-0.000844505	  -9.94613	-0.00082567	  -9.94613	  -20.6417	
  -9.79142	-0.000833936	  -9.80578	-0.000796824	  -9.81986	-0.000844092	  -9.80569	-0.000824951	  -9.80569	  -20.6238	
   -9.6514	-0.000833093	  -9.66489	-0.00079585	  -9.68097	-0.000843639	  -9.66575	-0.000824194	  -9.66575	  -20.6048	
  -9.51083	-0.000832171	   -9.5226	-0.000794871	  -9.54148	-0.000842903	  -9.52497	-0.000823315	  -9.52497	  -20.5829	
  -9.37025	-0.00083119	  -9.38126	-0.000793911	  -9.40159	-0.00084181	  -9.38437	-0.000822304	  -9.38437	  -20.5576	
   -9.2295	-0.000830222	  -9.23926	-0.000792951	  -9.26048	-0.000840471	  -9.24308	-0.000821215	  -9.24308	  -20.5304	
  -9.08875	-0.000829334	  -9.09749	-0.000791961	  -9.11911	-0.000839123	  -9.10178	-0.000820139	  -9.10178	  -20.5035	
  -8.94749	-0.000828523	  -8.95476	-0.000790914	  -8.97766	-0.000837982	  -8.95997	-0.00081914	  -8.95997	  -20.4785	
  -8.80559	-0.000827759	  -8.81234	-0.000789796	  -8.83597	-0.000837131	  -8.81796	-0.000818229	  -8.81796	  -20.4557	
  -8.66327	-0.00082698	  -8.66935	-0.000788631	  -8.69389	-0.000836455	  -8.67551	-0.000817356	  -8.67551	  -20.4339	
  -8.52143	-0.000826079	  -8.52671	-0.00078745	  -8.55164	-0.000835743	  -8.53326	-0.000816424	  -8.53326	  -20.4106	
   -8.3785	-0.00082503	  -8.38387	-0.000786267	   -8.4087	-0.000834772	  -8.39036	-0.000815356	  -8.39036	  -20.3839	
  -8.23576	-0.000823824	  -8.24069	-0.000785083	  -8.26531	-0.00083346	  -8.24725	-0.000814122	  -8.24725	  -20.3531	
  -8.09236	-0.00082255	  -8.09702	-0.000783888	  -8.12102	-0.000831926	  -8.10347	-0.000812788	  -8.10347	  -20.3197	
  -7.94885	-0.000821297	  -7.95344	-0.000782681	  -7.97641	-0.000830387	  -7.95957	-0.000811455	  -7.95957	  -20.2864	
  -7.80476	-0.000820137	   -7.8101	-0.000781461	   -7.8317	-0.000829057	  -7.81552	-0.000810218	  -7.81552	  -20.2555	
  -7.66064	-0.000819091	  -7.66649	-0.000780219	  -7.68639	-0.000827996	  -7.67118	-0.000809102	  -7.67118	  -20.2275	
  -7.51567	-0.000818069	  -7.52213	-0.000778948	  -7.54072	-0.000827087	  -7.52617	-0.000808035	  -7.52617	  -20.2009	
   -7.3711	-0.000816984	  -7.37793	-0.000777655	  -7.39456	-0.00082611	   -7.3812	-0.000806916	   -7.3812	  -20.1729	
  -7.22609	-0.000815742	  -7.23305	-0.000776322	  -7.24849	-0.000824876	  -7.23587	-0.000805647	  -7.23587	  -20.1412	
  -7.08083	-0.000814331	  -7.08772	-0.00077495	  -7.10233	-0.000823331	  -7.09029	-0.000804204	  -7.09029	  -20.1051	
  -6.93588	-0.000812817	  -6.94183	-0.000773523	  -6.95663	-0.000821593	  -6.94478	-0.000802644	  -6.94478	  -20.0661	
  -6.79139	-0.000811294	  -6.79594	-0.00077207	  -6.81052	-0.000819864	  -6.79928	-0.000801076	  -6.79928	  -20.0269	
  -6.64615	-0.000809854	  -6.64991	-0.000770603	  -6.66455	-0.000818324	  -6.65354	-0.000799594	  -6.65354	  -19.9898	
  -6.50074	-0.000808514	  -6.50393	-0.000769141	  -6.51855	-0.000817013	  -6.50774	-0.000798223	  -6.50774	  -19.9556	
  -6.35535	-0.000807208	  -6.35751	-0.000767701	  -6.37307	-0.00081582	  -6.36198	-0.000796909	  -6.36198	  -19.9227	
   -6.2095	-0.000805834	  -6.21155	-0.00076627	  -6.22755	-0.000814552	   -6.2162	-0.000795552	   -6.2162	  -19.8888	
  -6.06374	-0.000804302	  -6.06517	-0.000764819	  -6.08184	-0.000813051	  -6.07025	-0.000794057	  -6.07025	  -19.8514	
  -5.91723	-0.000802606	  -5.91894	-0.000763309	  -5.93547	-0.000811281	  -5.92388	-0.000792399	  -5.92388	    -19.81	
  -5.77022	-0.000800807	  -5.77303	-0.000761707	  -5.78834	-0.000809345	   -5.7772	-0.00079062	   -5.7772	  -19.7655	
  -5.62295	-0.000799011	  -5.62692	-0.000760043	  -5.64137	-0.000807421	  -5.63042	-0.000788825	  -5.63042	  -19.7206	
  -5.47461	-0.000797299	  -5.48014	-0.000758313	  -5.49476	-0.000805656	  -5.48317	-0.000787089	  -5.48317	  -19.6772	
  -5.32616	-0.000795676	  -5.33293	-0.000756555	  -5.34694	-0.00080408	  -5.33534	-0.000785437	  -5.33534	  -19.6359	
  -5.17781	-0.000794081	  -5.18551	-0.000754802	   -5.1989	-0.000802593	  -5.18741	-0.000783825	  -5.18741	  -19.5956	
  -5.02974	-0.000792419	   -5.0381	-0.0007531	  -5.05052	-0.000801026	  -5.03945	-0.000782182	  -5.03945	  -19.5545	
  -4.88042	-0.000790616	   -4.8902	-0.000751455	  -4.90166	-0.000799253	  -4.89076	-0.000780441	  -4.89076	   -19.511	
  -4.73049	-0.000788661	  -4.74239	-0.000749809	  -4.75327	-0.000797237	  -4.74205	-0.000778569	  -4.74205	  -19.4642	
  -4.58022	-0.000786611	  -4.59384	-0.000748101	  -4.60445	-0.000795062	  -4.59283	-0.000776591	  -4.59283	  -19.4148	
   -4.4305	-0.000784546	  -4.44547	-0.000746296	  -4.45546	-0.000792863	  -4.44381	-0.000774568	  -4.44381	  -19.3642	
  -4.28047	-0.000782537	  -4.29714	-0.000744386	  -4.30684	-0.000790769	  -4.29482	-0.000772564	  -4.29482	  -19.3141	
  -4.13036	-0.000780611	  -4.14904	-0.000742465	  -4.15807	-0.000788639	  -4.14582	-0.000770572	  -4.14582	  -19.2643	
  -3.97969	-0.000778759	  -4.00031	-0.000740557	  -4.00869	-0.000786567	  -3.99623	-0.000768627	  -3.99623	  -19.2157	
  -3.82905	-0.000776882	  -3.85188	-0.000738632	  -3.85927	-0.000784534	  -3.84674	-0.000766683	  -3.84674	  -19.1671	
  -3.67866	-0.00077488	  -3.70258	-0.000736656	  -3.71003	-0.000782466	  -3.69709	-0.000764667	  -3.69709	  -19.1167	
  -3.52868	-0.000772711	    -3.553	-0.000734592	  -3.56114	-0.000780302	  -3.54761	-0.000762535	  -3.54761	  -19.0634	
  -3.37792	-0.000770417	  -3.40338	-0.000732456	  -3.41177	-0.000778006	  -3.39769	-0.000760293	  -3.39769	  -19.0073	
