# User: ACHyster
# File name: C:/ACHYSTER/ACHyster SENS/SHAMS/CoFe2O4-1gl-water-60 Glycerol-Sens-08-03-2023/CoFe2O4-1gl-water-60 Glycerol- 10_100F- 12 kAm -Sens-08-03-20230007#1.txt
# Saved at: mi. mar. 8 13:04:37 2023
# Hyster Loop (3 iterations). Intensity: 12.0 kA/m; Tuned frequency: 101.8 kHz
# Units x axis: (kA/m)
# Units y axis: "Repeats y" & "Average y" (10^(-3)Am^2); "Mass avg y" (Am^2/kg)
# Magnetic mass: 4e-05 g
# Parameter      	Repeat   1	Repeat   2	Repeat   3	Average   	Sigma     
# H_C (kA/m)     	       7.6	       7.7	       7.6	       7.6	       0.1
# M_R (Am^2/kg)  	       5.0	       5.2	       4.9	       5.1	       0.1
# M_max (Am^2/kg)	       6.2	       6.2	       6.1	       6.2	       0.1
# Area (mJ/kg)   	     232.8	     239.7	     225.3	     232.6	       5.9
# SAR (W/g)      	      23.7	      24.4	      22.9	      23.7	       0.6
#Repeat 1 x	Repeat 1 y	Repeat 2 x	Repeat 2 y	Repeat 3 x	Repeat 3 y	Average x 	Average y 	Mass avg x 	Mass avg y 
  -1.87226	-0.000232825	   -1.8631	-0.000244262	  -1.86089	-0.000227291	  -1.86542	-0.000234793	  -1.86542	  -5.86982	
  -1.79744	-0.00023192	  -1.78831	-0.000242994	  -1.78634	-0.000226165	   -1.7907	-0.000233693	   -1.7907	  -5.84233	
  -1.72259	-0.000230934	  -1.71353	-0.000241723	  -1.71177	-0.000225045	  -1.71597	-0.000232568	  -1.71597	  -5.81419	
  -1.64755	-0.000229837	  -1.63859	-0.00024046	  -1.63705	-0.000223919	  -1.64106	-0.000231406	  -1.64106	  -5.78514	
  -1.57237	-0.00022862	  -1.56355	-0.000239215	   -1.5622	-0.000222773	  -1.56604	-0.000230203	  -1.56604	  -5.75508	
  -1.49709	-0.000227289	  -1.48864	-0.000238006	  -1.48748	-0.000221602	  -1.49107	-0.000228966	  -1.49107	  -5.72414	
  -1.42158	-0.000225861	  -1.41379	-0.000236834	  -1.41253	-0.000220404	  -1.41597	-0.0002277	  -1.41597	  -5.69249	
  -1.34608	-0.000224368	  -1.33894	-0.000235693	  -1.33759	-0.000219169	  -1.34087	-0.00022641	  -1.34087	  -5.66025	
  -1.27062	-0.000222851	  -1.26413	-0.000234568	  -1.26269	-0.000217897	  -1.26581	-0.000225105	  -1.26581	  -5.62763	
  -1.19506	-0.000221344	  -1.18919	-0.000233442	  -1.18769	-0.000216593	  -1.19065	-0.000223793	  -1.19065	  -5.59483	
  -1.11962	-0.000219881	  -1.11437	-0.000232299	  -1.11262	-0.000215271	  -1.11554	-0.000222484	  -1.11554	  -5.56209	
  -1.04396	-0.000218489	  -1.03931	-0.00023111	  -1.03762	-0.000213938	   -1.0403	-0.000221179	   -1.0403	  -5.52947	
 -0.968328	-0.000217174	 -0.964252	-0.00022986	 -0.962631	-0.000212605	  -0.96507	-0.00021988	  -0.96507	  -5.49699	
 -0.892658	-0.000215933	 -0.889432	-0.000228538	 -0.887593	-0.000211292	 -0.889895	-0.000218588	 -0.889895	  -5.46469	
 -0.816899	-0.000214749	 -0.814483	-0.000227138	 -0.812451	-0.000210001	 -0.814611	-0.000217296	 -0.814611	   -5.4324	
 -0.741289	-0.000213598	 -0.739642	-0.000225666	 -0.737152	-0.000208736	 -0.739361	 -0.000216	 -0.739361	      -5.4	
  -0.66547	-0.000212448	 -0.664554	-0.000224133	 -0.661652	-0.00020749	 -0.663892	-0.000214691	 -0.663892	  -5.36727	
 -0.589691	-0.000211268	 -0.589466	-0.000222554	 -0.586195	-0.000206256	 -0.588451	-0.000213359	 -0.588451	  -5.33398	
 -0.514179	-0.000210036	  -0.51461	-0.000220955	 -0.510433	-0.000205015	 -0.513074	-0.000212002	 -0.513074	  -5.30005	
 -0.438568	-0.000208726	 -0.439617	-0.000219365	 -0.434621	-0.000203751	 -0.437602	-0.000210614	 -0.437602	  -5.26536	
 -0.363097	-0.00020733	 -0.364729	-0.000217809	 -0.358706	-0.000202459	 -0.362178	-0.000209199	 -0.362178	  -5.22999	
 -0.287411	-0.000205849	 -0.289784	-0.000216303	 -0.282643	-0.000201129	 -0.286613	-0.00020776	 -0.286613	    -5.194	
 -0.211758	-0.000204291	 -0.214823	-0.000214856	 -0.206674	-0.000199754	 -0.211085	-0.000206301	 -0.211085	  -5.15751	
 -0.135982	-0.000202674	 -0.139692	-0.000213471	 -0.130833	-0.000198342	 -0.135502	-0.000204829	 -0.135502	  -5.12072	
-0.0601321	-0.000201025	-0.0644412	-0.000212133	-0.0549573	-0.000196899	-0.0598435	-0.000203352	-0.0598435	  -5.08381	
 0.0155544	-0.000199379	 0.0106903	-0.000210827	 0.0209104	-0.000195434	 0.0157184	-0.00020188	 0.0157184	    -5.047	
 0.0914358	-0.00019776	 0.0860589	-0.000209534	 0.0969246	-0.000193964	 0.0914731	-0.000200419	 0.0914731	  -5.01048	
  0.167265	-0.00019619	  0.161416	-0.000208225	  0.172842	-0.0001925	  0.167174	-0.000198972	  0.167174	  -4.97429	
  0.243102	-0.000194688	  0.236819	-0.000206878	  0.248725	-0.000191053	  0.242882	-0.000197539	  0.242882	  -4.93848	
  0.319003	-0.000193251	  0.312324	-0.000205474	  0.324634	-0.000189628	  0.318654	-0.000196117	  0.318654	  -4.90294	
  0.394733	-0.000191873	  0.387692	-0.000203999	  0.400526	-0.000188229	  0.394317	-0.0001947	  0.394317	  -4.86751	
  0.470359	-0.000190538	  0.462704	-0.00020245	  0.476554	-0.000186851	  0.469872	-0.00019328	  0.469872	  -4.83199	
  0.545947	-0.000189217	  0.537732	-0.000200832	  0.552666	-0.000185483	  0.545448	-0.000191844	  0.545448	   -4.7961	
  0.621844	-0.000187884	  0.612547	-0.000199159	  0.628719	-0.000184116	  0.621037	-0.000190386	  0.621037	  -4.75966	
  0.697603	-0.000186513	  0.687513	-0.000197451	  0.704775	-0.000182732	   0.69663	-0.000188899	   0.69663	  -4.72247	
  0.773195	-0.000185079	  0.762388	-0.000195732	  0.780602	-0.000181323	  0.772062	-0.000187378	  0.772062	  -4.68445	
  0.848979	-0.000183566	  0.837529	-0.000194024	  0.856176	-0.000179874	  0.847562	-0.000185821	  0.847562	  -4.64553	
  0.924709	-0.000181968	  0.912685	-0.000192345	  0.931673	-0.000178382	  0.923022	-0.000184232	  0.923022	  -4.60579	
   1.00035	-0.000180296	  0.987816	-0.000190711	   1.00687	-0.000176839	  0.998344	-0.000182615	  0.998344	  -4.56538	
   1.07606	-0.000178564	   1.06308	-0.000189126	   1.08213	-0.000175252	   1.07376	-0.000180981	   1.07376	  -4.52452	
    1.1516	-0.000176799	   1.13824	-0.000187586	   1.15722	-0.00017363	   1.14902	-0.000179339	   1.14902	  -4.48347	
   1.22715	-0.000175033	   1.21326	-0.000186082	   1.23232	-0.00017198	   1.22424	-0.000177699	   1.22424	  -4.44247	
   1.30265	-0.000173293	    1.2883	-0.0001846	   1.30737	-0.000170323	   1.29944	-0.000176072	   1.29944	   -4.4018	
   1.37808	-0.000171602	   1.36334	-0.000183117	   1.38216	-0.000168671	   1.37453	-0.000174463	   1.37453	  -4.36158	
   1.45359	-0.000169971	   1.43822	-0.000181614	   1.45706	-0.000167034	   1.44962	-0.000172873	   1.44962	  -4.32183	
   1.52895	-0.000168405	   1.51304	-0.000180074	   1.53201	-0.000165419	   1.52467	-0.0001713	   1.52467	  -4.28249	
   1.60451	-0.00016689	   1.58785	-0.00017848	   1.60689	-0.000163828	   1.59975	-0.000169733	   1.59975	  -4.24332	
   1.68004	-0.000165403	   1.66271	-0.000176824	   1.68175	-0.000162256	   1.67483	-0.000168161	   1.67483	  -4.20402	
   1.75529	-0.000163915	   1.73739	-0.000175104	   1.75637	-0.000160694	   1.74968	-0.000166571	   1.74968	  -4.16428	
   1.83065	-0.000162399	   1.81225	-0.000173327	   1.83112	-0.000159131	   1.82467	-0.000164952	   1.82467	  -4.12381	
   1.90586	-0.000160829	   1.88706	-0.000171505	   1.90576	-0.000157551	   1.89956	-0.000163295	   1.89956	  -4.08238	
   1.98072	-0.000159189	   1.96187	-0.000169654	   1.98036	-0.000155942	   1.97431	-0.000161595	   1.97431	  -4.03987	
    2.0554	-0.00015747	   2.03654	-0.000167797	   2.05497	-0.000154295	   2.04897	-0.000159854	   2.04897	  -3.99635	
   2.12989	-0.00015568	   2.11106	-0.000165952	   2.12938	-0.000152603	   2.12344	-0.000158078	   2.12344	  -3.95195	
   2.20415	-0.000153837	    2.1854	-0.000164133	   2.20356	-0.000150864	    2.1977	-0.000156278	    2.1977	  -3.90695	
   2.27837	-0.000151966	   2.25973	-0.00016235	   2.27768	-0.000149078	   2.27193	-0.000154465	   2.27193	  -3.86162	
   2.35232	-0.000150096	   2.33383	-0.000160602	   2.35153	-0.000147247	   2.34589	-0.000152648	   2.34589	  -3.81621	
   2.42638	-0.000148256	   2.40806	-0.000158887	   2.42548	-0.000145378	   2.41997	-0.00015084	   2.41997	    -3.771	
   2.50031	-0.000146463	   2.48219	-0.000157189	   2.49929	-0.000143492	   2.49393	-0.000149048	   2.49393	   -3.7262	
   2.57418	-0.000144725	   2.55599	-0.000155495	   2.57304	-0.000141617	   2.56774	-0.000147279	   2.56774	  -3.68197	
   2.64806	-0.000143046	   2.62985	-0.00015378	   2.64679	-0.00013977	   2.64157	-0.000145532	   2.64157	   -3.6383	
   2.72173	-0.000141417	   2.70354	-0.000152023	   2.72032	-0.000137967	    2.7152	-0.000143802	    2.7152	  -3.59506	
   2.79526	-0.000139807	   2.77713	-0.000150219	   2.79371	-0.000136226	    2.7887	-0.000142084	    2.7887	   -3.5521	
   2.86872	-0.000138198	   2.85068	-0.000148353	   2.86704	-0.00013455	   2.86215	-0.000140367	   2.86215	  -3.50917	
    2.9419	-0.000136572	   2.92399	-0.00014643	   2.94008	-0.000132929	   2.93532	-0.000138644	   2.93532	  -3.46609	
   3.01517	-0.0001349	   2.99742	-0.000144455	   3.01321	-0.000131341	    3.0086	-0.000136899	    3.0086	  -3.42247	
   3.08831	-0.000133166	   3.07073	-0.000142437	    3.0862	-0.000129766	   3.08175	-0.000135123	   3.08175	  -3.37808	
   3.16128	-0.000131366	   3.14391	-0.000140396	   3.15903	-0.000128173	   3.15474	-0.000133312	   3.15474	   -3.3328	
   3.23426	-0.000129506	   3.21712	-0.000138352	   3.23188	-0.000126538	   3.22775	-0.000131466	   3.22775	  -3.28664	
   3.30704	-0.00012759	   3.29014	-0.000136324	    3.3047	-0.000124837	   3.30063	-0.000129584	   3.30063	  -3.23959	
   3.37998	-0.000125633	   3.36276	-0.000134327	   3.37739	-0.000123051	   3.37338	-0.00012767	   3.37338	  -3.19176	
   3.45284	-0.00012367	   3.43518	-0.000132369	   3.44981	-0.000121178	   3.44595	-0.000125739	   3.44595	  -3.14347	
   3.52542	-0.000121709	   3.50738	-0.000130456	   3.52198	-0.000119227	   3.51826	-0.000123797	   3.51826	  -3.09493	
   3.59788	-0.000119768	   3.57973	-0.000128583	   3.59425	-0.000117214	   3.59062	-0.000121855	   3.59062	  -3.04638	
   3.67022	-0.000117866	     3.652	-0.000126739	    3.6664	-0.000115177	   3.66287	-0.000119928	   3.66287	  -2.99819	
   3.74222	-0.000116003	   3.72398	-0.000124914	   3.73822	-0.000113156	    3.7348	-0.000118024	    3.7348	  -2.95061	
   3.81406	-0.000114174	   3.79585	-0.000123094	   3.80989	-0.000111162	    3.8066	-0.000116144	    3.8066	  -2.90359	
   3.88575	-0.000112373	   3.86759	-0.000121273	   3.88142	-0.000109213	   3.87825	-0.000114286	   3.87825	  -2.85716	
   3.95744	-0.000110588	     3.939	-0.000119441	   3.95258	-0.000107335	   3.94967	-0.000112455	   3.94967	  -2.81137	
   4.02913	-0.000108802	   4.01016	-0.00011758	   4.02347	-0.000105526	   4.02092	-0.000110636	   4.02092	  -2.76589	
   4.10058	 -0.000107	   4.08118	-0.000115672	    4.0942	-0.000103773	   4.09199	-0.000108815	   4.09199	  -2.72037	
   4.17189	-0.000105174	   4.15213	-0.000113711	   4.16513	-0.00010205	   4.16305	-0.000106978	   4.16305	  -2.67446	
   4.24313	-0.000103309	    4.2229	-0.000111692	   4.23603	-0.000100341	   4.23402	-0.000105114	   4.23402	  -2.62785	
    4.3141	-0.000101398	   4.29348	-0.000109609	   4.30669	-9.86188e-05	   4.30476	-0.000103208	   4.30476	  -2.58021	
   4.38461	-9.94499e-05	   4.36366	-0.00010747	   4.37709	-9.6838e-05	   4.37512	-0.000101253	   4.37512	  -2.53131	
   4.45503	-9.74641e-05	   4.43327	-0.000105289	   4.44744	-9.49789e-05	   4.44525	-9.92441e-05	   4.44525	   -2.4811	
   4.52518	-9.54458e-05	   4.50214	-0.000103088	   4.51751	-9.30293e-05	   4.51494	-9.71879e-05	   4.51494	   -2.4297	
   4.59523	-9.341e-05	   4.57049	-0.000100891	   4.58731	-9.09891e-05	   4.58434	-9.50968e-05	   4.58434	  -2.37742	
   4.66518	-9.13689e-05	   4.63893	-9.87189e-05	   4.65703	-8.88779e-05	   4.65371	-9.29885e-05	   4.65371	  -2.32471	
     4.735	-8.93346e-05	   4.70724	-9.65895e-05	   4.72647	-8.67234e-05	    4.7229	-9.08825e-05	    4.7229	  -2.27206	
    4.8046	-8.73191e-05	   4.77522	-9.4516e-05	     4.796	-8.45604e-05	   4.79194	-8.87985e-05	   4.79194	  -2.21996	
   4.87407	-8.53368e-05	   4.84327	-9.25069e-05	   4.86542	-8.24199e-05	   4.86092	-8.67545e-05	   4.86092	  -2.16886	
    4.9432	-8.3385e-05	   4.91174	-9.05598e-05	   4.93479	-8.0337e-05	   4.92991	-8.47606e-05	   4.92991	  -2.11901	
   5.01181	-8.14643e-05	   4.98041	-8.86627e-05	   5.00403	-7.83421e-05	   4.99875	-8.2823e-05	   4.99875	  -2.07058	
    5.0803	-7.95714e-05	   5.04846	-8.67925e-05	    5.0731	-7.6437e-05	   5.06729	-8.09336e-05	   5.06729	  -2.02334	
   5.14849	-7.76936e-05	   5.11632	-8.49216e-05	   5.14182	-7.46271e-05	   5.13554	-7.90808e-05	   5.13554	  -1.97702	
   5.21675	-7.58179e-05	   5.18436	-8.30066e-05	   5.21058	-7.29036e-05	    5.2039	-7.72427e-05	    5.2039	  -1.93107	
   5.28459	-7.39313e-05	   5.25236	-8.10404e-05	   5.27917	-7.12361e-05	   5.27204	-7.54026e-05	   5.27204	  -1.88506	
   5.35211	-7.20245e-05	   5.32012	-7.90167e-05	   5.34739	-6.95871e-05	   5.33987	-7.35428e-05	   5.33987	  -1.83857	
   5.41973	-7.00849e-05	   5.38745	-7.69227e-05	   5.41534	-6.79151e-05	   5.40751	-7.16409e-05	   5.40751	  -1.79102	
   5.48721	-6.81014e-05	   5.45476	-7.47713e-05	   5.48313	-6.61902e-05	   5.47503	-6.96877e-05	   5.47503	  -1.74219	
   5.55436	-6.60701e-05	   5.52184	-7.25827e-05	   5.55057	-6.43732e-05	   5.54226	-6.76753e-05	   5.54226	  -1.69188	
    5.6214	-6.39973e-05	    5.5885	-7.03974e-05	   5.61805	-6.24546e-05	   5.60931	-6.56164e-05	   5.60931	  -1.64041	
   5.68831	-6.18886e-05	   5.65486	-6.82416e-05	   5.68536	-6.04314e-05	   5.67618	-6.35205e-05	   5.67618	  -1.58801	
    5.7549	-5.97627e-05	   5.72199	-6.61378e-05	   5.75232	-5.83245e-05	   5.74307	-6.14084e-05	   5.74307	  -1.53521	
   5.82128	-5.76378e-05	   5.78953	-6.41133e-05	   5.81931	-5.61687e-05	   5.81004	-5.93066e-05	   5.81004	  -1.48267	
   5.88756	-5.553e-05	   5.85638	-6.21793e-05	   5.88614	-5.39859e-05	   5.87669	-5.72318e-05	   5.87669	  -1.43079	
   5.95382	-5.34545e-05	   5.92267	-6.03221e-05	   5.95261	-5.18111e-05	   5.94303	-5.51959e-05	   5.94303	   -1.3799	
   6.01986	-5.14239e-05	    5.9894	-5.8515e-05	   6.01884	-4.96991e-05	   6.00937	-5.32127e-05	   6.00937	  -1.33032	
    6.0858	-4.94473e-05	   6.05642	-5.67269e-05	   6.08473	-4.76654e-05	   6.07565	-5.12799e-05	   6.07565	    -1.282	
   6.15143	-4.75192e-05	   6.12226	-5.49094e-05	   6.15031	-4.5711e-05	   6.14133	-4.93799e-05	   6.14133	   -1.2345	
   6.21676	-4.5635e-05	    6.1871	-5.30333e-05	   6.21558	-4.38474e-05	   6.20648	-4.75052e-05	   6.20648	  -1.18763	
   6.28202	-4.3783e-05	   6.25255	-5.10643e-05	   6.28076	-4.20664e-05	   6.27178	-4.56379e-05	   6.27178	  -1.14095	
     6.347	-4.19409e-05	   6.31836	-4.89941e-05	   6.34566	-4.03356e-05	     6.337	-4.37569e-05	     6.337	  -1.09392	
   6.41152	-4.00836e-05	   6.38286	-4.68248e-05	    6.4101	-3.8602e-05	   6.40149	-4.18368e-05	   6.40149	  -1.04592	
   6.47601	-3.81899e-05	   6.44624	-4.45672e-05	   6.47449	-3.68465e-05	   6.46558	-3.98679e-05	   6.46558	 -0.996697	
   6.54027	-3.6239e-05	   6.51041	-4.22629e-05	   6.53865	-3.50377e-05	   6.52978	-3.78465e-05	   6.52978	 -0.946163	
   6.60412	-3.42207e-05	   6.57483	-3.99481e-05	   6.60239	-3.31167e-05	   6.59378	-3.57619e-05	   6.59378	 -0.894046	
    6.6674	-3.2133e-05	   6.63814	-3.76531e-05	   6.66614	-3.10886e-05	   6.65722	-3.36249e-05	   6.65722	 -0.840623	
   6.73053	-2.9981e-05	    6.7005	-3.54172e-05	   6.72968	-2.8968e-05	   6.72024	-3.14554e-05	   6.72024	 -0.786385	
   6.79333	-2.77956e-05	   6.76363	-3.32712e-05	   6.79286	-2.6765e-05	   6.78327	-2.92773e-05	   6.78327	 -0.731933	
   6.85564	-2.55974e-05	   6.82718	-3.12171e-05	   6.85549	-2.45105e-05	    6.8461	-2.71083e-05	    6.8461	 -0.677708	
   6.91789	-2.33943e-05	   6.88948	-2.92457e-05	   6.91802	-2.22535e-05	   6.90846	-2.49645e-05	   6.90846	 -0.624113	
   6.97987	-2.12194e-05	   6.95073	-2.73464e-05	   6.98024	-2.00297e-05	   6.97028	-2.28651e-05	   6.97028	 -0.571629	
   7.04144	-1.91012e-05	   7.01226	-2.54974e-05	   7.04201	-1.7863e-05	    7.0319	-2.08206e-05	    7.0319	 -0.520514	
   7.10242	-1.7037e-05	   7.07415	-2.3653e-05	   7.10345	-1.57859e-05	   7.09334	-1.88253e-05	   7.09334	 -0.470633	
   7.16288	-1.50245e-05	   7.13532	-2.17777e-05	   7.16449	-1.38164e-05	   7.15423	-1.68729e-05	   7.15423	 -0.421822	
   7.22304	-1.307e-05	   7.19564	-1.98453e-05	   7.22518	-1.19373e-05	   7.21462	-1.49509e-05	   7.21462	 -0.373772	
   7.28295	-1.11522e-05	   7.25595	-1.78321e-05	   7.28555	-1.01313e-05	   7.27482	-1.30385e-05	   7.27482	 -0.325963	
   7.34283	-9.22836e-06	   7.31627	-1.57339e-05	   7.34553	-8.3738e-06	   7.33488	-1.1112e-05	   7.33488	 -0.277801	
   7.40249	-7.29522e-06	   7.37582	-1.35547e-05	   7.40527	-6.61363e-06	   7.39453	-9.15451e-06	   7.39453	 -0.228863	
   7.46177	-5.34176e-06	   7.43468	-1.13032e-05	   7.46459	-4.81474e-06	   7.45368	-7.15323e-06	   7.45368	 -0.178831	
   7.52052	-3.33064e-06	   7.49368	-8.99702e-06	   7.52335	-2.95231e-06	   7.51252	-5.09332e-06	   7.51252	 -0.127333	
   7.57898	-1.24391e-06	   7.55302	-6.6611e-06	   7.58199	-1.0062e-06	   7.57133	-2.9704e-06	   7.57133	-0.0742601	
    7.6372	8.98619e-07	   7.61211	-4.3215e-06	   7.64034	1.0386e-06	   7.62988	-7.94762e-07	   7.62988	 -0.019869	
     7.695	3.08695e-06	   7.67058	-1.99007e-06	   7.69824	3.16661e-06	   7.68794	1.42116e-06	   7.68794	  0.035529	
   7.75255	5.3194e-06	    7.7288	3.15928e-07	   7.75584	5.35082e-06	   7.74573	3.66205e-06	   7.74573	 0.0915512	
   7.80995	7.55666e-06	   7.78689	2.5802e-06	   7.81328	7.56954e-06	   7.80338	5.90213e-06	   7.80338	  0.147553	
   7.86707	9.76865e-06	   7.84439	4.80178e-06	   7.87039	9.77932e-06	   7.86062	8.11658e-06	   7.86062	  0.202915	
   7.92373	1.1952e-05	   7.90128	6.98274e-06	   7.92722	1.19404e-05	   7.91741	1.02917e-05	   7.91741	  0.257293	
   7.98009	1.40832e-05	   7.95819	9.12981e-06	    7.9837	1.40227e-05	   7.97399	1.24119e-05	   7.97399	  0.310298	
     8.036	1.61417e-05	   8.01524	1.12637e-05	   8.03998	1.60003e-05	   8.03041	1.44686e-05	   8.03041	  0.361715	
   8.09162	1.81389e-05	   8.07195	1.34007e-05	   8.09591	1.78619e-05	   8.08649	1.64672e-05	   8.08649	  0.411679	
   8.14679	2.00896e-05	   8.12817	1.55519e-05	   8.15135	1.96221e-05	    8.1421	1.84212e-05	    8.1421	   0.46053	
   8.20197	2.20019e-05	   8.18417	1.77272e-05	   8.20654	2.13115e-05	   8.19756	2.03468e-05	   8.19756	  0.508671	
   8.25698	2.39011e-05	   8.23997	1.99357e-05	   8.26152	2.29644e-05	   8.25282	2.22671e-05	   8.25282	  0.556677	
   8.31166	2.58201e-05	   8.29542	2.21768e-05	   8.31616	2.4624e-05	   8.30775	2.4207e-05	   8.30775	  0.605174	
   8.36589	2.7776e-05	   8.35038	2.44394e-05	    8.3703	2.63409e-05	   8.36219	2.61854e-05	   8.36219	  0.654636	
    8.4197	2.97787e-05	    8.4051	2.67132e-05	   8.42402	2.81512e-05	   8.41627	2.82144e-05	   8.41627	  0.705359	
   8.47337	3.18487e-05	   8.45963	2.89824e-05	   8.47756	3.00775e-05	   8.47019	3.03029e-05	   8.47019	  0.757571	
   8.52674	3.39844e-05	   8.51382	3.12268e-05	   8.53078	3.21319e-05	   8.52378	3.24477e-05	   8.52378	  0.811193	
   8.57966	3.61726e-05	   8.56753	3.34293e-05	   8.58354	3.43068e-05	   8.57691	3.46363e-05	   8.57691	  0.865906	
    8.6324	3.84074e-05	     8.621	3.55786e-05	   8.63609	3.65759e-05	   8.62983	3.68539e-05	   8.62983	  0.921348	
   8.68499	4.06716e-05	    8.6743	3.76647e-05	    8.6882	3.88999e-05	    8.6825	3.90787e-05	    8.6825	  0.976968	
   8.73729	4.29341e-05	   8.72727	3.96909e-05	   8.74003	4.12347e-05	   8.73486	4.12866e-05	   8.73486	   1.03216	
   8.78917	4.51724e-05	   8.77977	4.16745e-05	   8.79144	4.35281e-05	   8.78679	4.34583e-05	   8.78679	   1.08646	
   8.84049	4.73757e-05	   8.83197	4.36331e-05	   8.84231	4.5737e-05	   8.83826	4.55819e-05	   8.83826	   1.13955	
   8.89153	4.95248e-05	   8.88403	4.55893e-05	   8.89272	4.78319e-05	   8.88943	4.76487e-05	   8.88943	   1.19122	
   8.94235	5.16112e-05	   8.93578	4.75717e-05	   8.94293	4.97955e-05	   8.94036	4.96595e-05	   8.94036	   1.24149	
   8.99281	5.36487e-05	   8.98711	4.96061e-05	   8.99281	5.16311e-05	   8.99091	5.16286e-05	   8.99091	   1.29072	
   9.04277	5.56458e-05	   9.03788	5.17103e-05	   9.04223	5.33601e-05	   9.04096	5.35721e-05	   9.04096	    1.3393	
   9.09252	5.76145e-05	   9.08818	5.3893e-05	   9.09107	5.50218e-05	   9.09059	5.55098e-05	   9.09059	   1.38774	
   9.14211	5.95815e-05	   9.13798	5.6154e-05	   9.13952	5.66618e-05	   9.13987	5.74657e-05	   9.13987	   1.43664	
    9.1914	6.15663e-05	   9.18746	5.84798e-05	   9.18775	5.83271e-05	   9.18887	5.94577e-05	   9.18887	   1.48644	
   9.24027	6.3579e-05	    9.2365	6.08468e-05	   9.23563	6.00635e-05	   9.23747	6.14964e-05	   9.23747	   1.53741	
   9.28859	6.56274e-05	   9.28498	6.32225e-05	   9.28305	6.18995e-05	   9.28554	6.35831e-05	   9.28554	   1.58958	
   9.33665	6.77177e-05	   9.33298	6.5569e-05	   9.33007	6.38528e-05	   9.33323	6.57132e-05	   9.33323	   1.64283	
   9.38451	6.98463e-05	   9.38079	6.78555e-05	   9.37698	6.59255e-05	   9.38076	6.78758e-05	   9.38076	   1.69689	
   9.43204	7.2001e-05	   9.42826	7.00586e-05	   9.42364	6.8097e-05	   9.42798	7.00522e-05	   9.42798	   1.75131	
   9.47912	7.41728e-05	   9.47529	7.21681e-05	   9.46993	7.03327e-05	   9.47478	7.22245e-05	   9.47478	   1.80561	
   9.52565	7.63592e-05	   9.52177	7.41885e-05	   9.51574	7.25898e-05	   9.52105	7.43792e-05	   9.52105	   1.85948	
    9.5721	7.85587e-05	   9.56787	7.61335e-05	   9.56125	7.48234e-05	   9.56707	7.65052e-05	   9.56707	   1.91263	
   9.61814	8.07536e-05	   9.61379	7.8029e-05	   9.60643	7.69893e-05	   9.61279	7.85906e-05	   9.61279	   1.96477	
   9.66385	8.29107e-05	   9.65938	7.9907e-05	   9.65109	7.90557e-05	   9.65811	8.06245e-05	   9.65811	   2.01561	
   9.70913	8.50297e-05	   9.70454	8.1799e-05	   9.69541	8.1008e-05	   9.70303	8.26122e-05	   9.70303	   2.06531	
   9.75386	8.70948e-05	   9.74917	8.37304e-05	   9.73929	8.2846e-05	   9.74744	8.45571e-05	   9.74744	   2.11393	
   9.79824	8.90883e-05	   9.79316	8.57194e-05	   9.78263	8.45886e-05	   9.79134	8.64654e-05	   9.79134	   2.16164	
   9.84245	9.09978e-05	   9.83683	8.77748e-05	   9.82552	8.62839e-05	   9.83493	8.83522e-05	   9.83493	    2.2088	
   9.88666	9.2818e-05	   9.87995	8.98922e-05	   9.86825	8.80034e-05	   9.87829	9.02378e-05	   9.87829	   2.25595	
   9.93179	9.45709e-05	   9.92274	9.2057e-05	   9.91072	8.97637e-05	   9.92175	9.21306e-05	   9.92175	   2.30326	
   9.97714	9.62695e-05	   9.96509	9.42458e-05	    9.9528	9.15854e-05	   9.96501	9.40336e-05	   9.96501	   2.35084	
   10.0215	9.79367e-05	   10.0069	9.64261e-05	   9.99441	9.34937e-05	   10.0076	9.59522e-05	   10.0076	    2.3988	
   10.0653	9.95971e-05	   10.0484	9.85701e-05	   10.0357	9.54864e-05	   10.0498	9.78845e-05	   10.0498	   2.44711	
   10.1097	0.000101264	   10.0897	0.000100655	   10.0768	9.75518e-05	   10.0921	9.98237e-05	   10.0921	   2.49559	
   10.1542	0.000102966	   10.1308	0.000102667	   10.1176	9.96406e-05	   10.1342	0.000101758	   10.1342	   2.54395	
   10.1964	0.00010474	   10.1715	0.000104611	   10.1583	0.000101716	   10.1754	0.000103689	   10.1754	   2.59222	
   10.2371	0.000106598	   10.2117	0.00010649	      10.2	0.000103737	   10.2163	0.000105608	   10.2163	    2.6402	
    10.278	0.000108542	   10.2514	0.000108317	   10.2426	0.000105665	   10.2573	0.000107508	   10.2573	    2.6877	
   10.3193	0.000110569	   10.2905	0.00011011	   10.2843	0.000107484	    10.298	0.000109388	    10.298	   2.73469	
   10.3588	0.000112667	   10.3292	0.000111897	   10.3245	0.000109188	   10.3375	0.000111251	   10.3375	   2.78126	
   10.3964	0.000114807	   10.3676	0.000113704	   10.3654	0.000110777	   10.3765	0.000113096	   10.3765	   2.82741	
   10.4333	0.000116959	   10.4058	0.000115543	   10.4067	0.000112292	   10.4153	0.000114932	   10.4153	   2.87329	
     10.47	0.000119095	   10.4435	0.000117425	    10.446	0.000113788	   10.4531	0.000116769	   10.4531	   2.91923	
   10.5055	0.000121175	   10.4808	0.000119359	   10.4832	0.000115319	   10.4898	0.000118618	   10.4898	   2.96545	
   10.5404	0.000123175	   10.5175	0.000121341	   10.5204	0.000116929	   10.5261	0.000120482	   10.5261	   3.01204	
   10.5753	0.00012509	   10.5538	0.000123348	   10.5584	0.00011866	   10.5625	0.000122366	   10.5625	   3.05915	
   10.6104	0.000126912	   10.5897	0.000125374	   10.5949	0.000120542	   10.5983	0.000124276	   10.5983	    3.1069	
   10.6449	0.000128646	   10.6247	0.000127397	   10.6291	0.000122574	   10.6329	0.000126206	   10.6329	   3.15514	
    10.679	0.000130316	   10.6595	0.000129393	   10.6626	0.000124736	    10.667	0.000128148	    10.667	   3.20371	
   10.7128	0.00013195	    10.694	0.000131352	    10.696	0.000126983	   10.7009	0.000130095	   10.7009	   3.25237	
   10.7469	0.000133576	    10.728	0.000133264	   10.7288	0.000129256	   10.7346	0.000132032	   10.7346	    3.3008	
   10.7806	0.000135225	   10.7616	0.00013513	   10.7604	0.000131498	   10.7675	0.000133951	   10.7675	   3.34877	
    10.814	0.000136936	   10.7948	0.00013695	   10.7922	0.000133657	   10.8003	0.000135848	   10.8003	   3.39619	
   10.8474	0.000138714	   10.8277	0.000138729	    10.824	0.000135686	    10.833	0.00013771	    10.833	   3.44275	
   10.8807	0.000140559	   10.8601	0.000140483	   10.8556	0.000137555	   10.8654	0.000139532	   10.8654	   3.48831	
    10.913	0.000142466	   10.8923	0.00014222	   10.8864	0.000139261	   10.8973	0.000141316	   10.8973	   3.53289	
   10.9448	0.000144409	   10.9243	0.000143959	   10.9171	0.00014082	   10.9287	0.000143062	   10.9287	   3.57656	
   10.9765	0.000146358	   10.9559	0.000145715	   10.9477	0.000142267	   10.9601	0.00014478	   10.9601	   3.61951	
   11.0084	0.000148281	   10.9871	0.000147496	   10.9781	0.000143655	   10.9912	0.000146477	   10.9912	   3.66193	
   11.0394	0.000150148	   11.0178	0.000149309	    11.008	0.000145037	   11.0217	0.000148165	   11.0217	   3.70412	
   11.0697	0.000151931	    11.048	0.000151155	   11.0379	0.000146465	   11.0519	0.00014985	   11.0519	   3.74626	
   11.0997	0.000153606	   11.0776	0.000153024	   11.0678	0.000147981	   11.0817	0.000151537	   11.0817	   3.78843	
   11.1294	0.00015518	   11.1065	0.000154909	   11.0969	0.000149618	   11.1109	0.000153236	   11.1109	    3.8309	
   11.1583	0.000156657	   11.1354	0.000156798	   11.1253	0.000151385	   11.1397	0.000154947	   11.1397	   3.87367	
   11.1863	0.000158059	   11.1636	0.000158676	   11.1535	0.000153267	   11.1678	0.000156667	   11.1678	   3.91669	
   11.2142	0.000159428	   11.1914	0.000160526	   11.1817	0.00015524	   11.1958	0.000158398	   11.1958	   3.95995	
   11.2417	0.000160801	    11.219	0.00016234	   11.2093	0.000157261	   11.2233	0.000160134	   11.2233	   4.00336	
   11.2688	0.00016223	   11.2461	0.000164109	    11.236	0.000159281	   11.2503	0.000161873	   11.2503	   4.04684	
   11.2953	0.000163757	    11.273	0.000165827	   11.2622	0.00016125	   11.2768	0.000163611	   11.2768	   4.09028	
   11.3213	0.000165406	   11.2993	0.000167496	    11.288	0.000163123	   11.3029	0.000165342	   11.3029	   4.13354	
   11.3468	0.000167188	   11.3252	0.00016912	   11.3131	0.000164876	   11.3284	0.000167061	   11.3284	   4.17653	
   11.3718	0.000169091	   11.3506	0.000170708	   11.3376	0.000166499	   11.3533	0.000168766	   11.3533	   4.21915	
   11.3959	0.000171094	   11.3754	0.000172278	   11.3617	0.000168001	   11.3777	0.000170458	   11.3777	   4.26145	
   11.4195	0.000173145	   11.3996	0.000173847	   11.3856	0.000169408	   11.4016	0.000172133	   11.4016	   4.30334	
   11.4424	0.000175186	   11.4235	0.000175429	   11.4093	0.000170758	    11.425	0.000173791	    11.425	   4.34478	
    11.465	0.000177161	   11.4467	0.000177032	   11.4326	0.000172101	   11.4481	0.000175431	   11.4481	   4.38578	
   11.4876	0.000179016	   11.4695	0.000178663	   11.4552	0.000173482	   11.4707	0.000177054	   11.4707	   4.42634	
     11.51	0.000180722	   11.4918	0.000180319	   11.4775	0.000174939	   11.4931	0.00017866	   11.4931	    4.4665	
   11.5321	0.00018226	   11.5139	0.000181993	   11.4994	0.000176495	   11.5151	0.00018025	   11.5151	   4.50624	
    11.554	0.000183649	   11.5355	0.000183677	   11.5209	0.000178154	   11.5368	0.000181827	   11.5368	   4.54566	
   11.5756	0.000184928	   11.5567	0.000185357	    11.542	0.000179907	   11.5581	0.000183397	   11.5581	   4.58494	
   11.5972	0.000186136	   11.5773	0.000187018	   11.5628	0.000181737	   11.5791	0.000184964	   11.5791	    4.6241	
   11.6184	0.000187331	   11.5977	0.000188649	   11.5833	0.000183607	   11.5998	0.000186529	   11.5998	   4.66322	
   11.6391	0.000188591	   11.6177	0.000190241	   11.6035	0.000185477	   11.6201	0.000188103	   11.6201	   4.70257	
   11.6589	0.000189955	   11.6373	0.00019179	   11.6233	0.000187312	   11.6398	0.000189686	   11.6398	   4.74214	
   11.6783	0.000191444	   11.6565	0.000193299	   11.6428	0.000189089	   11.6592	0.000191277	   11.6592	   4.78194	
   11.6971	0.000193078	   11.6753	0.000194777	   11.6619	0.00019079	   11.6781	0.000192882	   11.6781	   4.82204	
   11.7152	0.00019485	   11.6936	0.000196236	   11.6805	0.000192404	   11.6964	0.000194497	   11.6964	   4.86242	
   11.7329	0.000196719	   11.7114	0.000197688	   11.6986	0.000193945	   11.7143	0.000196117	   11.7143	   4.90293	
   11.7504	0.000198622	   11.7287	0.000199149	   11.7162	0.000195435	   11.7318	0.000197735	   11.7318	   4.94338	
   11.7673	0.000200518	   11.7455	0.000200632	   11.7334	0.000196901	   11.7487	0.00019935	   11.7487	   4.98376	
   11.7839	0.000202354	   11.7618	0.000202143	     11.75	0.00019838	   11.7652	0.000200959	   11.7652	   5.02398	
   11.8005	0.000204069	   11.7776	0.000203684	   11.7661	0.000199898	   11.7814	0.00020255	   11.7814	   5.06376	
   11.8167	0.000205647	   11.7928	0.000205251	   11.7817	0.000201466	   11.7971	0.000204121	   11.7971	   5.10303	
   11.8316	0.000207089	   11.8075	0.000206833	   11.7968	0.000203088	    11.812	0.00020567	    11.812	   5.14175	
   11.8462	0.000208403	   11.8216	0.000208416	   11.8113	0.000204754	   11.8263	0.000207191	   11.8263	   5.17978	
   11.8612	0.000209631	   11.8352	0.000209985	   11.8252	0.00020644	   11.8405	0.000208685	   11.8405	   5.21713	
   11.8755	0.000210828	   11.8483	0.000211523	   11.8386	0.000208112	   11.8541	0.000210154	   11.8541	   5.25386	
   11.8882	0.000212038	   11.8608	0.00021302	   11.8515	0.00020974	   11.8668	0.000211599	   11.8668	   5.28999	
   11.9005	0.000213303	   11.8727	0.000214469	   11.8638	0.000211291	    11.879	0.000213021	    11.879	   5.32551	
   11.9128	0.000214662	   11.8841	0.000215868	   11.8756	0.000212739	   11.8908	0.000214423	   11.8908	   5.36057	
   11.9242	0.000216135	   11.8951	0.00021722	   11.8868	0.000214077	    11.902	0.000215811	    11.902	   5.39527	
   11.9344	0.000217711	   11.9054	0.000218538	   11.8976	0.000215311	   11.9125	0.000217187	   11.9125	   5.42967	
   11.9446	0.000219378	   11.9153	0.000219832	   11.9078	0.000216457	   11.9226	0.000218556	   11.9226	   5.46389	
    11.955	0.000221103	   11.9247	0.000221119	   11.9175	0.00021755	   11.9324	0.000219924	   11.9324	   5.49809	
   11.9646	0.000222836	   11.9336	0.000222416	   11.9267	0.00021863	   11.9416	0.000221294	   11.9416	   5.53235	
   11.9731	0.000224534	    11.942	0.000223734	   11.9355	0.000219739	   11.9502	0.000222669	   11.9502	   5.56672	
   11.9813	0.000226162	   11.9499	0.000225079	   11.9437	0.000220911	   11.9583	0.000224051	   11.9583	   5.60127	
   11.9896	0.000227686	   11.9574	0.000226454	   11.9515	0.000222171	   11.9662	0.000225437	   11.9662	   5.63592	
   11.9973	0.000229089	   11.9645	0.000227854	   11.9589	0.000223529	   11.9735	0.000226824	   11.9735	    5.6706	
    12.004	0.000230381	   11.9711	0.00022927	   11.9658	0.000224979	   11.9803	0.00022821	   11.9803	   5.70525	
   12.0103	0.000231579	   11.9773	0.000230687	   11.9723	 0.0002265	   11.9866	0.000229588	   11.9866	   5.73971	
   12.0164	0.000232709	   11.9831	0.000232091	   11.9784	0.000228056	   11.9926	0.000230952	   11.9926	    5.7738	
   12.0217	0.00023382	   11.9885	0.000233468	    11.984	0.000229605	   11.9981	0.000232298	   11.9981	   5.80744	
   12.0262	0.000234951	   11.9935	0.000234809	   11.9893	0.000231103	    12.003	0.000233621	    12.003	   5.84053	
   12.0303	0.00023613	   11.9982	0.000236107	   11.9943	0.000232511	   12.0076	0.000234916	   12.0076	    5.8729	
   12.0343	0.000237381	   12.0025	0.00023736	   11.9988	 0.0002338	   12.0119	0.00023618	   12.0119	   5.90451	
   12.0379	0.000238715	   12.0065	0.000238574	   12.0029	0.000234955	   12.0158	0.000237415	   12.0158	   5.93536	
   12.0406	0.000240121	   12.0102	0.000239756	   12.0066	0.000235981	   12.0191	0.000238619	   12.0191	   5.96548	
   12.0429	0.00024158	   12.0136	0.000240919	     12.01	0.000236899	   12.0222	0.000239799	   12.0222	   5.99498	
    12.045	0.000243071	   12.0164	0.000242075	   12.0131	0.000237742	   12.0248	0.000240963	   12.0248	   6.02407	
   12.0464	0.00024456	   12.0189	0.000243238	   12.0154	0.000238554	   12.0269	0.000242117	   12.0269	   6.05293	
   12.0473	0.00024601	   12.0209	0.00024442	   12.0172	0.000239384	   12.0285	0.000243271	   12.0285	   6.08179	
    12.048	0.000247396	   12.0223	0.000245623	   12.0184	0.000240278	   12.0296	0.000244432	   12.0296	   6.11081	
   12.0483	0.000248697	    12.023	0.000246851	   12.0192	0.000241267	   12.0302	0.000245605	   12.0302	   6.14013	
   12.0478	0.000249905	   12.0231	0.000248102	   12.0193	0.00024237	   12.0301	0.000246792	   12.0301	   6.16981	
   12.0467	0.000251028	   12.0227	0.000249361	   12.0188	0.000243586	   12.0294	0.000247992	   12.0294	   6.19979	
   12.0453	0.000252088	   12.0216	0.00025062	   12.0176	0.000244897	   12.0282	0.000249202	   12.0282	   6.23004	
   12.0435	0.000253107	     12.02	0.000251868	    12.016	0.000246271	   12.0265	0.000250415	   12.0265	   6.26039	
   12.0411	0.000254108	   12.0179	0.000253088	   12.0139	0.000247677	   12.0243	0.000251624	   12.0243	   6.29061	
   12.0383	0.00025512	   12.0153	0.000254271	   12.0113	0.00024908	   12.0216	0.000252823	   12.0216	   6.32058	
    12.035	0.000256173	   12.0123	0.000255412	   12.0083	0.000250431	   12.0185	0.000254006	   12.0185	   6.35014	
   12.0313	0.000257286	    12.009	0.000256517	    12.005	0.000251679	   12.0151	0.000255161	   12.0151	   6.37902	
   12.0272	0.000258458	   12.0053	0.00025759	   12.0013	0.000252802	   12.0113	0.000256283	   12.0113	   6.40708	
   12.0227	0.000259687	   12.0011	0.000258642	   11.9972	0.000253783	    12.007	0.000257371	    12.007	   6.43426	
   12.0179	0.00026096	   11.9967	0.00025968	   11.9928	0.00025462	   12.0025	0.00025842	   12.0025	    6.4605	
   12.0128	0.000262261	   11.9919	0.000260707	   11.9881	0.000255335	   11.9976	0.000259434	   11.9976	   6.48585	
   12.0073	0.000263561	   11.9864	0.00026173	   11.9826	0.000255961	   11.9921	0.000260418	   11.9921	   6.51044	
   12.0011	0.000264829	   11.9801	0.000262752	   11.9764	0.000256547	   11.9859	0.000261376	   11.9859	    6.5344	
   11.9944	0.000266051	   11.9733	0.000263772	   11.9697	0.000257136	   11.9791	0.00026232	   11.9791	   6.55799	
   11.9874	0.000267203	    11.966	0.000264791	   11.9627	0.000257771	    11.972	0.000263255	    11.972	   6.58137	
   11.9799	0.000268273	   11.9582	0.000265808	   11.9552	0.000258481	   11.9644	0.000264188	   11.9644	   6.60469	
   11.9719	0.000269264	     11.95	0.000266822	   11.9474	0.000259282	   11.9564	0.000265123	   11.9564	   6.62806	
   11.9635	0.000270175	   11.9414	0.000267825	   11.9391	0.000260186	    11.948	0.000266062	    11.948	   6.65155	
   11.9547	0.000271026	   11.9326	0.000268816	   11.9305	0.000261188	   11.9393	0.00026701	   11.9393	   6.67525	
   11.9452	0.000271833	   11.9231	0.000269791	   11.9215	0.000262259	     11.93	0.000267961	     11.93	   6.69903	
   11.9356	0.000272629	   11.9132	0.000270746	    11.912	0.000263366	   11.9203	0.000268914	   11.9203	   6.72284	
   11.9253	0.000273437	   11.9032	0.000271684	   11.9018	0.000264465	   11.9101	0.000269862	   11.9101	   6.74655	
   11.9144	0.000274272	   11.8928	0.000272606	    11.891	0.000265519	   11.8994	0.000270799	   11.8994	   6.76997	
   11.9029	0.000275154	   11.8818	0.000273509	   11.8796	0.000266497	   11.8881	0.00027172	   11.8881	     6.793	
   11.8909	0.000276088	   11.8701	0.000274389	   11.8678	0.000267373	   11.8763	0.000272617	   11.8763	   6.81542	
   11.8785	0.000277067	   11.8579	0.000275246	   11.8555	0.00026814	    11.864	0.000273485	    11.864	   6.83711	
   11.8657	0.000278081	   11.8455	0.000276091	    11.843	0.000268798	   11.8514	0.000274323	   11.8514	   6.85808	
   11.8526	0.00027911	   11.8324	0.000276929	   11.8299	0.000269366	   11.8383	0.000275135	   11.8383	   6.87838	
   11.8391	0.000280127	   11.8186	0.000277763	   11.8164	0.000269873	   11.8247	0.000275921	   11.8247	   6.89803	
   11.8252	 0.0002811	   11.8047	0.000278599	   11.8023	0.00027035	   11.8107	0.000276683	   11.8107	   6.91708	
   11.8106	0.00028201	   11.7908	0.000279443	   11.7875	0.000270832	   11.7963	0.000277429	   11.7963	   6.93571	
   11.7954	0.000282841	   11.7763	 0.0002803	   11.7723	0.000271357	   11.7813	0.000278166	   11.7813	   6.95415	
   11.7798	0.000283585	   11.7612	0.000281168	   11.7567	0.000271947	   11.7659	 0.0002789	   11.7659	   6.97249	
   11.7638	0.000284251	   11.7456	0.000282043	   11.7407	0.000272615	     11.75	0.000279636	     11.75	   6.99091	
   11.7473	0.000284857	   11.7298	0.000282928	   11.7241	0.000273361	   11.7337	0.000280382	   11.7337	   7.00954	
   11.7306	0.000285425	   11.7134	0.000283805	   11.7071	0.000274169	    11.717	0.000281133	    11.717	   7.02832	
   11.7134	0.000285984	   11.6964	0.000284665	   11.6894	0.000275017	   11.6997	0.000281889	   11.6997	   7.04722	
    11.696	0.000286567	   11.6787	0.000285498	   11.6712	0.000275873	   11.6819	0.000282646	   11.6819	   7.06615	
    11.678	0.000287198	   11.6608	0.00028629	   11.6525	0.000276707	   11.6638	0.000283398	   11.6638	   7.08496	
   11.6596	0.00028789	   11.6425	0.000287034	   11.6335	0.000277491	   11.6452	0.000284138	   11.6452	   7.10345	
   11.6408	0.00028865	   11.6235	0.000287727	   11.6139	0.000278203	   11.6261	0.00028486	   11.6261	    7.1215	
   11.6217	0.000289473	   11.6043	0.000288387	   11.5941	0.000278834	   11.6067	0.000285564	   11.6067	   7.13911	
   11.6018	0.000290338	   11.5846	0.000289026	   11.5737	0.000279388	   11.5867	0.000286251	   11.5867	   7.15627	
   11.5815	0.000291225	   11.5644	0.000289659	    11.553	0.000279878	   11.5663	0.000286921	   11.5663	   7.17302	
   11.5606	0.000292103	   11.5435	0.000290307	   11.5318	0.000280327	   11.5453	0.000287579	   11.5453	   7.18948	
   11.5392	0.000292943	   11.5223	0.000290991	   11.5102	0.000280762	   11.5239	0.000288232	   11.5239	    7.2058	
   11.5175	0.000293725	   11.5007	0.000291718	   11.4883	0.000281207	   11.5022	0.000288883	   11.5022	   7.22208	
   11.4955	0.00029443	   11.4786	0.000292498	    11.466	0.000281685	   11.4801	0.000289538	   11.4801	   7.23845	
   11.4734	0.000295054	   11.4558	0.000293323	   11.4431	0.000282212	   11.4574	0.000290196	   11.4574	   7.25491	
   11.4506	0.000295601	   11.4324	0.000294171	   11.4196	0.000282793	   11.4342	0.000290855	   11.4342	   7.27137	
   11.4272	0.000296083	   11.4086	0.000295019	   11.3957	0.000283418	   11.4105	0.000291507	   11.4105	   7.28767	
   11.4034	0.000296523	   11.3844	0.000295838	   11.3714	0.000284075	   11.3864	0.000292146	   11.3864	   7.30364	
   11.3793	0.000296944	   11.3598	0.000296601	    11.347	0.000284741	    11.362	0.000292762	    11.362	   7.31905	
    11.355	0.00029737	   11.3347	0.000297284	   11.3222	0.00028539	   11.3373	0.000293348	   11.3373	    7.3337	
   11.3301	0.000297824	   11.3094	0.000297873	   11.2968	0.000285997	   11.3121	0.000293898	   11.3121	   7.34745	
   11.3047	0.000298317	   11.2836	0.000298364	   11.2709	0.000286543	   11.2864	0.000294408	   11.2864	    7.3602	
   11.2787	0.000298859	   11.2574	0.000298763	   11.2446	0.000287019	   11.2603	0.00029488	   11.2603	   7.37201	
   11.2525	0.000299447	    11.231	0.000299094	   11.2179	0.000287424	   11.2338	0.000295322	   11.2338	   7.38304	
    11.226	0.000300071	   11.2043	0.000299384	   11.1907	0.000287771	    11.207	0.000295742	    11.207	   7.39355	
   11.1989	0.000300716	   11.1774	0.000299662	   11.1629	0.000288077	   11.1797	0.000296152	   11.1797	   7.40379	
   11.1713	0.000301363	   11.1499	0.00029996	   11.1347	0.000288366	    11.152	0.000296563	    11.152	   7.41407	
   11.1432	0.000301991	    11.122	0.000300306	   11.1062	0.000288663	   11.1238	0.000296987	   11.1238	   7.42467	
   11.1147	0.000302581	   11.0937	0.000300716	   11.0775	0.000288996	   11.0953	0.000297431	   11.0953	   7.43577	
   11.0858	0.000303121	   11.0649	0.000301195	   11.0482	0.000289378	   11.0663	0.000297898	   11.0663	   7.44745	
   11.0566	 0.0003036	   11.0355	0.000301738	   11.0184	0.000289818	   11.0368	0.000298385	   11.0368	   7.45963	
   11.0267	0.000304021	   11.0055	0.000302324	   10.9882	0.00029031	   11.0068	0.000298885	   11.0068	   7.47212	
   10.9965	0.000304386	   10.9752	0.000302928	   10.9574	0.00029084	   10.9763	0.000299385	   10.9763	   7.48461	
   10.9659	 0.0003047	   10.9446	0.000303519	    10.926	0.000291382	   10.9455	0.000299867	   10.9455	   7.49668	
   10.9346	0.000304979	   10.9133	0.000304063	   10.8941	0.00029191	    10.914	0.000300317	    10.914	   7.50793	
   10.9026	0.000305243	   10.8815	0.000304531	   10.8619	0.000292393	    10.882	0.000300723	    10.882	   7.51807	
   10.8702	0.000305507	   10.8492	0.000304909	   10.8295	0.000292809	   10.8496	0.000301075	   10.8496	   7.52688	
   10.8375	0.000305791	   10.8166	0.000305193	   10.7965	0.000293143	   10.8169	0.000301376	   10.8169	   7.53439	
   10.8042	0.000306114	   10.7837	0.000305388	   10.7631	0.000293391	   10.7836	0.000301631	   10.7836	   7.54078	
   10.7705	0.000306489	   10.7502	0.000305517	   10.7291	0.00029356	   10.7499	0.000301855	   10.7499	   7.54639	
   10.7363	0.000306921	   10.7162	0.000305615	   10.6948	0.000293669	   10.7158	0.000302068	   10.7158	   7.55171	
   10.7018	0.000307411	   10.6816	0.000305716	   10.6603	0.000293744	   10.6812	0.00030229	   10.6812	   7.55726	
   10.6669	0.000307951	   10.6464	0.000305855	   10.6254	0.000293819	   10.6462	0.000302542	   10.6462	   7.56354	
   10.6313	0.000308523	   10.6109	0.00030606	   10.5903	0.000293923	   10.6108	0.000302835	   10.6108	   7.57088	
   10.5952	0.000309107	    10.575	0.000306349	   10.5547	0.000294085	    10.575	0.00030318	    10.575	   7.57951	
   10.5588	0.00030968	   10.5387	0.000306727	   10.5189	0.000294322	   10.5388	0.000303577	   10.5388	   7.58942	
   10.5221	0.00031021	   10.5023	0.000307182	   10.4826	0.000294639	   10.5023	0.00030401	   10.5023	   7.60026	
    10.485	0.00031067	   10.4656	0.000307689	   10.4459	0.000295028	   10.4655	0.000304462	   10.4655	   7.61156	
   10.4474	0.000311043	   10.4284	0.00030821	   10.4088	0.000295466	   10.4282	0.000304906	   10.4282	   7.62266	
   10.4094	0.000311317	   10.3909	0.000308707	   10.3714	0.000295924	   10.3906	0.000305316	   10.3906	   7.63289	
   10.3709	0.000311485	   10.3528	0.000309138	   10.3338	0.000296371	   10.3525	0.000305665	   10.3525	   7.64162	
   10.3318	0.00031156	   10.3146	0.000309469	   10.2958	0.000296777	   10.3141	0.000305935	   10.3141	   7.64838	
   10.2922	0.00031156	   10.2758	0.000309685	   10.2574	0.000297115	   10.2751	0.00030612	   10.2751	   7.65301	
   10.2523	0.000311511	   10.2367	0.000309782	   10.2186	0.000297365	   10.2359	0.000306219	   10.2359	   7.65548	
   10.2122	0.000311446	   10.1968	0.000309771	   10.1794	0.00029752	   10.1962	0.000306246	   10.1962	   7.65614	
   10.1718	0.000311401	   10.1566	0.000309697	   10.1396	0.00029759	    10.156	0.000306229	    10.156	   7.65573	
   10.1309	 0.0003114	   10.1159	0.00030959	   10.0994	0.000297586	   10.1154	0.000306192	   10.1154	    7.6548	
   10.0897	0.00031147	   10.0746	0.000309491	    10.059	0.000297539	   10.0744	0.000306167	   10.0744	   7.65417	
   10.0484	0.000311626	   10.0329	0.000309438	    10.018	0.000297479	   10.0331	0.000306181	   10.0331	   7.65453	
   10.0065	0.000311869	   9.99095	0.000309457	   9.97651	0.000297435	   9.99131	0.000306254	   9.99131	   7.65634	
   9.96418	0.000312183	   9.94862	0.000309569	   9.93465	0.000297433	   9.94915	0.000306395	   9.94915	   7.65988	
   9.92163	0.000312544	   9.90609	0.000309759	   9.89259	0.00029749	   9.90677	0.000306598	   9.90677	   7.66494	
   9.87861	0.000312917	   9.86291	0.000310012	   9.84989	0.000297612	    9.8638	0.000306847	    9.8638	   7.67118	
   9.83509	0.000313267	   9.81928	0.000310299	   9.80674	0.000297796	   9.82037	0.000307121	   9.82037	   7.67802	
   9.79123	0.000313561	   9.77536	0.000310578	   9.76329	0.000298026	   9.77663	0.000307388	   9.77663	   7.68471	
   9.74721	0.000313769	   9.73073	0.000310822	   9.71914	0.00029828	   9.73236	0.000307624	   9.73236	    7.6906	
   9.70278	0.000313868	   9.68558	0.000310996	   9.67446	0.000298527	   9.68761	0.000307797	   9.68761	   7.69492	
   9.65792	0.000313852	    9.6401	0.00031107	   9.62944	0.000298737	   9.64249	0.000307887	   9.64249	   7.69716	
    9.6126	0.000313728	   9.59444	0.000311039	   9.58425	0.000298887	    9.5971	0.000307885	    9.5971	   7.69712	
   9.56692	0.000313516	   9.54848	0.000310915	   9.53874	0.000298956	   9.55138	0.000307796	   9.55138	   7.69489	
   9.52074	0.000313247	   9.50208	0.000310718	   9.49279	0.000298938	    9.5052	0.000307634	    9.5052	   7.69085	
   9.47425	0.000312957	   9.45543	0.000310473	   9.44639	0.000298836	   9.45869	0.000307422	   9.45869	   7.68555	
   9.42732	0.000312683	   9.40869	0.000310224	   9.39961	0.000298664	   9.41187	0.000307191	   9.41187	   7.67976	
   9.38004	0.00031246	   9.36143	0.000310013	   9.35234	0.000298446	    9.3646	0.000306973	    9.3646	   7.67432	
   9.33238	0.000312308	   9.31384	0.000309866	   9.30476	0.000298206	   9.31699	0.000306793	   9.31699	   7.66983	
   9.28453	0.000312241	   9.26608	0.000309808	   9.25685	0.000297975	   9.26915	0.000306675	   9.26915	   7.66687	
   9.23635	0.000312258	   9.21774	0.000309847	    9.2084	0.000297777	   9.22083	0.000306628	   9.22083	   7.66569	
   9.18773	0.000312345	   9.16902	0.000309976	    9.1596	0.000297629	   9.17211	0.00030665	   9.17211	   7.66625	
   9.13885	0.000312479	   9.12008	0.000310175	   9.11062	0.000297542	   9.12318	0.000306732	   9.12318	    7.6683	
   9.08949	0.000312625	   9.07091	0.000310417	   9.06125	0.000297517	   9.07389	0.000306853	   9.07389	   7.67133	
   9.03966	0.000312754	   9.02129	0.000310663	   9.01147	0.000297544	   9.02414	0.000306987	   9.02414	   7.67468	
   8.98955	0.000312831	   8.97141	0.000310877	   8.96146	0.000297602	   8.97414	0.000307103	   8.97414	   7.67758	
   8.93893	0.000312828	   8.92124	0.000311019	   8.91102	0.000297671	   8.92373	0.000307173	   8.92373	   7.67931	
   8.88782	0.000312735	   8.87058	0.000311065	   8.86014	0.000297729	   8.87285	0.000307176	   8.87285	    7.6794	
   8.83642	0.000312553	   8.81963	0.000310998	   8.80881	0.000297755	   8.82162	0.000307102	   8.82162	   7.67755	
   8.78461	0.000312288	   8.76856	0.000310819	   8.75714	0.000297729	    8.7701	0.000306945	    8.7701	   7.67363	
   8.73248	0.000311954	   8.71695	0.000310542	   8.70502	0.000297641	   8.71815	0.000306712	   8.71815	   7.66781	
   8.68003	0.000311578	   8.66502	0.000310188	   8.65264	0.000297486	    8.6659	0.000306417	    8.6659	   7.66043	
   8.62745	0.000311192	   8.61255	0.000309797	    8.5998	0.000297269	   8.61327	0.000306086	   8.61327	   7.65215	
   8.57432	0.000310807	   8.55957	0.00030942	   8.54651	0.000296999	   8.56013	0.000305742	   8.56013	   7.64355	
   8.52086	0.000310455	   8.50626	0.000309088	   8.49296	0.000296688	    8.5067	0.00030541	    8.5067	   7.63526	
   8.46725	0.000310155	   8.45254	0.000308831	   8.43905	0.000296352	   8.45295	0.000305113	   8.45295	   7.62782	
   8.41338	0.000309916	    8.3983	0.000308685	   8.38469	0.000296009	   8.39879	0.00030487	   8.39879	   7.62175	
   8.35915	0.000309742	   8.34377	0.000308648	   8.33006	0.000295674	   8.34433	0.000304688	   8.34433	    7.6172	
   8.30475	0.000309614	   8.28911	0.000308704	   8.27509	0.000295353	   8.28965	0.000304557	   8.28965	   7.61393	
   8.24978	0.000309523	   8.23414	0.000308829	   8.21985	0.000295058	   8.23459	0.00030447	   8.23459	   7.61176	
   8.19446	0.000309449	   8.17884	0.000308979	   8.16407	0.000294797	   8.17912	0.000304408	   8.17912	   7.61021	
   8.13899	0.000309374	   8.12342	0.000309104	   8.10786	0.000294555	   8.12342	0.000304344	   8.12342	   7.60861	
   8.08296	0.00030928	   8.06776	0.000309161	   8.05152	0.00029433	   8.06741	0.000304257	   8.06741	   7.60643	
    8.0266	0.000309138	   8.01177	0.000309126	   7.99495	0.000294117	    8.0111	0.000304127	    8.0111	   7.60317	
    7.9701	0.000308944	   7.95564	0.00030897	   7.93804	0.000293887	   7.95459	0.000303933	   7.95459	   7.59834	
   7.91307	0.000308696	   7.89897	0.000308679	   7.88072	0.000293623	   7.89759	0.000303666	   7.89759	   7.59165	
   7.85572	0.000308389	   7.84199	0.000308267	   7.82318	0.00029332	    7.8403	0.000303325	    7.8403	   7.58313	
   7.79826	0.000308026	   7.78489	0.000307763	   7.76533	0.000292964	   7.78283	0.000302918	   7.78283	   7.57294	
   7.74028	0.000307612	   7.72728	0.000307198	   7.70709	0.000292546	   7.72489	0.000302452	   7.72489	   7.56131	
   7.68202	0.000307163	   7.66938	0.000306613	   7.64866	0.000292069	   7.66669	0.000301948	   7.66669	   7.54871	
   7.62347	0.000306691	   7.61138	0.00030605	   7.59024	0.00029154	   7.60836	0.000301427	   7.60836	   7.53567	
   7.56447	0.000306201	   7.55289	0.000305549	   7.53143	0.000290972	   7.54959	0.000300908	   7.54959	   7.52269	
   7.50521	0.000305714	   7.49413	0.000305138	   7.47225	0.000290372	   7.49053	0.000300408	   7.49053	   7.51021	
   7.44561	0.000305239	   7.43502	0.00030483	   7.41251	0.000289768	   7.43105	0.000299946	   7.43105	   7.49864	
    7.3856	0.000304789	   7.37547	0.000304619	   7.35246	0.000289182	   7.37118	0.00029953	   7.37118	   7.48825	
    7.3254	0.000304366	    7.3157	0.000304479	    7.2923	0.000288625	   7.31113	0.000299157	   7.31113	   7.47892	
    7.2648	0.000303966	   7.25552	0.000304382	   7.23164	0.000288108	   7.25065	0.000298819	   7.25065	   7.47047	
   7.20385	0.000303587	   7.19496	0.000304285	    7.1707	0.000287635	   7.18984	0.000298502	   7.18984	   7.46256	
   7.14274	0.000303221	   7.13424	0.000304141	   7.10941	0.000287198	    7.1288	0.000298187	    7.1288	   7.45467	
   7.08169	0.000302856	   7.07316	0.000303915	   7.04808	0.000286785	   7.06764	0.000297852	   7.06764	    7.4463	
   7.02029	0.000302483	   7.01174	0.00030358	   6.98651	0.000286387	   7.00618	0.000297483	   7.00618	   7.43708	
   6.95858	0.000302098	   6.95022	0.00030311	   6.92472	0.000285981	    6.9445	0.000297063	    6.9445	   7.42657	
   6.89637	0.000301689	   6.88848	0.000302512	   6.86253	0.000285548	   6.88246	0.000296583	   6.88246	   7.41458	
    6.8339	0.000301258	   6.82646	0.000301815	   6.80016	0.000285076	   6.82017	0.00029605	   6.82017	   7.40124	
   6.77139	0.000300801	   6.76378	0.00030105	   6.73725	0.000284553	   6.75747	0.000295468	   6.75747	    7.3867	
   6.70844	0.00030032	   6.70107	0.000300251	   6.67402	0.000283968	   6.69451	0.000294846	   6.69451	   7.37115	
   6.64499	0.000299815	   6.63814	0.000299474	   6.61069	0.000283317	   6.63128	0.000294202	   6.63128	   7.35505	
   6.58158	0.000299283	   6.57482	0.000298766	   6.54708	0.000282606	   6.56783	0.000293552	   6.56783	   7.33879	
    6.5178	0.000298726	   6.51114	0.000298146	   6.48322	0.000281854	   6.50405	0.000292908	   6.50405	   7.32271	
   6.45389	0.000298152	   6.44732	0.000297636	   6.41903	0.000281093	   6.44008	0.000292294	   6.44008	   7.30735	
   6.38947	0.000297579	   6.38357	0.000297238	   6.35463	0.000280356	   6.37589	0.000291724	   6.37589	    7.2931	
   6.32478	0.000297013	   6.31949	0.000296936	   6.29005	0.000279662	   6.31144	0.000291204	   6.31144	   7.28009	
   6.25985	0.000296462	   6.25532	0.000296684	   6.22511	0.000279031	   6.24676	0.000290726	   6.24676	   7.26815	
   6.19451	0.000295938	   6.19068	0.000296446	   6.15986	0.000278484	   6.18168	0.000290289	   6.18168	   7.25723	
    6.1288	0.000295448	   6.12599	0.00029618	   6.09412	0.000278018	   6.11631	0.000289882	   6.11631	   7.24705	
   6.06257	0.000294986	   6.06099	0.000295824	   6.02766	0.000277614	   6.05041	0.000289475	   6.05041	   7.23687	
   5.99548	0.000294538	   5.99559	0.000295352	   5.96064	0.000277244	    5.9839	0.000289045	    5.9839	   7.22612	
    5.9278	0.000294094	   5.93003	0.00029475	   5.89341	0.000276878	   5.91708	0.000288574	   5.91708	   7.21435	
   5.85999	0.00029364	   5.86453	0.000294018	   5.82608	0.000276476	    5.8502	0.000288045	    5.8502	   7.20112	
   5.79205	0.000293155	   5.79871	0.000293183	    5.7584	0.000276008	   5.78306	0.000287449	   5.78306	   7.18621	
   5.72393	0.000292618	   5.73279	0.000292281	   5.69031	0.000275452	   5.71568	0.000286784	   5.71568	   7.16959	
   5.65556	0.000292019	   5.66659	0.000291362	   5.62244	0.000274791	   5.64819	0.000286057	   5.64819	   7.15143	
   5.58774	0.000291344	   5.60014	0.000290465	   5.55516	0.000274028	   5.58101	0.000285279	   5.58101	   7.13198	
   5.52045	0.000290597	    5.5333	0.000289633	   5.48768	0.000273179	   5.51381	0.00028447	   5.51381	   7.11174	
   5.45289	0.00028979	   5.46609	0.000288901	   5.41945	0.000272272	   5.44614	0.000283654	   5.44614	   7.09136	
    5.3847	0.000288933	   5.39876	0.000288275	   5.35112	0.000271349	   5.37819	0.000282852	   5.37819	    7.0713	
   5.31674	0.000288068	   5.33123	0.000287749	    5.2831	0.000270454	   5.31035	0.00028209	   5.31035	   7.05226	
   5.24898	0.000287214	   5.26343	0.000287303	     5.215	0.000269617	   5.24247	0.000281378	   5.24247	   7.03445	
   5.18096	0.000286384	    5.1953	0.000286896	   5.14645	0.00026885	   5.17424	0.00028071	   5.17424	   7.01775	
    5.1126	0.000285588	   5.12699	0.000286485	   5.07771	0.00026818	   5.10577	0.000280084	   5.10577	   7.00211	
   5.04416	0.000284834	   5.05852	0.000286028	   5.00899	0.000267596	   5.03722	0.000279486	   5.03722	   6.98715	
   4.97564	0.000284116	   4.98992	0.000285488	   4.93993	0.000267069	   4.96849	0.000278891	   4.96849	   6.97228	
   4.90659	0.000283413	   4.92103	0.000284836	   4.87047	0.000266563	   4.89936	0.000278271	   4.89936	   6.95677	
   4.83699	0.000282709	   4.85208	0.000284063	   4.80115	0.000266048	   4.83007	0.000277607	   4.83007	   6.94017	
   4.76784	0.000281981	   4.78271	0.000283179	   4.73256	0.000265487	   4.76103	0.000276882	   4.76103	   6.92206	
   4.69943	0.000281202	   4.71316	0.000282201	   4.66417	0.000264837	   4.69225	0.00027608	   4.69225	     6.902	
   4.63084	0.00028035	   4.64328	0.000281162	   4.59512	0.000264089	   4.62308	 0.0002752	   4.62308	   6.88001	
   4.56135	0.000279422	   4.57312	0.000280106	   4.52615	0.000263239	   4.55354	0.000274255	   4.55354	   6.85638	
   4.49219	0.000278407	   4.50291	0.000279069	   4.45776	0.000262307	   4.48429	0.000273261	   4.48429	   6.83153	
   4.42345	0.000277319	   4.43258	0.000278086	   4.38924	0.000261322	   4.41509	0.000272242	   4.41509	   6.80605	
   4.35388	 0.0002762	   4.36207	0.00027718	   4.31938	0.000260322	   4.34511	0.000271234	   4.34511	   6.78085	
   4.28317	0.000275081	   4.29103	0.000276361	   4.24935	0.000259348	   4.27452	0.000270263	   4.27452	   6.75658	
   4.21278	0.000273991	   4.21971	0.000275622	   4.18025	0.000258423	   4.20425	0.000269345	   4.20425	   6.73363	
    4.1429	0.000272949	   4.14837	0.000274945	   4.11049	0.000257574	   4.13392	0.000268489	   4.13392	   6.71223	
   4.07226	0.000271967	   4.07692	0.000274302	   4.03918	0.00025681	   4.06279	0.000267693	   4.06279	   6.69232	
   4.00046	0.000271052	   4.00532	0.000273656	   3.96724	0.000256119	   3.99101	0.000266942	   3.99101	   6.67356	
   3.92907	0.000270188	   3.93378	0.000272972	   3.89666	0.000255488	   3.91984	0.000266216	   3.91984	    6.6554	
   3.85798	0.000269356	   3.86215	0.000272215	   3.82621	0.000254895	   3.84878	0.000265489	   3.84878	   6.63722	
   3.78624	0.000268534	   3.79016	0.000271363	   3.75455	0.000254299	   3.77698	0.000264732	   3.77698	   6.61831	
   3.71411	0.000267684	   3.71777	0.000270404	   3.68296	0.000253668	   3.70495	0.000263919	   3.70495	   6.59797	
   3.64299	0.000266781	   3.64525	0.000269342	   3.61243	0.000252966	   3.63356	0.00026303	   3.63356	   6.57574	
   3.57226	0.000265801	   3.57262	0.000268193	   3.54155	0.000252181	   3.56214	0.000262058	   3.56214	   6.55146	
   3.50028	0.000264734	   3.49973	0.000266982	   3.46921	0.000251298	   3.48974	0.000261005	   3.48974	   6.52512	
   3.42766	0.000263582	   3.42683	0.000265743	   3.39633	0.000250323	   3.41694	0.000259883	   3.41694	   6.49706	
   3.35523	0.00026235	   3.35385	0.00026451	   3.32404	0.000249276	   3.34437	0.000258712	   3.34437	    6.4678	
   3.28293	0.000261061	   3.28073	0.000263314	   3.25194	0.000248174	   3.27187	0.000257516	   3.27187	   6.43791	
    3.2099	0.00025974	   3.20771	0.000262177	   3.17917	0.000247052	   3.19893	0.000256323	   3.19893	   6.40808	
   3.13632	0.000258419	   3.13443	0.000261113	    3.1062	0.000245941	   3.12565	0.000255158	   3.12565	   6.37894	
   3.06315	0.000257119	   3.06114	0.000260123	   3.03347	0.000244871	   3.05258	0.000254038	   3.05258	   6.35095	
   2.98989	0.000255857	   2.98747	0.000259193	   2.96069	0.000243858	   2.97935	0.000252969	   2.97935	   6.32423	
   2.91611	0.000254643	   2.91368	0.000258298	   2.88723	0.000242911	   2.90567	0.000251951	   2.90567	   6.29877	
   2.84188	0.000253481	   2.83973	0.000257408	   2.81337	0.000242031	   2.83166	0.000250973	   2.83166	   6.27433	
   2.76803	0.000252365	   2.76575	0.000256486	   2.73993	0.000241204	    2.7579	0.000250019	    2.7579	   6.25046	
   2.69449	0.000251272	   2.69177	0.000255505	   2.66654	0.000240407	   2.68427	0.000249061	   2.68427	   6.22653	
   2.62057	0.000250181	   2.61765	0.00025444	   2.59265	0.00023961	   2.61029	0.000248077	   2.61029	   6.20193	
   2.54655	0.00024907	   2.54342	0.000253277	   2.51871	0.000238782	   2.53623	0.000247043	   2.53623	   6.17607	
   2.47264	0.000247908	   2.46904	0.000252016	   2.44495	0.000237897	   2.46221	0.00024594	   2.46221	   6.14851	
    2.3987	0.000246673	   2.39446	0.000250669	    2.3712	0.000236932	   2.38812	0.000244758	   2.38812	   6.11895	
   2.32417	0.000245363	   2.31991	0.00024926	   2.29693	0.000235876	   2.31367	 0.0002435	   2.31367	   6.08749	
   2.24952	0.00024398	   2.24505	0.000247815	   2.22238	0.000234728	   2.23898	0.000242174	   2.23898	   6.05436	
   2.17508	0.000242533	   2.17014	0.000246368	   2.14811	0.000233495	   2.16444	0.000240799	   2.16444	   6.01997	
   2.10059	0.000241046	    2.0952	0.000244952	   2.07383	0.000232203	   2.08987	 0.0002394	   2.08987	   5.98501	
   2.02589	0.000239544	   2.02009	0.000243586	   1.99911	0.000230879	   2.01503	0.000238003	   2.01503	   5.95007	
   1.95103	0.000238054	   1.94505	0.000242285	    1.9241	0.000229555	   1.94006	0.000236631	   1.94006	   5.91577	
   1.87645	0.000236594	   1.87002	0.000241052	   1.84945	0.000228267	   1.86531	0.000235304	   1.86531	    5.8826	
   1.80178	0.000235176	   1.79494	0.000239877	   1.77478	0.000227046	    1.7905	0.000234033	    1.7905	   5.85083	
   1.72669	0.000233809	   1.72004	0.000238743	   1.69974	0.000225916	   1.71549	0.000232822	   1.71549	   5.82056	
   1.65142	0.000232485	   1.64496	0.000237624	    1.6246	0.000224885	   1.64033	0.000231665	   1.64033	   5.79162	
   1.57623	0.000231199	   1.56995	0.000236492	   1.54959	0.00022394	   1.56526	0.000230544	   1.56526	   5.76359	
   1.50106	0.000229933	   1.49465	0.000235317	   1.47464	0.000223052	   1.49011	0.000229434	   1.49011	   5.73585	
   1.42564	0.000228661	   1.41951	0.00023408	    1.3995	0.000222183	   1.41488	0.000228308	   1.41488	    5.7077	
   1.34985	0.000227362	   1.34426	0.000232773	   1.32402	0.000221288	   1.33938	0.000227141	   1.33938	   5.67853	
   1.27434	0.000226023	   1.26886	0.000231393	   1.24846	0.000220316	   1.26389	0.00022591	   1.26389	   5.64776	
   1.19891	0.000224628	   1.19354	0.00022995	   1.17307	0.000219228	   1.18851	0.000224602	   1.18851	   5.61505	
   1.12323	0.000223175	   1.11835	0.00022846	   1.09766	0.000218007	   1.11308	0.000223214	   1.11308	   5.58035	
   1.04754	0.000221664	    1.0431	0.000226944	   1.02229	0.000216647	   1.03764	0.000221752	   1.03764	    5.5438	
  0.972074	0.000220105	  0.968048	0.000225429	  0.947177	0.000215164	  0.962433	0.000220233	  0.962433	   5.50581	
  0.896758	0.000218509	   0.89282	0.000223936	  0.871957	0.00021359	  0.887178	0.000218678	  0.887178	   5.46696	
  0.821237	0.000216896	  0.817661	0.000222483	  0.796869	0.000211979	  0.811922	0.000217119	  0.811922	   5.42798	
  0.745467	0.000215282	  0.742414	0.000221081	  0.721555	0.000210376	  0.736479	0.00021558	  0.736479	   5.38949	
  0.669699	0.00021368	  0.667122	0.000219731	  0.646264	0.000208822	  0.661028	0.000214078	  0.661028	   5.35194	
  0.593974	0.000212103	  0.592018	0.000218427	  0.571031	0.000207367	  0.585674	0.000212632	  0.585674	   5.31581	
  0.518135	0.000210557	   0.51674	0.000217153	  0.495698	0.00020603	  0.510191	0.000211247	  0.510191	   5.28117	
   0.44242	0.000209038	  0.441533	0.000215888	  0.420501	0.000204804	  0.434818	0.00020991	  0.434818	   5.24775	
  0.366766	0.000207541	  0.366332	0.000214604	  0.345083	0.000203675	  0.359394	0.000208606	  0.359394	   5.21516	
  0.291109	0.000206057	  0.291078	0.000213279	  0.269693	0.000202601	   0.28396	0.000207312	   0.28396	   5.18281	
  0.215105	0.000204575	  0.215718	0.000211899	   0.19427	0.00020154	  0.208364	0.000206005	  0.208364	   5.15012	
  0.139014	0.000203077	  0.140203	0.000210449	   0.11876	0.000200435	  0.132659	0.000204654	  0.132659	   5.11634	
 0.0630759	0.000201555	 0.0647752	0.000208926	 0.0434015	0.000199237	 0.0570842	0.000203239	 0.0570842	   5.08099	
-0.0127773	    0.0002	-0.0103411	0.000207343	-0.0315876	0.000197916	-0.0182353	0.000201753	-0.0182353	   5.04383	
-0.0886096	0.000198405	-0.0855175	0.000205714	 -0.106774	0.000196448	-0.0936339	0.000200189	-0.0936339	   5.00472	
 -0.164478	0.000196769	  -0.16052	0.000204054	 -0.181723	0.000194851	 -0.168907	0.000198558	 -0.168907	   4.96395	
 -0.240438	0.000195097	 -0.235709	0.000202389	   -0.2568	0.000193149	 -0.244316	0.000196878	 -0.244316	   4.92196	
  -0.31625	0.000193394	 -0.310841	0.000200745	 -0.331766	0.000191377	 -0.319619	0.000195172	 -0.319619	   4.87929	
 -0.392078	0.000191671	 -0.385881	0.000199144	 -0.406977	0.000189589	 -0.394979	0.000193468	 -0.394979	   4.83669	
 -0.467882	0.000189943	 -0.460994	0.000197591	 -0.482184	0.000187841	 -0.470353	0.000191792	 -0.470353	   4.79479	
 -0.543622	0.000188223	 -0.536518	0.000196087	 -0.557158	0.000186171	 -0.545766	0.00019016	 -0.545766	   4.75401	
 -0.619457	0.000186519	 -0.611904	0.000194623	 -0.632263	0.000184605	 -0.621208	0.000188582	 -0.621208	   4.71456	
 -0.695146	0.000184841	 -0.686835	0.000193186	 -0.707258	0.000183154	 -0.696413	0.00018706	 -0.696413	   4.67651	
 -0.771048	0.000183191	 -0.761789	0.000191753	 -0.782211	0.000181798	 -0.771682	0.000185581	 -0.771682	   4.63952	
 -0.846912	0.000181564	 -0.837401	 0.0001903	 -0.857185	0.000180509	 -0.847166	0.000184124	 -0.847166	   4.60311	
 -0.922512	0.000179956	 -0.912813	0.000188804	 -0.932236	0.000179251	  -0.92252	0.00018267	  -0.92252	   4.56676	
 -0.997922	0.000178359	 -0.987809	0.000187254	  -1.00742	0.000177985	 -0.997717	0.000181199	 -0.997717	   4.52999	
  -1.07322	0.000176761	  -1.06277	0.000185639	  -1.08269	0.000176671	  -1.07289	0.00017969	  -1.07289	   4.49226	
  -1.14847	0.000175153	  -1.13833	0.000183952	  -1.15789	0.000175284	  -1.14823	0.00017813	  -1.14823	   4.45324	
  -1.22373	0.000173526	  -1.21412	0.000182205	  -1.23311	0.000173806	  -1.22365	0.000176512	  -1.22365	   4.41281	
  -1.29877	0.000171871	  -1.28913	0.000180413	   -1.3081	0.000172232	  -1.29867	0.000174839	  -1.29867	   4.37097	
  -1.37377	0.000170185	  -1.36394	0.000178597	  -1.38304	0.000170568	  -1.37358	0.000173116	  -1.37358	   4.32791	
  -1.44869	0.000168468	   -1.4396	0.000176777	  -1.45789	0.000168834	  -1.44873	0.000171359	  -1.44873	   4.28399	
   -1.5235	0.000166726	  -1.51532	0.000174978	  -1.53263	0.000167061	  -1.52382	0.000169588	  -1.52382	   4.23971	
  -1.59836	0.000164965	  -1.59021	0.000173218	  -1.60742	0.000165276	  -1.59866	0.00016782	  -1.59866	    4.1955	
  -1.67305	0.000163198	  -1.66476	0.000171505	  -1.68202	0.000163515	  -1.67328	0.000166073	  -1.67328	   4.15181	
  -1.74791	0.000161438	  -1.73984	0.000169844	  -1.75652	 0.0001618	  -1.74809	0.000164361	  -1.74809	   4.10902	
  -1.82272	0.00015969	  -1.81545	0.000168228	  -1.83097	0.000160145	  -1.82305	0.000162688	  -1.82305	    4.0672	
  -1.89725	0.000157961	  -1.89038	0.000166645	  -1.90517	0.000158552	   -1.8976	0.000161053	   -1.8976	   4.02632	
  -1.97157	0.000156254	  -1.96482	0.000165075	  -1.97947	0.000157012	  -1.97195	0.000159447	  -1.97195	   3.98617	
  -2.04578	0.000154565	  -2.03974	0.000163496	  -2.05364	0.000155506	  -2.04639	0.000157855	  -2.04639	   3.94638	
  -2.11992	0.000152887	  -2.11487	0.000161887	  -2.12805	0.00015401	  -2.12095	0.000156262	  -2.12095	   3.90654	
  -2.19408	0.000151216	   -2.1894	0.000160232	  -2.20244	0.000152511	  -2.19531	0.000154653	  -2.19531	   3.86632	
  -2.26803	0.000149539	  -2.26371	0.000158518	  -2.27658	0.000150974	  -2.26944	0.00015301	  -2.26944	   3.82525	
  -2.34212	0.000147846	  -2.33836	0.00015674	  -2.35086	0.000149375	  -2.34378	0.00015132	  -2.34378	   3.78301	
  -2.41613	0.00014613	   -2.4132	0.000154905	  -2.42502	0.000147698	  -2.41812	0.000149578	  -2.41812	   3.73944	
  -2.48984	0.000144381	   -2.4875	0.000153028	  -2.49905	0.000145939	  -2.49213	0.000147782	  -2.49213	   3.69456	
  -2.56361	0.000142595	  -2.56127	0.00015113	  -2.57312	0.000144102	    -2.566	0.000145942	    -2.566	   3.64856	
  -2.63723	0.000140778	  -2.63519	0.000149231	  -2.64699	0.000142195	   -2.6398	0.000144068	   -2.6398	    3.6017	
  -2.71085	0.000138933	  -2.70931	0.000147355	  -2.72083	0.000140241	  -2.71366	0.000142176	  -2.71366	    3.5544	
  -2.78445	0.000137064	  -2.78281	0.000145515	  -2.79463	0.000138268	   -2.7873	0.000140282	   -2.7873	   3.50706	
  -2.85781	0.000135182	  -2.85591	0.00014372	  -2.86815	0.000136301	  -2.86062	0.000138401	  -2.86062	   3.46003	
    -2.931	0.00013329	  -2.92917	0.000141969	  -2.94148	0.000134363	  -2.93388	0.00013654	  -2.93388	   3.41351	
   -3.0041	0.000131386	  -3.00293	0.000140237	   -3.0147	0.000132479	  -3.00725	0.000134701	  -3.00725	   3.36752	
  -3.07719	0.000129479	  -3.07636	0.000138513	  -3.08759	0.000130662	  -3.08038	0.000132885	  -3.08038	   3.32212	
  -3.15033	0.000127582	  -3.14926	0.000136776	  -3.16034	0.00012891	  -3.15331	0.000131089	  -3.15331	   3.27723	
   -3.2233	0.000125692	  -3.22202	0.000135007	  -3.23293	0.000127221	  -3.22608	0.000129307	  -3.22608	   3.23267	
  -3.29626	0.00012382	  -3.29501	0.000133196	  -3.30554	0.000125574	  -3.29894	0.00012753	  -3.29894	   3.18825	
  -3.36919	0.000121967	   -3.3674	0.000131335	  -3.37814	0.000123945	  -3.37158	0.000125749	  -3.37158	   3.14373	
  -3.44187	0.000120141	  -3.43903	0.000129426	   -3.4505	0.000122309	   -3.4438	0.000123959	   -3.4438	   3.09897	
  -3.51429	0.000118339	   -3.5107	0.000127477	  -3.52261	0.000120639	  -3.51586	0.000122152	  -3.51586	   3.05379	
  -3.58662	0.000116557	  -3.58295	0.000125502	  -3.59466	0.000118914	  -3.58808	0.000120324	  -3.58808	   3.00811	
  -3.65867	0.00011479	  -3.65494	0.000123522	  -3.66681	0.000117121	  -3.66014	0.000118478	  -3.66014	   2.96194	
  -3.73051	0.000113029	  -3.72647	0.000121556	  -3.73875	0.000115253	  -3.73191	0.000116613	  -3.73191	   2.91531	
  -3.80223	0.000111268	  -3.79774	0.000119624	  -3.81055	0.000113317	  -3.80351	0.000114736	  -3.80351	    2.8684	
  -3.87391	0.000109503	  -3.86933	0.000117744	  -3.88201	0.000111331	  -3.87508	0.000112859	  -3.87508	   2.82149	
  -3.94543	0.000107723	  -3.94079	0.000115913	  -3.95351	0.00010932	  -3.94657	0.000110985	  -3.94657	   2.77463	
  -4.01677	0.000105912	  -4.01182	0.000114123	  -4.02483	0.000107315	  -4.01781	0.000109117	  -4.01781	   2.72792	
  -4.08793	0.000104066	  -4.08272	0.000112362	  -4.09577	0.000105351	  -4.08881	0.00010726	  -4.08881	   2.68149	
  -4.15879	0.000102183	  -4.15366	0.000110606	  -4.16671	0.000103457	  -4.15972	0.000105415	  -4.15972	   2.63538	
  -4.22946	0.000100259	  -4.22444	0.00010883	  -4.23745	0.000101638	  -4.23045	0.000103576	  -4.23045	   2.58939	
  -4.29992	9.82982e-05	  -4.29483	0.000107004	  -4.30796	9.99116e-05	   -4.3009	0.000101738	   -4.3009	   2.54345	
  -4.37035	9.63076e-05	  -4.36496	0.000105111	  -4.37815	9.82647e-05	  -4.37115	9.98943e-05	  -4.37115	   2.49736	
  -4.44056	9.42903e-05	   -4.4349	0.000103135	  -4.44812	9.66729e-05	  -4.44119	9.80326e-05	  -4.44119	   2.45082	
   -4.5109	9.22646e-05	  -4.50476	0.000101071	  -4.51768	9.51017e-05	  -4.51111	9.61457e-05	  -4.51111	   2.40364	
  -4.58097	9.02453e-05	  -4.57461	9.89266e-05	  -4.58721	9.35077e-05	  -4.58093	9.42265e-05	  -4.58093	   2.35566	
  -4.65077	8.8238e-05	  -4.64423	9.67209e-05	   -4.6565	9.18473e-05	   -4.6505	9.22687e-05	   -4.6505	   2.30672	
  -4.72048	8.62554e-05	  -4.71383	9.44797e-05	  -4.72537	9.00796e-05	  -4.71989	9.02715e-05	  -4.71989	   2.25679	
   -4.7901	8.43012e-05	  -4.78337	9.22311e-05	  -4.79421	8.81819e-05	  -4.78923	8.8238e-05	  -4.78923	   2.20595	
  -4.85941	8.2376e-05	  -4.85265	9.00075e-05	  -4.86282	8.61439e-05	  -4.85829	8.61758e-05	  -4.85829	    2.1544	
  -4.92853	8.04763e-05	  -4.92148	8.78364e-05	    -4.931	8.39751e-05	    -4.927	8.40959e-05	    -4.927	    2.1024	
  -4.99753	7.85975e-05	  -4.99026	8.57412e-05	  -4.99857	8.17108e-05	  -4.99546	8.20165e-05	  -4.99546	   2.05041	
  -5.06622	7.67292e-05	  -5.05879	8.37325e-05	  -5.06577	7.93988e-05	   -5.0636	7.99535e-05	   -5.0636	   1.99884	
    -5.135	7.48582e-05	  -5.12716	8.18046e-05	  -5.13319	7.70862e-05	  -5.13178	7.79163e-05	  -5.13178	   1.94791	
  -5.20364	7.29746e-05	  -5.19546	7.99437e-05	   -5.2004	7.48287e-05	  -5.19983	7.59157e-05	  -5.19983	   1.89789	
  -5.27194	7.10677e-05	   -5.2635	7.8129e-05	  -5.26713	7.2674e-05	  -5.26752	7.39569e-05	  -5.26752	   1.84892	
  -5.33991	6.91291e-05	  -5.33128	7.63214e-05	  -5.33408	7.06561e-05	  -5.33509	7.20355e-05	  -5.33509	   1.80089	
  -5.40776	6.71572e-05	  -5.39898	7.44836e-05	  -5.40159	6.87888e-05	  -5.40278	7.01432e-05	  -5.40278	   1.75358	
  -5.47529	6.51537e-05	  -5.46642	7.25981e-05	  -5.46941	6.70648e-05	  -5.47037	6.82722e-05	  -5.47037	    1.7068	
  -5.54289	6.31244e-05	   -5.5334	7.06277e-05	  -5.53733	6.54561e-05	  -5.53787	6.64027e-05	  -5.53787	   1.66007	
  -5.61035	6.10767e-05	  -5.60015	6.85546e-05	   -5.6053	6.39113e-05	  -5.60527	6.45142e-05	  -5.60527	   1.61286	
  -5.67748	5.90208e-05	  -5.66666	6.63875e-05	  -5.67351	6.23802e-05	  -5.67255	6.25961e-05	  -5.67255	    1.5649	
  -5.74438	5.69676e-05	  -5.73276	6.41424e-05	  -5.74173	6.08061e-05	  -5.73962	6.06387e-05	  -5.73962	   1.51597	
  -5.81116	5.49283e-05	  -5.79846	6.18432e-05	  -5.80975	5.91379e-05	  -5.80645	5.86364e-05	  -5.80645	   1.46591	
  -5.87762	5.29153e-05	  -5.86398	5.95213e-05	  -5.87737	5.73424e-05	  -5.87299	5.6593e-05	  -5.87299	   1.41483	
  -5.94377	5.09344e-05	  -5.92914	5.72254e-05	  -5.94462	5.53999e-05	  -5.93917	5.45199e-05	  -5.93917	     1.363	
  -6.00983	4.89816e-05	  -5.99433	5.49852e-05	   -6.0117	5.33145e-05	  -6.00529	5.24271e-05	  -6.00529	   1.31068	
  -6.07559	4.70521e-05	  -6.05937	5.28229e-05	  -6.07842	  5.11e-05	  -6.07113	5.0325e-05	  -6.07113	   1.25812	
  -6.14146	4.51364e-05	  -6.12406	5.07639e-05	  -6.14431	4.87825e-05	  -6.13661	4.82276e-05	  -6.13661	   1.20569	
  -6.20722	4.32202e-05	   -6.1888	4.88116e-05	  -6.20953	4.64114e-05	  -6.20185	4.61477e-05	  -6.20185	   1.15369	
  -6.27269	4.12882e-05	   -6.2534	4.69416e-05	  -6.27451	4.40494e-05	  -6.26687	4.4093e-05	  -6.26687	   1.10233	
  -6.33806	3.93278e-05	  -6.31767	4.51273e-05	  -6.33906	4.17419e-05	   -6.3316	4.20657e-05	   -6.3316	   1.05164	
  -6.40335	 3.733e-05	  -6.38172	4.3338e-05	  -6.40332	3.95336e-05	  -6.39613	4.00672e-05	  -6.39613	   1.00168	
  -6.46835	3.52928e-05	  -6.44567	4.1526e-05	  -6.46719	3.74569e-05	   -6.4604	3.80919e-05	   -6.4604	  0.952298	
  -6.53289	3.32159e-05	  -6.50933	3.96507e-05	  -6.53072	3.55181e-05	  -6.52431	3.61282e-05	  -6.52431	  0.903205	
   -6.5971	3.11039e-05	  -6.57252	3.76848e-05	  -6.59401	3.37047e-05	  -6.58788	3.41645e-05	  -6.58788	  0.854112	
   -6.6611	2.89684e-05	  -6.63548	3.5611e-05	   -6.6572	3.19902e-05	  -6.65126	3.21899e-05	  -6.65126	  0.804747	
   -6.7247	2.68279e-05	  -6.69822	3.34232e-05	  -6.72008	3.03389e-05	  -6.71433	3.01967e-05	  -6.71433	  0.754916	
  -6.78794	2.47034e-05	  -6.76056	3.11388e-05	  -6.78287	2.86983e-05	  -6.77713	2.81802e-05	  -6.77713	  0.704504	
  -6.85103	2.26073e-05	  -6.82293	2.87823e-05	  -6.84559	2.70157e-05	  -6.83985	2.61351e-05	  -6.83985	  0.653378	
   -6.9138	2.05515e-05	  -6.88514	2.63931e-05	  -6.90805	2.52534e-05	  -6.90233	2.4066e-05	  -6.90233	  0.601651	
  -6.97607	1.85418e-05	    -6.947	2.40239e-05	  -6.97036	2.33779e-05	  -6.96448	2.19812e-05	  -6.96448	   0.54953	
   -7.0379	1.65675e-05	  -7.00873	2.17215e-05	  -7.03226	2.13681e-05	   -7.0263	1.98857e-05	   -7.0263	  0.497142	
  -7.09949	1.46158e-05	  -7.07007	1.95205e-05	  -7.09396	1.92281e-05	  -7.08784	1.77881e-05	  -7.08784	  0.444703	
   -7.1607	1.26759e-05	  -7.13114	1.7446e-05	  -7.15529	1.69778e-05	  -7.14904	1.56999e-05	  -7.14904	  0.392498	
  -7.22136	1.0724e-05	  -7.19206	1.55137e-05	  -7.21638	1.46499e-05	  -7.20993	1.36292e-05	  -7.20993	   0.34073	
  -7.28189	8.73446e-06	  -7.25266	1.3699e-05	  -7.27736	1.22872e-05	  -7.27064	1.15736e-05	  -7.27064	  0.289339	
  -7.34214	6.69935e-06	  -7.31307	1.19688e-05	  -7.33804	9.94037e-06	  -7.33108	9.53616e-06	  -7.33108	  0.238404	
  -7.40194	4.61379e-06	  -7.37312	1.02913e-05	  -7.39826	7.64999e-06	  -7.39111	7.51838e-06	  -7.39111	  0.187959	
  -7.46152	2.47444e-06	  -7.43285	8.61037e-06	  -7.45789	5.44702e-06	  -7.45075	5.51061e-06	  -7.45075	  0.137765	
  -7.52091	2.90307e-07	  -7.49248	6.86842e-06	  -7.51734	3.35819e-06	  -7.51024	3.50564e-06	  -7.51024	  0.087641	
  -7.57994	-1.91723e-06	  -7.55184	5.0342e-06	  -7.57647	1.38567e-06	  -7.56942	1.50088e-06	  -7.56942	  0.037522	
  -7.63875	-4.12277e-06	  -7.61076	3.08148e-06	  -7.63511	-4.87133e-07	  -7.62821	-5.09473e-07	  -7.62821	-0.0127368	
  -7.69728	-6.30779e-06	  -7.66969	9.90241e-07	  -7.69351	-2.28815e-06	  -7.68682	-2.53523e-06	  -7.68682	-0.0633808	
  -7.75556	-8.45552e-06	  -7.72843	-1.23354e-06	  -7.75169	-4.05795e-06	  -7.74523	-4.58234e-06	  -7.74523	 -0.114558	
  -7.81362	-1.05496e-05	  -7.78683	-3.55863e-06	   -7.8095	-5.84042e-06	  -7.80332	-6.64954e-06	  -7.80332	 -0.166239	
   -7.8714	-1.25963e-05	  -7.84473	-5.94883e-06	   -7.8668	-7.67843e-06	  -7.86097	-8.74118e-06	  -7.86097	 -0.218529	
  -7.92874	-1.46009e-05	  -7.90228	-8.35772e-06	  -7.92401	-9.60638e-06	  -7.91834	-1.0855e-05	  -7.91834	 -0.271375	
  -7.98579	-1.65774e-05	  -7.95963	-1.07258e-05	  -7.98098	-1.16469e-05	  -7.97546	-1.29834e-05	  -7.97546	 -0.324585	
   -8.0424	-1.85533e-05	   -8.0166	-1.3012e-05	  -8.03754	-1.3805e-05	  -8.03218	-1.51234e-05	  -8.03218	 -0.378086	
  -8.09862	-2.05501e-05	  -8.07325	-1.51976e-05	  -8.09375	-1.60646e-05	  -8.08854	-1.72708e-05	  -8.08854	 -0.431769	
  -8.15469	-2.25867e-05	  -8.12953	-1.72555e-05	  -8.14985	-1.84017e-05	  -8.14469	-1.94146e-05	  -8.14469	 -0.485366	
  -8.21046	-2.46769e-05	  -8.18558	-1.91862e-05	  -8.20568	-2.07784e-05	  -8.20057	-2.15472e-05	  -8.20057	 -0.538679	
  -8.26578	-2.6827e-05	  -8.24124	-2.10134e-05	  -8.26108	-2.31482e-05	  -8.25604	-2.36629e-05	  -8.25604	 -0.591572	
   -8.3209	-2.90274e-05	  -8.29639	-2.27741e-05	  -8.31592	-2.54691e-05	  -8.31107	-2.57569e-05	  -8.31107	 -0.643922	
  -8.37586	-3.1265e-05	  -8.35146	-2.4505e-05	  -8.37066	-2.77067e-05	  -8.36599	-2.78256e-05	  -8.36599	 -0.695639	
   -8.4305	-3.35261e-05	   -8.4063	-2.62485e-05	  -8.42513	-2.98383e-05	  -8.42064	-2.9871e-05	  -8.42064	 -0.746774	
  -8.48468	-3.57771e-05	  -8.46076	-2.80581e-05	  -8.47919	-3.1857e-05	  -8.47488	-3.18974e-05	  -8.47488	 -0.797435	
  -8.53856	-3.7998e-05	  -8.51469	-2.99581e-05	  -8.53271	-3.37748e-05	  -8.52865	-3.39103e-05	  -8.52865	 -0.847758	
   -8.5919	-4.01797e-05	  -8.56837	-3.19636e-05	  -8.58575	-3.56189e-05	    -8.582	-3.59207e-05	    -8.582	 -0.898018	
  -8.64497	-4.2308e-05	  -8.62183	-3.40693e-05	  -8.63857	-3.7421e-05	  -8.63512	-3.79327e-05	  -8.63512	 -0.948318	
  -8.69763	-4.43793e-05	  -8.67493	-3.62532e-05	  -8.69104	-3.92207e-05	  -8.68787	-3.99511e-05	  -8.68787	 -0.998777	
  -8.74974	-4.64016e-05	  -8.72754	-3.84758e-05	  -8.74302	-4.1063e-05	   -8.7401	-4.19801e-05	   -8.7401	   -1.0495	
  -8.80157	-4.83956e-05	  -8.77992	-4.07001e-05	  -8.79458	-4.29823e-05	  -8.79202	-4.4026e-05	  -8.79202	  -1.10065	
  -8.85318	-5.03723e-05	  -8.83211	-4.28885e-05	  -8.84598	-4.50019e-05	  -8.84376	-4.60876e-05	  -8.84376	  -1.15219	
  -8.90443	-5.23482e-05	  -8.88398	-4.50066e-05	  -8.89707	-4.71313e-05	  -8.89516	-4.8162e-05	  -8.89516	  -1.20405	
  -8.95519	-5.43548e-05	  -8.93539	-4.70383e-05	  -8.94772	-4.93598e-05	   -8.9461	-5.0251e-05	   -8.9461	  -1.25627	
  -9.00553	-5.63947e-05	   -8.9864	-4.89854e-05	  -8.99801	-5.16632e-05	  -8.99665	-5.23478e-05	  -8.99665	  -1.30869	
  -9.05572	-5.84717e-05	    -9.037	-5.08567e-05	   -9.0479	-5.40053e-05	  -9.04687	-5.44446e-05	  -9.04687	  -1.36111	
  -9.10562	-6.05908e-05	  -9.08705	-5.26799e-05	  -9.09756	-5.63456e-05	  -9.09674	-5.65387e-05	  -9.09674	  -1.41347	
  -9.15509	-6.27412e-05	  -9.13655	-5.45004e-05	  -9.14686	-5.86431e-05	  -9.14617	-5.86283e-05	  -9.14617	  -1.46571	
  -9.20402	-6.49105e-05	  -9.18558	-5.63581e-05	  -9.19567	-6.08643e-05	  -9.19509	-6.0711e-05	  -9.19509	  -1.51777	
   -9.2525	-6.70822e-05	  -9.23403	-5.8297e-05	  -9.24389	-6.29879e-05	  -9.24347	-6.2789e-05	  -9.24347	  -1.56973	
  -9.30079	-6.92399e-05	  -9.28179	-6.03462e-05	  -9.29199	-6.50035e-05	  -9.29152	-6.48632e-05	  -9.29152	  -1.62158	
  -9.34876	-7.13664e-05	  -9.32877	-6.25107e-05	  -9.33983	-6.69172e-05	  -9.33912	-6.69314e-05	  -9.33912	  -1.67329	
   -9.3963	-7.34486e-05	  -9.37518	-6.47778e-05	  -9.38729	-6.87522e-05	  -9.38626	-6.89929e-05	  -9.38626	  -1.72482	
  -9.44329	-7.54836e-05	  -9.42121	-6.71215e-05	  -9.43425	-7.05408e-05	  -9.43292	-7.10486e-05	  -9.43292	  -1.77622	
  -9.48991	-7.74718e-05	  -9.46674	-6.94993e-05	  -9.48061	-7.23226e-05	  -9.47909	-7.30979e-05	  -9.47909	  -1.82745	
  -9.53634	-7.9415e-05	  -9.51188	-7.18525e-05	  -9.52665	-7.41357e-05	  -9.52496	-7.51344e-05	  -9.52496	  -1.87836	
  -9.58246	-8.13309e-05	  -9.55689	-7.4132e-05	  -9.57246	-7.60122e-05	   -9.5706	-7.71583e-05	   -9.5706	  -1.92896	
  -9.62815	-8.32319e-05	  -9.60222	-7.62948e-05	  -9.61791	-7.79757e-05	  -9.61609	-7.91675e-05	  -9.61609	  -1.97919	
   -9.6733	-8.51294e-05	  -9.64772	-7.83109e-05	  -9.66308	-8.003e-05	  -9.66137	-8.11567e-05	  -9.66137	  -2.02892	
  -9.71782	-8.70397e-05	  -9.69322	-8.01724e-05	  -9.70766	-8.2167e-05	  -9.70624	-8.31264e-05	  -9.70624	  -2.07816	
    -9.762	-8.89734e-05	  -9.73859	-8.1892e-05	  -9.75157	-8.4366e-05	  -9.75072	-8.50771e-05	  -9.75072	  -2.12693	
  -9.80593	-9.0933e-05	  -9.78399	-8.35056e-05	   -9.7953	-8.65935e-05	  -9.79507	-8.70107e-05	  -9.79507	  -2.17527	
  -9.84949	-9.29135e-05	  -9.82957	-8.50623e-05	  -9.83872	-8.88162e-05	  -9.83926	-8.89307e-05	  -9.83926	  -2.22327	
  -9.89286	-9.49116e-05	  -9.87459	-8.66205e-05	  -9.88173	-9.09975e-05	  -9.88306	-9.08432e-05	  -9.88306	  -2.27108	
  -9.93564	-9.69152e-05	  -9.91897	-8.82396e-05	  -9.92423	-9.31046e-05	  -9.92628	-9.27532e-05	  -9.92628	  -2.31883	
  -9.97833	-9.89099e-05	   -9.9629	-8.99694e-05	  -9.96614	-9.51183e-05	  -9.96912	-9.46659e-05	  -9.96912	  -2.36665	
  -10.0206	-0.000100893	  -10.0062	-9.18426e-05	  -10.0077	-9.70351e-05	  -10.0115	-9.65901e-05	  -10.0115	  -2.41475	
  -10.0625	-0.000102859	  -10.0488	-9.38701e-05	  -10.0491	-9.8862e-05	  -10.0535	-9.85304e-05	  -10.0535	  -2.46326	
  -10.1041	-0.000104805	  -10.0905	-9.60406e-05	  -10.0902	-0.000100626	  -10.0949	-0.00010049	  -10.0949	  -2.51226	
  -10.1451	-0.000106733	  -10.1315	-9.83221e-05	  -10.1309	-0.000102355	  -10.1358	-0.00010247	  -10.1358	  -2.56175	
  -10.1855	-0.000108649	   -10.172	-0.000100664	   -10.171	-0.000104084	  -10.1762	-0.000104466	  -10.1762	  -2.61164	
  -10.2256	-0.000110556	  -10.2118	-0.000103007	  -10.2106	-0.000105837	   -10.216	-0.000106467	   -10.216	  -2.66166	
  -10.2656	-0.000112452	   -10.251	-0.000105292	  -10.2494	-0.000107637	  -10.2553	-0.00010846	  -10.2553	  -2.71151	
  -10.3052	-0.000114328	  -10.2899	-0.000107467	  -10.2882	-0.000109504	  -10.2944	-0.000110433	  -10.2944	  -2.76082	
  -10.3444	-0.00011618	  -10.3286	-0.000109496	  -10.3266	-0.000111437	  -10.3332	-0.000112371	  -10.3332	  -2.80927	
  -10.3831	-0.000118008	  -10.3669	-0.000111361	  -10.3647	-0.00011343	  -10.3716	-0.000114266	  -10.3716	  -2.85665	
  -10.4215	-0.000119826	  -10.4047	-0.000113071	  -10.4024	-0.000115468	  -10.4095	-0.000116121	  -10.4095	  -2.90303	
  -10.4595	-0.000121635	  -10.4421	-0.000114651	  -10.4397	-0.000117525	  -10.4471	-0.000117937	  -10.4471	  -2.94842	
  -10.4973	-0.000123435	  -10.4795	-0.000116147	  -10.4764	-0.000119572	  -10.4844	-0.000119718	  -10.4844	  -2.99295	
  -10.5348	-0.000125238	  -10.5168	-0.000117619	  -10.5128	-0.000121584	  -10.5215	-0.00012148	  -10.5215	  -3.03701	
   -10.572	-0.000127051	  -10.5537	-0.000119126	   -10.549	-0.000123536	  -10.5582	-0.000123237	  -10.5582	  -3.08094	
  -10.6087	-0.000128894	  -10.5903	-0.000120748	  -10.5849	-0.000125407	  -10.5946	-0.000125016	  -10.5946	  -3.12541	
  -10.6449	-0.000130761	  -10.6264	-0.000122522	  -10.6205	-0.000127199	  -10.6306	-0.000126827	  -10.6306	  -3.17068	
  -10.6804	-0.000132646	  -10.6621	-0.000124467	  -10.6556	-0.000128915	   -10.666	-0.000128676	   -10.666	   -3.2169	
  -10.7158	-0.000134554	  -10.6971	-0.000126564	  -10.6901	-0.000130568	   -10.701	-0.000130562	   -10.701	  -3.26405	
  -10.7503	-0.000136476	  -10.7318	-0.000128785	  -10.7241	-0.000132178	  -10.7354	-0.000132479	  -10.7354	  -3.31199	
  -10.7845	-0.000138405	  -10.7661	-0.000131074	  -10.7574	-0.000133779	  -10.7693	-0.000134419	  -10.7693	  -3.36048	
  -10.8183	-0.000140318	  -10.8002	-0.000133348	  -10.7903	-0.000135396	   -10.803	-0.000136354	   -10.803	  -3.40886	
  -10.8518	-0.000142199	  -10.8336	-0.000135535	  -10.8231	-0.000137054	  -10.8362	-0.000138263	  -10.8362	  -3.45656	
  -10.8849	-0.000144038	  -10.8666	-0.000137567	  -10.8555	-0.000138771	   -10.869	-0.000140125	   -10.869	  -3.50313	
  -10.9174	-0.000145818	  -10.8992	-0.000139394	  -10.8876	-0.00014055	  -10.9014	-0.000141921	  -10.9014	  -3.54802	
  -10.9494	-0.000147531	  -10.9313	-0.000141001	  -10.9193	-0.000142387	  -10.9333	-0.000143639	  -10.9333	  -3.59099	
  -10.9807	-0.000149183	  -10.9628	-0.000142392	  -10.9504	-0.000144271	  -10.9647	-0.000145282	  -10.9647	  -3.63205	
  -11.0116	-0.000150783	  -10.9937	-0.000143605	  -10.9811	-0.000146183	  -10.9955	-0.000146857	  -10.9955	  -3.67143	
  -11.0423	-0.00015235	  -11.0243	-0.000144715	  -11.0111	-0.0001481	  -11.0259	-0.000148388	  -11.0259	  -3.70971	
  -11.0724	-0.00015391	  -11.0543	-0.000145804	  -11.0407	-0.000149996	  -11.0558	-0.000149903	  -11.0558	  -3.74758	
  -11.1022	-0.00015549	  -11.0835	-0.000146965	  -11.0695	-0.000151851	  -11.0851	-0.000151435	  -11.0851	  -3.78588	
  -11.1317	-0.000157109	  -11.1125	-0.000148277	  -11.0983	-0.000153652	  -11.1142	-0.000153013	  -11.1142	  -3.82532	
  -11.1608	-0.000158779	  -11.1412	-0.000149804	  -11.1268	-0.000155387	  -11.1429	-0.000154657	  -11.1429	  -3.86642	
  -11.1894	-0.000160508	  -11.1696	-0.000151579	   -11.155	-0.000157059	  -11.1713	-0.000156382	  -11.1713	  -3.90956	
  -11.2175	-0.000162295	  -11.1975	-0.0001536	  -11.1828	-0.000158677	  -11.1993	-0.00015819	  -11.1993	  -3.95476	
   -11.245	-0.000164125	   -11.225	-0.000155833	  -11.2102	-0.000160255	  -11.2267	-0.000160071	  -11.2267	  -4.00178	
  -11.2719	-0.000165984	  -11.2519	-0.000158207	  -11.2372	-0.000161813	  -11.2537	-0.000162001	  -11.2537	  -4.05004	
  -11.2982	-0.000167847	  -11.2783	-0.000160634	  -11.2636	-0.000163371	    -11.28	-0.000163951	    -11.28	  -4.09877	
   -11.324	-0.000169692	  -11.3041	-0.000163021	  -11.2897	-0.000164943	  -11.3059	-0.000165885	  -11.3059	  -4.14713	
  -11.3494	-0.000171494	  -11.3292	-0.00016528	  -11.3151	-0.000166543	  -11.3312	-0.000167772	  -11.3312	  -4.19431	
  -11.3744	-0.000173245	  -11.3539	-0.000167343	  -11.3399	-0.00016818	  -11.3561	-0.000169589	  -11.3561	  -4.23973	
  -11.3992	-0.000174934	  -11.3784	-0.000169163	  -11.3644	-0.000169855	  -11.3807	-0.000171317	  -11.3807	  -4.28293	
  -11.4237	-0.000176559	  -11.4022	-0.000170732	  -11.3885	-0.000171565	  -11.4048	-0.000172952	  -11.4048	   -4.3238	
  -11.4479	-0.000178135	  -11.4256	-0.000172078	  -11.4122	-0.0001733	  -11.4285	-0.000174504	  -11.4285	  -4.36261	
  -11.4716	-0.000179676	  -11.4486	-0.000173257	  -11.4356	-0.000175043	   -11.452	-0.000175992	   -11.452	   -4.3998	
   -11.495	-0.000181194	  -11.4714	-0.00017435	  -11.4588	-0.000176775	  -11.4751	-0.00017744	  -11.4751	  -4.43599	
  -11.5179	-0.000182708	  -11.4937	-0.000175445	  -11.4816	-0.000178475	  -11.4977	-0.000178876	  -11.4977	  -4.47191	
  -11.5403	-0.000184237	  -11.5156	-0.000176628	  -11.5041	-0.000180128	    -11.52	-0.000180331	    -11.52	  -4.50827	
  -11.5622	-0.000185791	  -11.5371	-0.000177962	  -11.5262	-0.000181712	  -11.5418	-0.000181821	  -11.5418	  -4.54553	
  -11.5835	-0.000187373	  -11.5582	-0.000179491	  -11.5478	-0.000183207	  -11.5632	-0.000183357	  -11.5632	  -4.58393	
  -11.6042	-0.000188988	  -11.5788	-0.000181223	  -11.5689	-0.000184626	   -11.584	-0.000184945	   -11.584	  -4.62364	
  -11.6244	-0.000190628	  -11.5989	-0.000183138	  -11.5896	-0.000185986	  -11.6043	-0.000186584	  -11.6043	   -4.6646	
  -11.6439	-0.000192283	  -11.6185	-0.000185192	  -11.6097	-0.000187307	  -11.6241	-0.000188261	  -11.6241	  -4.70652	
  -11.6628	-0.000193944	  -11.6376	-0.000187319	  -11.6293	-0.000188616	  -11.6433	-0.000189959	  -11.6433	  -4.74899	
  -11.6811	-0.000195595	  -11.6561	-0.000189442	  -11.6484	-0.000189936	  -11.6619	-0.000191658	  -11.6619	  -4.79144	
  -11.6988	-0.000197222	  -11.6743	-0.000191484	  -11.6668	-0.000191303	    -11.68	-0.000193336	    -11.68	  -4.83341	
  -11.7164	-0.000198816	  -11.6919	-0.000193378	  -11.6847	-0.000192733	  -11.6976	-0.000194976	  -11.6976	   -4.8744	
  -11.7335	-0.000200372	  -11.7088	-0.000195081	  -11.7019	-0.00019424	  -11.7148	-0.000196564	  -11.7148	  -4.91411	
  -11.7499	-0.000201885	  -11.7252	-0.000196579	  -11.7186	-0.000195823	  -11.7312	-0.000198096	  -11.7312	   -4.9524	
  -11.7658	-0.000203354	   -11.741	-0.000197883	  -11.7347	-0.000197464	  -11.7472	-0.000199567	  -11.7472	  -4.98918	
  -11.7815	-0.000204785	  -11.7563	-0.000199037	  -11.7503	-0.000199141	  -11.7627	-0.000200988	  -11.7627	  -5.02469	
  -11.7967	-0.000206189	  -11.7711	-0.000200101	  -11.7653	-0.000200824	  -11.7777	-0.000202372	  -11.7777	  -5.05929	
  -11.8115	-0.000207578	  -11.7855	-0.000201146	  -11.7797	-0.000202474	  -11.7923	-0.000203733	  -11.7923	  -5.09332	
  -11.8256	-0.000208962	  -11.7997	-0.000202244	  -11.7938	-0.000204049	  -11.8064	-0.000205085	  -11.8064	  -5.12713	
  -11.8395	-0.000210355	  -11.8134	-0.000203456	  -11.8074	-0.000205527	  -11.8201	-0.000206446	  -11.8201	  -5.16115	
  -11.8532	-0.000211764	  -11.8267	-0.000204825	  -11.8207	-0.000206898	  -11.8335	-0.000207829	  -11.8335	  -5.19572	
  -11.8664	-0.000213195	  -11.8393	-0.000206369	  -11.8335	-0.000208157	  -11.8464	-0.00020924	  -11.8464	  -5.23101	
  -11.8795	-0.000214651	  -11.8518	-0.000208081	  -11.8459	-0.000209315	  -11.8591	-0.000210682	  -11.8591	  -5.26706	
  -11.8923	-0.000216125	  -11.8642	-0.000209926	  -11.8579	-0.000210395	  -11.8715	-0.000212149	  -11.8715	  -5.30373	
  -11.9045	-0.000217612	  -11.8759	-0.00021185	  -11.8695	-0.000211428	  -11.8833	-0.00021363	  -11.8833	  -5.34075	
  -11.9164	-0.000219101	  -11.8872	-0.000213785	  -11.8807	-0.000212452	  -11.8948	-0.000215113	  -11.8948	  -5.37781	
  -11.9281	-0.000220577	  -11.8978	-0.000215663	  -11.8914	-0.000213508	  -11.9058	-0.000216583	  -11.9058	  -5.41456	
  -11.9392	-0.000222031	   -11.908	-0.000217425	  -11.9015	-0.000214625	  -11.9162	-0.000218027	  -11.9162	  -5.45067	
    -11.95	-0.000223452	  -11.9177	-0.000219025	  -11.9109	-0.000215818	  -11.9262	-0.000219432	  -11.9262	  -5.48579	
  -11.9605	-0.000224836	  -11.9267	-0.000220445	  -11.9196	-0.000217095	  -11.9356	-0.000220792	  -11.9356	   -5.5198	
  -11.9705	-0.000226182	  -11.9351	-0.000221689	   -11.928	-0.000218453	  -11.9445	-0.000222108	  -11.9445	  -5.55271	
  -11.9796	-0.000227494	  -11.9431	-0.000222789	  -11.9358	-0.000219868	  -11.9528	-0.000223384	  -11.9528	  -5.58459	
  -11.9885	-0.000228778	  -11.9505	-0.000223794	  -11.9432	-0.000221313	  -11.9607	-0.000224628	  -11.9607	   -5.6157	
  -11.9968	-0.000230042	  -11.9576	-0.000224764	    -11.95	-0.000222753	  -11.9681	-0.000225853	  -11.9681	  -5.64633	
  -12.0045	-0.0002313	  -11.9642	-0.000225762	  -11.9562	-0.000224156	   -11.975	-0.000227073	   -11.975	  -5.67681	
   -12.012	-0.000232563	  -11.9701	-0.000226846	  -11.9623	-0.000225492	  -11.9815	-0.0002283	  -11.9815	   -5.7075	
  -12.0186	-0.000233835	  -11.9755	-0.000228058	  -11.9678	-0.000226744	  -11.9873	-0.000229546	  -11.9873	  -5.73864	
  -12.0249	-0.000235118	  -11.9806	-0.000229417	   -11.973	-0.000227906	  -11.9928	-0.000230813	  -11.9928	  -5.77034	
  -12.0305	-0.000236411	  -11.9852	-0.000230919	  -11.9777	-0.000228975	  -11.9978	-0.000232102	  -11.9978	  -5.80254	
  -12.0353	-0.000237707	  -11.9893	-0.000232537	   -11.982	-0.000229973	  -12.0022	-0.000233406	  -12.0022	  -5.83514	
  -12.0397	 -0.000239	   -11.993	-0.000234224	  -11.9858	-0.000230925	  -12.0062	-0.000234716	  -12.0062	  -5.86791	
  -12.0435	-0.000240284	  -11.9962	-0.000235924	  -11.9892	-0.000231854	  -12.0096	-0.000236021	  -12.0096	  -5.90052	
  -12.0467	-0.000241553	   -11.999	-0.000237577	  -11.9922	-0.00023279	  -12.0126	-0.000237307	  -12.0126	  -5.93266	
  -12.0493	-0.000242801	  -12.0014	-0.000239126	  -11.9948	-0.000233761	  -12.0152	-0.000238563	  -12.0152	  -5.96406	
  -12.0514	-0.00024403	  -12.0035	-0.00024053	  -11.9971	-0.000234785	  -12.0173	-0.000239782	  -12.0173	  -5.99455	
   -12.053	-0.000245245	  -12.0053	-0.000241769	   -11.999	-0.000235869	  -12.0191	-0.000240961	  -12.0191	  -6.02403	
  -12.0541	-0.00024645	  -12.0067	-0.000242845	  -12.0006	-0.000237011	  -12.0205	-0.000242102	  -12.0205	  -6.05255	
  -12.0548	-0.000247655	  -12.0078	-0.000243781	   -12.002	-0.000238199	  -12.0215	-0.000243211	  -12.0215	  -6.08029	
   -12.055	-0.000248867	  -12.0086	-0.000244616	   -12.003	-0.000239412	  -12.0222	-0.000244298	  -12.0222	  -6.10745	
  -12.0549	-0.000250087	  -12.0092	-0.000245404	  -12.0038	-0.000240627	  -12.0227	-0.000245373	  -12.0227	  -6.13432	
  -12.0545	-0.000251317	  -12.0092	-0.000246201	  -12.0042	-0.000241821	  -12.0226	-0.000246446	  -12.0226	  -6.16115	
  -12.0537	-0.00025255	  -12.0086	-0.000247058	  -12.0043	-0.000242969	  -12.0222	-0.000247526	  -12.0222	  -6.18814	
  -12.0527	-0.000253775	  -12.0078	-0.00024802	  -12.0039	-0.000244059	  -12.0215	-0.000248618	  -12.0215	  -6.21546	
  -12.0511	-0.000254981	  -12.0065	-0.00024911	  -12.0031	-0.000245094	  -12.0202	-0.000249728	  -12.0202	   -6.2432	
  -12.0489	-0.000256155	  -12.0047	-0.000250329	  -12.0016	-0.000246075	  -12.0184	-0.000250853	  -12.0184	  -6.27133	
  -12.0463	-0.000257286	  -12.0024	-0.000251663	  -11.9994	-0.000247009	   -12.016	-0.000251986	   -12.016	  -6.29965	
  -12.0429	-0.000258364	  -11.9994	-0.000253074	  -11.9967	-0.000247911	   -12.013	-0.000253116	   -12.013	   -6.3279	
   -12.039	-0.000259387	   -11.996	-0.000254514	  -11.9934	-0.000248801	  -12.0095	-0.000254234	  -12.0095	  -6.35586	
  -12.0344	-0.00026036	  -11.9921	-0.000255931	  -11.9897	-0.000249696	  -12.0054	-0.000255329	  -12.0054	  -6.38322	
  -12.0294	-0.000261288	  -11.9877	-0.000257275	  -11.9856	-0.000250603	  -12.0009	-0.000256388	  -12.0009	  -6.40971	
  -12.0239	-0.000262188	  -11.9831	-0.000258507	  -11.9811	-0.000251528	   -11.996	-0.000257407	   -11.996	  -6.43519	
   -12.018	-0.000263077	  -11.9778	-0.000259606	   -11.976	-0.000252474	  -11.9906	-0.000258386	  -11.9906	  -6.45964	
  -12.0114	-0.000263976	  -11.9721	-0.00026057	  -11.9704	-0.000253438	  -11.9846	-0.000259328	  -11.9846	   -6.4832	
  -12.0046	-0.000264901	  -11.9659	-0.000261412	  -11.9644	-0.000254409	  -11.9783	-0.00026024	  -11.9783	  -6.50601	
  -11.9975	-0.000265863	  -11.9596	-0.000262164	   -11.958	-0.000255369	  -11.9717	-0.000261132	  -11.9717	  -6.52829	
  -11.9901	-0.000266865	  -11.9526	-0.000262873	  -11.9508	-0.000256307	  -11.9645	-0.000262015	  -11.9645	  -6.55037	
  -11.9822	-0.000267901	  -11.9449	-0.000263587	  -11.9431	-0.000257218	  -11.9567	-0.000262902	  -11.9567	  -6.57256	
  -11.9736	-0.000268966	  -11.9367	-0.000264355	  -11.9348	-0.000258097	  -11.9484	-0.000263806	  -11.9484	  -6.59515	
  -11.9645	-0.000270047	   -11.928	-0.000265214	   -11.926	-0.000258939	  -11.9395	-0.000264734	  -11.9395	  -6.61834	
  -11.9548	-0.000271122	  -11.9189	-0.000266186	  -11.9169	-0.000259752	  -11.9302	-0.000265687	  -11.9302	  -6.64217	
  -11.9447	-0.000272174	  -11.9094	-0.000267274	  -11.9073	-0.000260549	  -11.9205	-0.000266666	  -11.9205	  -6.66664	
  -11.9342	-0.000273186	  -11.8996	-0.000268462	  -11.8975	-0.000261344	  -11.9105	-0.000267664	  -11.9105	  -6.69161	
  -11.9234	-0.000274147	  -11.8896	-0.000269717	  -11.8873	-0.000262154	  -11.9001	-0.000268673	  -11.9001	  -6.71682	
  -11.9124	-0.000275047	  -11.8794	-0.000270991	  -11.8763	-0.000262994	  -11.8894	-0.000269677	  -11.8894	  -6.74193	
  -11.9007	-0.000275888	  -11.8686	-0.000272235	  -11.8647	-0.000263868	   -11.878	-0.000270664	   -11.878	  -6.76659	
  -11.8884	-0.000276678	  -11.8572	-0.000273406	  -11.8525	-0.000264776	   -11.866	-0.00027162	   -11.866	   -6.7905	
  -11.8755	-0.000277429	  -11.8452	-0.000274465	  -11.8397	-0.000265715	  -11.8535	-0.000272536	  -11.8535	  -6.81341	
   -11.862	-0.000278159	  -11.8328	-0.000275391	  -11.8266	-0.000266671	  -11.8405	-0.000273407	  -11.8405	  -6.83518	
  -11.8481	-0.000278885	  -11.8199	-0.000276183	  -11.8132	-0.000267629	  -11.8271	-0.000274232	  -11.8271	  -6.85581	
  -11.8338	-0.000279625	  -11.8067	-0.000276855	  -11.7992	-0.000268571	  -11.8132	-0.000275017	  -11.8132	  -6.87542	
  -11.8193	-0.000280391	  -11.7932	-0.000277435	  -11.7846	-0.000269479	   -11.799	-0.000275768	   -11.799	   -6.8942	
  -11.8045	-0.000281189	  -11.7792	-0.000277965	  -11.7693	-0.000270335	  -11.7844	-0.000276497	  -11.7844	  -6.91242	
   -11.789	-0.000282021	  -11.7645	-0.000278494	  -11.7535	-0.000271132	   -11.769	-0.000277216	   -11.769	  -6.93039	
   -11.773	-0.000282879	  -11.7492	-0.000279061	  -11.7372	-0.000271867	  -11.7532	-0.000277935	  -11.7532	  -6.94839	
  -11.7566	-0.000283751	  -11.7334	-0.0002797	  -11.7205	-0.000272542	  -11.7368	-0.000278664	  -11.7368	  -6.96661	
  -11.7396	-0.000284625	  -11.7172	-0.000280434	  -11.7035	-0.000273171	  -11.7201	-0.00027941	  -11.7201	  -6.98525	
  -11.7223	-0.000285485	  -11.7006	-0.000281268	  -11.6863	-0.000273766	  -11.7031	-0.000280173	  -11.7031	  -7.00432	
  -11.7047	-0.000286316	  -11.6836	-0.000282186	  -11.6685	-0.000274347	  -11.6856	-0.00028095	  -11.6856	  -7.02375	
  -11.6869	-0.000287106	  -11.6659	-0.000283164	    -11.65	-0.000274931	  -11.6676	-0.000281733	  -11.6676	  -7.04334	
  -11.6685	-0.000287845	  -11.6476	-0.000284162	  -11.6311	-0.000275527	  -11.6491	-0.000282512	  -11.6491	  -7.06279	
  -11.6496	-0.000288531	  -11.6289	-0.000285142	  -11.6116	-0.000276151	    -11.63	-0.000283275	    -11.63	  -7.08187	
  -11.6301	-0.00028917	  -11.6097	-0.000286064	  -11.5919	-0.00027681	  -11.6106	-0.000284015	  -11.6106	  -7.10037	
  -11.6102	-0.000289768	  -11.5901	-0.000286895	  -11.5719	-0.0002775	  -11.5907	-0.000284721	  -11.5907	  -7.11802	
  -11.5897	-0.000290342	    -11.57	-0.000287614	  -11.5514	-0.000278223	  -11.5704	-0.000285393	  -11.5704	  -7.13482	
  -11.5688	-0.000290906	  -11.5493	-0.000288199	  -11.5305	-0.000278962	  -11.5495	-0.000286022	  -11.5495	  -7.15055	
  -11.5475	-0.000291474	   -11.528	-0.000288671	   -11.509	-0.000279703	  -11.5282	-0.000286616	  -11.5282	   -7.1654	
  -11.5258	-0.00029206	  -11.5062	-0.000289062	  -11.4871	-0.000280431	  -11.5064	-0.000287184	  -11.5064	  -7.17961	
  -11.5036	-0.000292671	  -11.4839	-0.000289412	  -11.4648	-0.000281132	  -11.4841	-0.000287738	  -11.4841	  -7.19345	
  -11.4811	-0.000293307	  -11.4614	-0.00028977	  -11.4423	-0.000281796	  -11.4616	-0.000288291	  -11.4616	  -7.20728	
  -11.4579	-0.000293971	  -11.4383	-0.000290175	  -11.4193	-0.000282418	  -11.4385	-0.000288855	  -11.4385	  -7.22137	
  -11.4346	-0.000294656	  -11.4146	-0.00029068	  -11.3957	-0.000282996	  -11.4149	-0.000289444	  -11.4149	  -7.23611	
  -11.4106	-0.000295353	  -11.3903	-0.000291312	  -11.3716	-0.000283536	  -11.3908	-0.000290067	  -11.3908	  -7.25167	
   -11.386	-0.000296049	  -11.3656	-0.000292072	  -11.3469	-0.000284042	  -11.3662	-0.000290721	  -11.3662	  -7.26802	
   -11.361	-0.000296732	  -11.3405	-0.00029296	  -11.3219	-0.000284525	  -11.3412	-0.000291406	  -11.3412	  -7.28514	
  -11.3358	-0.00029739	  -11.3152	-0.000293945	  -11.2965	-0.000284999	  -11.3158	-0.000292111	  -11.3158	  -7.30278	
  -11.3101	-0.000298007	  -11.2896	-0.000294985	  -11.2706	-0.000285474	  -11.2901	-0.000292822	  -11.2901	  -7.32055	
  -11.2837	-0.000298585	  -11.2634	-0.000296034	  -11.2442	-0.000285954	  -11.2638	-0.000293524	  -11.2638	  -7.33811	
  -11.2568	-0.00029912	  -11.2367	-0.00029703	  -11.2174	-0.000286439	   -11.237	-0.000294196	   -11.237	  -7.35491	
  -11.2295	-0.000299613	  -11.2097	-0.000297918	  -11.1903	-0.000286932	  -11.2098	-0.000294821	  -11.2098	  -7.37053	
  -11.2017	-0.000300075	  -11.1822	-0.000298652	  -11.1627	-0.00028743	  -11.1822	-0.000295386	  -11.1822	  -7.38464	
  -11.1737	-0.000300517	  -11.1543	-0.000299211	  -11.1344	-0.000287928	  -11.1541	-0.000295886	  -11.1541	  -7.39714	
   -11.145	-0.000300949	  -11.1258	-0.000299596	  -11.1056	-0.000288425	  -11.1255	-0.000296323	  -11.1255	  -7.40808	
  -11.1159	-0.00030139	  -11.0968	-0.000299817	  -11.0764	-0.000288908	  -11.0964	-0.000296705	  -11.0964	  -7.41762	
  -11.0863	-0.000301854	  -11.0675	-0.000299913	   -11.047	-0.000289371	  -11.0669	-0.000297046	  -11.0669	  -7.42615	
  -11.0565	-0.000302341	   -11.038	-0.000299938	  -11.0169	-0.000289806	  -11.0371	-0.000297362	  -11.0371	  -7.43404	
  -11.0265	-0.000302857	  -11.0081	-0.00029995	  -10.9862	-0.000290211	  -11.0069	-0.000297673	  -11.0069	  -7.44182	
  -10.9959	-0.000303399	  -10.9777	-0.000300008	  -10.9551	-0.000290585	  -10.9762	-0.000297997	  -10.9762	  -7.44993	
  -10.9648	-0.000303956	  -10.9468	-0.000300161	  -10.9236	-0.000290924	  -10.9451	-0.000298347	  -10.9451	  -7.45867	
  -10.9333	-0.000304514	  -10.9156	-0.000300441	   -10.892	-0.000291237	  -10.9136	-0.000298731	  -10.9136	  -7.46827	
  -10.9016	-0.000305055	  -10.8837	-0.000300865	  -10.8603	-0.000291538	  -10.8819	-0.000299153	  -10.8819	  -7.47881	
  -10.8696	-0.00030555	  -10.8511	-0.000301437	  -10.8285	-0.000291834	  -10.8497	-0.000299607	  -10.8497	  -7.49018	
  -10.8371	-0.000305989	  -10.8181	-0.000302132	  -10.7962	-0.000292132	  -10.8171	-0.000300084	  -10.8171	  -7.50211	
  -10.8041	-0.000306366	  -10.7848	-0.000302908	  -10.7634	-0.000292441	  -10.7841	-0.000300572	  -10.7841	  -7.51429	
  -10.7708	-0.000306675	  -10.7513	-0.000303718	  -10.7305	-0.000292774	  -10.7509	-0.000301056	  -10.7509	  -7.52639	
   -10.737	-0.000306914	  -10.7174	-0.000304507	  -10.6971	-0.000293138	  -10.7172	-0.000301519	  -10.7172	  -7.53799	
  -10.7026	-0.000307098	  -10.6829	-0.00030522	  -10.6632	-0.000293528	  -10.6829	-0.000301949	  -10.6829	  -7.54872	
  -10.6677	-0.00030725	  -10.6481	-0.000305819	  -10.6286	-0.000293937	  -10.6481	-0.000302335	  -10.6481	  -7.55838	
  -10.6326	-0.000307385	   -10.613	-0.000306282	  -10.5932	-0.00029435	  -10.6129	-0.000302672	  -10.6129	  -7.56681	
  -10.5972	-0.000307523	  -10.5776	-0.000306602	  -10.5576	-0.000294756	  -10.5775	-0.00030296	  -10.5775	  -7.57401	
  -10.5613	-0.000307684	  -10.5416	-0.00030679	  -10.5212	-0.000295123	  -10.5414	-0.000303199	  -10.5414	  -7.57998	
  -10.5248	-0.000307878	  -10.5052	-0.000306877	   -10.484	-0.000295433	  -10.5047	-0.000303396	  -10.5047	   -7.5849	
  -10.4881	-0.000308117	  -10.4686	-0.000306899	  -10.4463	-0.000295695	  -10.4677	-0.00030357	  -10.4677	  -7.58926	
  -10.4512	-0.000308405	  -10.4315	-0.000306893	  -10.4086	-0.000295895	  -10.4304	-0.000303731	  -10.4304	  -7.59328	
  -10.4138	-0.000308733	  -10.3939	-0.000306902	  -10.3707	-0.000296025	  -10.3928	-0.000303887	  -10.3928	  -7.59717	
  -10.3759	-0.000309086	   -10.356	-0.000306958	  -10.3325	-0.000296111	  -10.3548	-0.000304052	  -10.3548	  -7.60129	
  -10.3377	-0.000309448	  -10.3177	-0.00030709	   -10.294	-0.000296171	  -10.3165	-0.000304236	  -10.3165	  -7.60591	
  -10.2994	-0.000309802	  -10.2788	-0.000307299	  -10.2554	-0.000296219	  -10.2779	-0.00030444	  -10.2779	    -7.611	
  -10.2603	-0.00031014	  -10.2396	-0.000307571	  -10.2166	-0.000296277	  -10.2389	-0.000304663	  -10.2389	  -7.61657	
  -10.2209	-0.000310449	  -10.1997	-0.000307879	  -10.1769	-0.00029638	  -10.1992	-0.000304903	  -10.1992	  -7.62257	
  -10.1811	-0.000310714	  -10.1597	-0.000308201	  -10.1367	-0.000296537	  -10.1592	-0.000305151	  -10.1592	  -7.62877	
  -10.1408	-0.000310924	  -10.1192	-0.000308514	  -10.0966	-0.000296742	  -10.1188	-0.000305393	  -10.1188	  -7.63482	
  -10.0999	-0.000311084	  -10.0782	-0.000308782	  -10.0557	-0.000297002	  -10.0779	-0.000305622	  -10.0779	  -7.64056	
  -10.0586	-0.000311194	  -10.0369	-0.00030899	  -10.0139	-0.000297312	  -10.0364	-0.000305832	  -10.0364	   -7.6458	
  -10.0171	-0.000311252	  -9.99483	-0.000309138	  -9.97165	-0.000297636	  -9.99451	-0.000306008	  -9.99451	  -7.65021	
  -9.97503	-0.000311267	  -9.95243	-0.00030923	  -9.92956	-0.00029795	  -9.95234	-0.000306149	  -9.95234	  -7.65372	
   -9.9325	-0.00031126	  -9.90964	-0.000309278	  -9.88654	-0.000298234	  -9.90956	-0.000306258	  -9.90956	  -7.65644	
  -9.88963	-0.000311238	  -9.86623	-0.000309319	  -9.84241	-0.000298459	  -9.86609	-0.000306339	  -9.86609	  -7.65847	
    -9.846	-0.000311206	  -9.82248	-0.000309381	  -9.79866	-0.000298607	  -9.82238	-0.000306398	  -9.82238	  -7.65995	
    -9.802	-0.000311187	  -9.77826	-0.000309486	  -9.75509	-0.000298679	  -9.77845	-0.000306451	  -9.77845	  -7.66126	
   -9.7576	-0.000311193	  -9.73374	-0.00030966	  -9.71066	-0.000298681	    -9.734	-0.000306511	    -9.734	  -7.66278	
  -9.71296	-0.000311223	   -9.6888	-0.000309912	   -9.6656	-0.000298622	  -9.68912	-0.000306586	  -9.68912	  -7.66464	
  -9.66786	-0.000311285	  -9.64351	-0.000310232	  -9.62083	-0.000298538	  -9.64407	-0.000306685	  -9.64407	  -7.66712	
  -9.62227	-0.000311374	  -9.59785	-0.0003106	   -9.5763	-0.00029846	  -9.59881	-0.000306812	  -9.59881	  -7.67029	
  -9.57639	-0.000311481	  -9.55197	-0.000310988	  -9.53077	-0.00029841	  -9.55304	-0.00030696	  -9.55304	  -7.67399	
  -9.53007	-0.000311589	  -9.50576	-0.000311358	  -9.48465	-0.000298409	  -9.50683	-0.000307119	  -9.50683	  -7.67797	
  -9.48321	-0.000311683	  -9.45909	-0.000311673	  -9.43871	-0.000298471	  -9.46034	-0.000307276	  -9.46034	  -7.68189	
    -9.436	-0.000311749	  -9.41214	-0.000311906	  -9.39221	-0.000298592	  -9.41345	-0.000307416	  -9.41345	  -7.68539	
   -9.3886	-0.000311764	  -9.36487	-0.000312041	  -9.34485	-0.000298763	  -9.36611	-0.000307523	  -9.36611	  -7.68808	
   -9.3406	-0.000311723	  -9.31709	-0.000312073	  -9.29674	-0.000298968	  -9.31814	-0.000307588	  -9.31814	   -7.6897	
  -9.29219	-0.000311624	  -9.26897	-0.000312012	  -9.24839	-0.000299175	  -9.26985	-0.000307604	  -9.26985	  -7.69009	
  -9.24356	-0.000311466	  -9.22068	-0.000311881	  -9.19996	-0.000299352	   -9.2214	-0.000307567	   -9.2214	  -7.68917	
  -9.19457	-0.000311264	  -9.17182	-0.000311713	  -9.15102	-0.000299485	  -9.17247	-0.000307487	  -9.17247	  -7.68718	
  -9.14512	-0.000311034	  -9.12257	-0.00031154	  -9.10177	-0.000299553	  -9.12315	-0.000307376	  -9.12315	  -7.68439	
   -9.0954	-0.000310791	  -9.07311	-0.000311395	  -9.05238	-0.00029954	  -9.07363	-0.000307242	  -9.07363	  -7.68105	
   -9.0452	-0.000310557	  -9.02343	-0.000311308	  -9.00301	-0.000299449	  -9.02388	-0.000307105	  -9.02388	  -7.67762	
  -8.99451	-0.000310347	   -8.9733	-0.000311295	  -8.95324	-0.000299293	  -8.97368	-0.000306978	  -8.97368	  -7.67446	
  -8.94352	-0.000310172	  -8.92272	-0.000311359	  -8.90268	-0.000299086	  -8.92297	-0.000306872	  -8.92297	  -7.67181	
  -8.89243	-0.000310032	  -8.87179	-0.00031149	  -8.85211	-0.00029885	  -8.87211	-0.000306791	  -8.87211	  -7.66977	
  -8.84081	-0.000309927	   -8.8204	-0.000311666	   -8.8013	-0.000298612	  -8.82084	-0.000306735	  -8.82084	  -7.66837	
  -8.78886	-0.000309849	  -8.76875	-0.000311858	  -8.75025	-0.000298394	  -8.76929	-0.0003067	  -8.76929	  -7.66751	
  -8.73639	-0.000309778	  -8.71662	-0.000312033	  -8.69854	-0.00029821	  -8.71718	-0.000306674	  -8.71718	  -7.66684	
   -8.6834	-0.000309697	  -8.66402	-0.000312156	  -8.64639	-0.000298069	   -8.6646	-0.000306641	   -8.6646	  -7.66602	
  -8.63009	-0.000309589	  -8.61116	-0.000312206	  -8.59399	-0.000297971	  -8.61175	-0.000306588	  -8.61175	  -7.66471	
  -8.57647	-0.000309438	  -8.55801	-0.000312164	  -8.54114	-0.000297903	  -8.55854	-0.000306502	  -8.55854	  -7.66254	
  -8.52261	-0.000309236	  -8.50439	-0.000312023	  -8.48783	-0.000297855	  -8.50494	-0.000306371	  -8.50494	  -7.65929	
  -8.46843	-0.000308981	  -8.45048	-0.000311783	  -8.43427	-0.000297811	  -8.45106	-0.000306191	  -8.45106	  -7.65479	
   -8.4141	-0.000308673	  -8.39619	-0.000311457	  -8.38007	-0.000297747	  -8.39679	-0.000305959	  -8.39679	  -7.64898	
  -8.35923	-0.000308322	  -8.34163	-0.000311078	  -8.32545	-0.000297648	   -8.3421	-0.000305683	   -8.3421	  -7.64207	
  -8.30404	-0.000307943	  -8.28678	-0.000310679	  -8.27059	-0.000297504	  -8.28714	-0.000305375	  -8.28714	  -7.63439	
  -8.24851	-0.000307551	  -8.23145	-0.000310293	  -8.21531	-0.000297304	  -8.23176	-0.000305049	  -8.23176	  -7.62623	
  -8.19248	-0.000307159	  -8.17595	-0.000309951	  -8.15962	-0.000297044	  -8.17601	-0.000304718	  -8.17601	  -7.61795	
  -8.13613	-0.000306782	  -8.12017	-0.000309677	  -8.10371	-0.000296735	     -8.12	-0.000304398	     -8.12	  -7.60995	
  -8.07968	-0.00030643	    -8.064	-0.000309488	  -8.04748	-0.000296385	  -8.06372	-0.000304101	  -8.06372	  -7.60253	
  -8.02272	-0.000306105	  -8.00767	-0.000309384	  -7.99085	-0.000296006	  -8.00708	-0.000303832	  -8.00708	  -7.59579	
  -7.96547	-0.000305807	  -7.95086	-0.000309345	  -7.93402	-0.000295617	  -7.95012	-0.000303589	  -7.95012	  -7.58973	
  -7.90813	-0.000305528	  -7.89399	-0.000309337	  -7.87688	-0.000295233	    -7.893	-0.000303366	    -7.893	  -7.58415	
  -7.85049	-0.000305255	  -7.83684	-0.000309328	  -7.81936	-0.000294865	  -7.83556	-0.000303149	  -7.83556	  -7.57873	
  -7.79257	-0.000304976	  -7.77942	-0.000309274	  -7.76165	-0.000294525	  -7.77788	-0.000302925	  -7.77788	  -7.57312	
  -7.73455	-0.000304679	  -7.72154	-0.000309152	  -7.70376	-0.000294211	  -7.71995	-0.000302681	  -7.71995	  -7.56701	
  -7.67606	-0.000304353	  -7.66324	-0.000308936	  -7.64548	-0.000293922	  -7.66159	-0.000302404	  -7.66159	   -7.5601	
   -7.6173	-0.000303988	  -7.60471	-0.00030862	  -7.58704	-0.000293655	  -7.60302	-0.000302088	  -7.60302	  -7.55219	
  -7.55819	-0.000303579	  -7.54615	-0.00030821	  -7.52805	-0.000293393	  -7.54413	-0.000301728	  -7.54413	  -7.54319	
  -7.49865	-0.000303129	  -7.48717	-0.00030775	  -7.46872	-0.000293127	  -7.48485	-0.000301335	  -7.48485	  -7.53338	
  -7.43889	-0.000302639	  -7.42798	-0.000307278	  -7.40927	-0.00029284	  -7.42538	-0.000300919	  -7.42538	  -7.52298	
  -7.37883	-0.000302121	  -7.36878	-0.000306825	  -7.34989	-0.000292518	  -7.36583	-0.000300488	  -7.36583	   -7.5122	
  -7.31838	-0.000301584	  -7.30918	-0.000306426	  -7.29018	-0.000292154	  -7.30591	-0.000300054	  -7.30591	  -7.50136	
  -7.25776	-0.00030104	  -7.24938	-0.000306103	  -7.23005	-0.00029174	  -7.24573	-0.000299628	  -7.24573	  -7.49069	
  -7.19678	-0.000300499	  -7.18901	-0.00030587	  -7.16962	-0.000291282	  -7.18514	-0.000299217	  -7.18514	  -7.48042	
  -7.13546	-0.000299967	  -7.12829	-0.000305714	  -7.10921	-0.000290788	  -7.12432	-0.000298823	  -7.12432	  -7.47057	
  -7.07403	-0.000299449	  -7.06745	-0.000305603	  -7.04851	-0.000290268	  -7.06333	-0.00029844	  -7.06333	    -7.461	
  -7.01238	-0.000298945	  -7.00639	-0.000305494	  -6.98735	-0.000289738	  -7.00204	-0.000298059	  -7.00204	  -7.45148	
  -6.95044	-0.000298454	  -6.94502	-0.000305336	  -6.92595	-0.000289207	  -6.94047	-0.000297666	  -6.94047	  -7.44164	
  -6.88813	-0.000297969	  -6.88355	-0.000305083	  -6.86395	-0.000288688	  -6.87854	-0.000297247	  -6.87854	  -7.43117	
  -6.82538	-0.00029748	    -6.822	-0.000304703	  -6.80157	-0.00028819	  -6.81632	-0.000296791	  -6.81632	  -7.41977	
  -6.76242	-0.000296977	  -6.76016	-0.000304173	  -6.73904	-0.000287716	  -6.75387	-0.000296289	  -6.75387	  -7.40721	
  -6.69926	-0.00029645	  -6.69807	-0.000303501	  -6.67599	-0.000287266	   -6.6911	-0.000295739	   -6.6911	  -7.39348	
  -6.63573	-0.000295887	  -6.63582	-0.000302713	  -6.61264	-0.000286833	  -6.62806	-0.000295144	  -6.62806	  -7.37861	
  -6.57204	-0.00029529	  -6.57334	-0.000301847	  -6.54922	-0.000286409	  -6.56487	-0.000294515	  -6.56487	  -7.36288	
  -6.50823	-0.000294653	  -6.51045	-0.000300952	  -6.48554	-0.00028598	  -6.50141	-0.000293862	  -6.50141	  -7.34655	
   -6.4441	-0.000293976	  -6.44718	-0.000300087	  -6.42162	-0.000285535	  -6.43763	-0.0002932	  -6.43763	  -7.32999	
  -6.37949	-0.000293272	  -6.38376	-0.000299291	  -6.35748	-0.000285067	  -6.37358	-0.000292543	  -6.37358	  -7.31357	
  -6.31473	-0.000292543	  -6.31981	-0.000298583	  -6.29325	-0.000284559	  -6.30926	-0.000291895	  -6.30926	  -7.29738	
  -6.24975	-0.000291801	  -6.25501	-0.00029799	  -6.22883	-0.000284009	  -6.24453	-0.000291267	  -6.24453	  -7.28167	
  -6.18448	-0.000291056	   -6.1896	-0.00029751	  -6.16387	-0.000283413	  -6.17931	-0.00029066	  -6.17931	  -7.26649	
  -6.11884	-0.00029032	  -6.12403	-0.000297094	   -6.0986	-0.000282768	  -6.11382	-0.000290061	  -6.11382	  -7.25151	
  -6.05306	-0.000289604	  -6.05832	-0.000296709	  -6.03325	-0.000282078	  -6.04821	-0.000289464	  -6.04821	  -7.23659	
  -5.98718	-0.000288914	   -5.9923	-0.000296326	  -5.96764	-0.000281346	  -5.98237	-0.000288862	  -5.98237	  -7.22155	
    -5.921	-0.000288257	  -5.92629	-0.000295897	  -5.90179	-0.000280583	  -5.91636	-0.000288246	  -5.91636	  -7.20615	
  -5.85476	-0.000287632	  -5.86049	-0.000295388	  -5.83593	-0.000279805	   -5.8504	-0.000287608	   -5.8504	   -7.1902	
  -5.78809	-0.000287034	  -5.79442	-0.000294786	  -5.76968	-0.000279021	  -5.78406	-0.000286947	  -5.78406	  -7.17368	
  -5.72122	-0.000286459	  -5.72781	-0.000294098	  -5.70328	-0.000278244	  -5.71744	-0.000286267	  -5.71744	  -7.15667	
  -5.65419	-0.000285893	   -5.6612	-0.000293318	  -5.63675	-0.000277483	  -5.65071	-0.000285565	  -5.65071	  -7.13912	
  -5.58682	-0.000285321	   -5.5948	-0.000292464	  -5.56991	-0.000276743	  -5.58384	-0.000284842	  -5.58384	  -7.12106	
  -5.51935	-0.000284723	  -5.52782	-0.000291588	  -5.50281	-0.00027603	  -5.51666	-0.000284114	  -5.51666	  -7.10284	
  -5.45199	-0.000284085	  -5.46033	-0.000290711	  -5.43529	-0.000275343	   -5.4492	-0.00028338	   -5.4492	  -7.08449	
  -5.38437	-0.000283397	  -5.39315	-0.000289854	  -5.36758	-0.000274676	   -5.3817	-0.000282642	   -5.3817	  -7.06605	
  -5.31671	-0.000282651	  -5.32589	-0.000289051	  -5.29962	-0.000274016	  -5.31407	-0.000281906	  -5.31407	  -7.04765	
  -5.24864	-0.000281851	  -5.25761	-0.000288316	  -5.23134	-0.000273353	  -5.24586	-0.000281173	  -5.24586	  -7.02933	
   -5.1804	 -0.000281	  -5.18887	-0.000287641	   -5.1627	-0.000272663	  -5.17732	-0.000280435	  -5.17732	  -7.01087	
  -5.11222	-0.000280103	  -5.12079	-0.000287018	  -5.09393	-0.00027193	  -5.10898	-0.000279684	  -5.10898	  -6.99209	
  -5.04373	-0.000279175	  -5.05296	-0.000286441	  -5.02496	-0.00027115	  -5.04055	-0.000278922	  -5.04055	  -6.97305	
  -4.97515	-0.000278228	   -4.9844	-0.00028588	  -4.95601	-0.00027031	  -4.97185	-0.000278139	  -4.97185	  -6.95348	
  -4.90651	-0.000277274	  -4.91577	-0.000285302	  -4.88673	-0.000269407	    -4.903	-0.000277328	    -4.903	  -6.93319	
  -4.83764	-0.000276327	  -4.84747	-0.000284693	  -4.81735	-0.00026846	  -4.83415	-0.000276493	  -4.83415	  -6.91233	
  -4.76877	-0.000275397	  -4.77873	-0.000284036	   -4.7479	-0.000267488	  -4.76513	-0.00027564	  -4.76513	  -6.89101	
  -4.69983	-0.000274494	  -4.70931	-0.000283308	  -4.67821	-0.000266509	  -4.69578	-0.00027477	  -4.69578	  -6.86926	
  -4.63073	-0.000273623	  -4.63976	-0.000282512	  -4.60852	-0.000265544	  -4.62634	-0.000273893	  -4.62634	  -6.84732	
  -4.56113	-0.00027278	  -4.57031	-0.000281647	  -4.53845	-0.000264622	  -4.55663	-0.000273016	  -4.55663	  -6.82541	
  -4.49128	-0.000271954	  -4.50059	-0.000280718	  -4.46825	-0.000263751	  -4.48671	-0.000272141	  -4.48671	  -6.80353	
  -4.42142	-0.000271133	  -4.43025	-0.000279741	  -4.39787	-0.000262934	  -4.41651	-0.000271269	  -4.41651	  -6.78173	
  -4.35117	-0.000270304	  -4.35956	-0.000278735	  -4.32723	-0.000262168	  -4.34599	-0.000270402	  -4.34599	  -6.76006	
  -4.28079	-0.000269451	  -4.28875	-0.000277718	  -4.25658	-0.00026144	  -4.27537	-0.000269537	  -4.27537	  -6.73842	
   -4.2105	-0.000268562	  -4.21806	-0.000276712	  -4.18585	-0.000260724	   -4.2048	-0.000268666	   -4.2048	  -6.71666	
  -4.14012	-0.000267626	  -4.14712	-0.000275738	  -4.11496	-0.000259993	  -4.13407	-0.000267786	  -4.13407	  -6.69464	
  -4.06969	-0.000266639	  -4.07616	-0.000274808	  -4.04387	-0.000259225	  -4.06324	-0.000266891	  -4.06324	  -6.67227	
  -3.99884	-0.000265597	  -4.00541	-0.000273921	   -3.9727	-0.000258395	  -3.99232	-0.000265971	  -3.99232	  -6.64927	
  -3.92783	-0.000264499	  -3.93448	-0.000273073	  -3.90149	-0.000257486	  -3.92127	-0.000265019	  -3.92127	  -6.62549	
  -3.85689	-0.00026336	  -3.86321	-0.000272254	  -3.83008	-0.000256497	  -3.85006	-0.000264037	  -3.85006	  -6.60092	
  -3.78565	-0.000262198	  -3.79168	-0.000271441	   -3.7585	-0.000255436	  -3.77861	-0.000263025	  -3.77861	  -6.57562	
  -3.71416	-0.000261026	   -3.7201	-0.00027061	   -3.6868	-0.000254328	  -3.70702	-0.000261988	  -3.70702	   -6.5497	
  -3.64256	-0.000259859	  -3.64813	-0.000269737	  -3.61483	-0.000253198	  -3.63517	-0.000260931	  -3.63517	  -6.52328	
  -3.57079	-0.000258715	  -3.57602	-0.000268792	  -3.54281	-0.000252073	  -3.56321	-0.00025986	  -3.56321	   -6.4965	
  -3.49889	-0.000257604	  -3.50381	-0.00026776	  -3.47059	-0.000250973	   -3.4911	-0.000258779	   -3.4911	  -6.46948	
   -3.4267	-0.000256531	  -3.43163	-0.000266648	  -3.39823	-0.000249918	  -3.41885	-0.000257699	  -3.41885	  -6.44247	
  -3.35448	-0.000255495	  -3.35921	-0.000265477	  -3.32575	-0.000248919	  -3.34648	-0.00025663	  -3.34648	  -6.41576	
  -3.28187	-0.000254506	  -3.28671	-0.000264271	  -3.25329	-0.000247966	  -3.27396	-0.000255581	  -3.27396	  -6.38952	
  -3.20912	-0.000253545	  -3.21406	-0.000263061	  -3.18078	-0.000247052	  -3.20132	-0.000254553	  -3.20132	  -6.36382	
  -3.13617	-0.000252594	   -3.1415	-0.000261888	  -3.10788	-0.000246166	  -3.12852	-0.000253549	  -3.12852	  -6.33873	
  -3.06297	-0.000251629	  -3.06866	-0.000260777	  -3.03483	-0.000245287	  -3.05549	-0.000252564	  -3.05549	   -6.3141	
  -2.98978	-0.000250628	   -2.9958	-0.000259748	  -2.96187	-0.000244388	  -2.98248	-0.000251588	  -2.98248	   -6.2897	
  -2.91642	-0.000249573	  -2.92273	-0.000258804	  -2.88884	-0.000243458	  -2.90933	-0.000250612	  -2.90933	   -6.2653	
  -2.84294	-0.000248435	  -2.84953	-0.000257928	  -2.81576	-0.000242478	  -2.83607	-0.000249614	  -2.83607	  -6.24035	
  -2.76929	-0.000247212	  -2.77641	-0.000257097	  -2.74229	-0.000241431	  -2.76266	-0.00024858	  -2.76266	   -6.2145	
  -2.69561	-0.000245907	  -2.70303	-0.000256279	  -2.66869	-0.00024032	  -2.68911	-0.000247502	  -2.68911	  -6.18754	
  -2.62194	-0.000244526	  -2.62962	-0.000255433	  -2.59519	-0.000239148	  -2.61558	-0.000246369	  -2.61558	  -6.15922	
  -2.54811	-0.0002431	  -2.55603	-0.000254521	  -2.52162	-0.000237926	  -2.54192	-0.000245182	  -2.54192	  -6.12956	
  -2.47417	-0.000241634	  -2.48231	-0.000253449	  -2.44802	-0.000236764	  -2.46817	-0.000243949	  -2.46817	  -6.09873	
  -2.40017	-0.000240205	   -2.4083	-0.000252384	  -2.37423	-0.00023558	  -2.39424	-0.000242723	  -2.39424	  -6.06808	
  -2.32595	-0.000238856	  -2.33407	-0.00025131	  -2.30031	-0.000234383	  -2.32011	-0.000241517	  -2.32011	  -6.03792	
  -2.25176	-0.000237619	  -2.25985	-0.000250216	  -2.22648	-0.000233177	  -2.24603	-0.000240338	  -2.24603	  -6.00844	
  -2.17753	-0.000236504	   -2.1853	-0.000249093	  -2.15239	-0.000231971	  -2.17174	-0.000239189	  -2.17174	  -5.97973	
  -2.10319	-0.000235499	  -2.11066	-0.000247935	   -2.0781	-0.000230777	  -2.09732	-0.00023807	  -2.09732	  -5.95176	
  -2.02843	-0.000234573	  -2.03619	-0.00024674	  -2.00346	-0.000229596	  -2.02269	-0.000236969	  -2.02269	  -5.92424	
  -1.95348	-0.000233696	  -1.96151	-0.000245512	  -1.92873	-0.000228432	  -1.94791	-0.00023588	  -1.94791	    -5.897	
