# User: ACHyster
# File name: C:/ACHYSTER/ACHyster SENS/SHAMS/CoFe2O4-1gl-water-60 Glycerol-Sens-08-03-2023/CoFe2O4-1gl-water-60 Glycerol- 10_100F- 12 kAm -Sens-08-03-20230002#1.txt
# Saved at: mi. mar. 8 12:49:51 2023
# Hyster Loop (3 iterations). Intensity: 12.0 kA/m; Tuned frequency: 29.5 kHz
# Units x axis: (kA/m)
# Units y axis: "Repeats y" & "Average y" (10^(-3)Am^2); "Mass avg y" (Am^2/kg)
# Magnetic mass: 4e-05 g
# Parameter      	Repeat   1	Repeat   2	Repeat   3	Average   	Sigma     
# H_C (kA/m)     	       9.6	       9.6	       9.7	       9.6	       0.0
# M_R (Am^2/kg)  	      11.4	      11.5	      11.6	      11.5	       0.1
# M_max (Am^2/kg)	       8.4	       8.1	       8.2	       8.2	       0.1
# Area (mJ/kg)   	     525.4	     529.4	     533.6	     529.5	       3.4
# SAR (W/g)      	      15.5	      15.6	      15.7	      15.6	       0.1
#Repeat 1 x	Repeat 1 y	Repeat 2 x	Repeat 2 y	Repeat 3 x	Repeat 3 y	Average x 	Average y 	Mass avg x 	Mass avg y 
  -1.72553	-0.000498085	  -1.72423	-0.000495531	  -1.71694	-0.000500388	  -1.72223	-0.000498001	  -1.72223	    -12.45	
  -1.65126	-0.000496454	   -1.6495	-0.000494221	  -1.64207	-0.000498949	  -1.64761	-0.000496541	  -1.64761	  -12.4135	
  -1.57727	-0.000494885	  -1.57486	-0.000492909	  -1.56733	-0.000497393	  -1.57316	-0.000495063	  -1.57316	  -12.3766	
  -1.50305	-0.000493427	  -1.50007	-0.000491565	  -1.49246	-0.000495777	  -1.49853	-0.000493589	  -1.49853	  -12.3397	
   -1.4284	-0.000491956	  -1.42523	-0.000490164	  -1.41758	-0.000494212	  -1.42374	-0.000492111	  -1.42374	  -12.3028	
  -1.35358	-0.000490348	  -1.35033	-0.000488716	   -1.3426	-0.000492683	  -1.34883	-0.000490582	  -1.34883	  -12.2646	
  -1.27856	-0.000488636	  -1.27526	-0.000487259	  -1.26748	-0.000491104	  -1.27376	 -0.000489	  -1.27376	   -12.225	
  -1.20355	-0.000486955	   -1.2003	-0.000485798	  -1.19242	-0.000489468	  -1.19875	-0.000487407	  -1.19875	  -12.1852	
  -1.12847	-0.000485355	   -1.1252	-0.000484301	   -1.1171	-0.000487855	  -1.12359	-0.000485837	  -1.12359	  -12.1459	
  -1.05334	-0.000483736	  -1.05008	-0.000482743	   -1.0418	-0.000486263	  -1.04841	-0.000484247	  -1.04841	  -12.1062	
 -0.978186	-0.000481963	 -0.974955	-0.000481151	 -0.966529	-0.000484591	 -0.973223	-0.000482568	 -0.973223	  -12.0642	
 -0.902853	-0.000480066	 -0.899669	-0.000479565	 -0.891143	-0.000482817	 -0.897888	-0.000480816	 -0.897888	  -12.0204	
 -0.827618	-0.000478227	 -0.824499	-0.000477968	 -0.815826	-0.000481063	 -0.822648	-0.000479086	 -0.822648	  -11.9772	
 -0.752298	-0.000476513	 -0.749189	-0.00047631	  -0.74041	-0.000479408	 -0.747299	-0.00047741	 -0.747299	  -11.9353	
 -0.676943	-0.000474776	 -0.673863	-0.000474597	 -0.665016	-0.00047776	 -0.671941	-0.000475711	 -0.671941	  -11.8928	
 -0.601597	-0.000472847	 -0.598566	-0.000472875	 -0.589466	-0.000475981	 -0.596543	-0.000473901	 -0.596543	  -11.8475	
 -0.526085	-0.00047078	 -0.523119	-0.000471157	 -0.513817	-0.000474092	 -0.521007	-0.00047201	 -0.521007	  -11.8002	
 -0.450597	-0.000468776	 -0.447793	-0.000469406	 -0.438336	-0.000472245	 -0.445575	-0.000470142	 -0.445575	  -11.7536	
  -0.37504	-0.000466872	 -0.372404	-0.000467596	 -0.362764	-0.000470486	 -0.370069	-0.000468318	 -0.370069	   -11.708	
 -0.299461	-0.000464891	 -0.296999	-0.000465766	 -0.287222	-0.000468694	 -0.294561	-0.00046645	 -0.294561	  -11.6613	
 -0.223835	-0.000462709	 -0.221551	-0.000463944	 -0.211752	-0.000466769	 -0.219046	-0.000464474	 -0.219046	  -11.6119	
 -0.148064	-0.000460484	 -0.145963	-0.0004621	 -0.136175	-0.000464783	   -0.1434	-0.000462456	   -0.1434	  -11.5614	
-0.0724205	-0.000458403	-0.0705036	-0.000460184	-0.0606866	-0.000462861	-0.0678702	-0.000460483	-0.0678702	  -11.5121	
0.00325148	-0.000456347	0.00506307	-0.000458215	 0.0148747	-0.000460983	0.00772976	-0.000458515	0.00772976	  -11.4629	
 0.0789352	-0.000454092	 0.0806335	-0.000456256	 0.0904085	-0.000459031	 0.0833257	-0.00045646	 0.0833257	  -11.4115	
  0.154451	-0.00045169	   0.15611	-0.000454322	  0.165658	-0.000456969	  0.158739	-0.000454327	  0.158739	  -11.3582	
  0.230122	-0.000449411	  0.231729	-0.000452347	  0.241038	-0.000454891	  0.234296	-0.000452216	  0.234296	  -11.3054	
  0.305677	-0.000447274	   0.30722	-0.000450293	  0.316279	-0.000452861	  0.309725	-0.000450143	  0.309725	  -11.2536	
  0.381368	-0.000445023	  0.382766	-0.000448206	  0.391638	-0.000450821	  0.385257	-0.000448017	  0.385257	  -11.2004	
  0.457072	-0.000442553	  0.458322	-0.000446152	  0.466993	-0.000448709	  0.460796	-0.000445805	  0.460796	  -11.1451	
  0.532599	-0.000440085	  0.533841	-0.000444098	  0.542301	-0.000446545	  0.536247	-0.000443576	  0.536247	  -11.0894	
  0.608279	-0.000437786	  0.609501	-0.000441975	  0.617659	-0.000444383	  0.611813	-0.000441382	  0.611813	  -11.0345	
  0.683842	-0.00043552	  0.685031	-0.000439781	  0.692955	-0.000442224	  0.687276	-0.000439175	  0.687276	  -10.9794	
  0.759523	-0.000433081	  0.760585	-0.000437581	  0.768109	-0.000440038	  0.762739	-0.0004369	  0.762739	  -10.9225	
  0.835217	-0.00043049	  0.836149	-0.000435406	  0.843282	-0.000437801	  0.838216	-0.000434565	  0.838216	  -10.8641	
  0.910744	-0.000427933	  0.911543	-0.000433216	  0.918295	-0.000435524	  0.913527	-0.000432225	  0.913527	  -10.8056	
  0.986345	-0.000425484	  0.987092	-0.000430957	  0.993388	-0.000433244	  0.988942	-0.000429895	  0.988942	  -10.7474	
   1.06184	-0.000423002	   1.06252	-0.000428643	   1.06838	-0.000430979	   1.06425	-0.000427541	   1.06425	  -10.6885	
   1.13721	-0.000420355	   1.13799	-0.000426332	   1.14343	-0.000428691	   1.13955	-0.000425126	   1.13955	  -10.6281	
   1.21263	-0.000417613	   1.21348	-0.000424041	   1.21845	-0.000426344	   1.21485	-0.000422666	   1.21485	  -10.5666	
   1.28783	-0.000414937	   1.28873	-0.000421726	   1.29333	-0.000423963	   1.28996	-0.000420209	   1.28996	  -10.5052	
   1.36307	-0.000412335	   1.36379	-0.000419357	    1.3684	-0.000421587	   1.36509	-0.00041776	   1.36509	   -10.444	
   1.43823	-0.000409665	   1.43878	-0.000416962	   1.44338	-0.00041921	   1.44013	-0.000415279	   1.44013	   -10.382	
   1.51329	-0.00040686	   1.51358	-0.000414578	   1.51824	-0.000416792	   1.51504	-0.000412743	   1.51504	  -10.3186	
   1.58842	-0.000404018	   1.58848	-0.000412202	   1.59316	-0.000414318	   1.59002	-0.000410179	   1.59002	  -10.2545	
   1.66336	-0.000401252	   1.66319	-0.000409792	   1.66803	-0.000411816	   1.66486	-0.00040762	   1.66486	  -10.1905	
   1.73836	-0.000398523	    1.7378	-0.000407337	   1.74302	-0.000409305	   1.73973	-0.000405055	   1.73973	  -10.1264	
   1.81331	-0.000395718	    1.8124	-0.000404871	   1.81795	-0.000406781	   1.81455	-0.000402456	   1.81455	  -10.0614	
   1.88797	-0.000392816	   1.88688	-0.000402415	   1.89263	-0.000404222	   1.88916	-0.000399818	   1.88916	  -9.99544	
   1.96268	-0.000389916	   1.96149	-0.000399948	   1.96734	-0.000401624	   1.96384	-0.000397163	   1.96384	  -9.92907	
   2.03725	-0.000387084	   2.03597	-0.000397435	   2.04189	-0.000399005	   2.03837	-0.000394508	   2.03837	   -9.8627	
   2.11165	-0.000384258	   2.11035	-0.000394859	   2.11631	-0.000396379	   2.11277	-0.000391832	   2.11277	   -9.7958	
   2.18608	-0.000381348	   2.18475	-0.00039228	   2.19074	-0.000393736	   2.18719	-0.000389121	   2.18719	  -9.72802	
   2.26027	-0.000378377	   2.25906	-0.000389746	   2.26497	-0.000391053	   2.26143	-0.000386392	   2.26143	   -9.6598	
   2.33432	-0.000375442	   2.33313	-0.000387208	   2.33928	-0.000388338	   2.33557	-0.000383662	   2.33557	  -9.59156	
    2.4083	-0.000372563	   2.40712	-0.000384621	   2.41347	-0.000385614	   2.40963	-0.000380933	   2.40963	  -9.52332	
   2.48222	-0.000369675	   2.48088	-0.000381982	   2.48756	-0.00038289	   2.48355	-0.000378182	   2.48355	  -9.45456	
   2.55623	-0.00036673	   2.55474	-0.000379331	   2.56169	-0.000380148	   2.55755	-0.000375403	   2.55755	  -9.38507	
   2.63007	-0.000363762	   2.62843	-0.000376697	   2.63569	-0.000377366	    2.6314	-0.000372609	    2.6314	  -9.31522	
   2.70366	-0.000360826	   2.70205	-0.000374085	   2.70957	-0.000374547	   2.70509	-0.000369819	   2.70509	  -9.24548	
   2.77726	-0.000357916	   2.77567	-0.000371444	    2.7834	-0.000371718	   2.77877	-0.000367026	   2.77877	  -9.17565	
    2.8507	-0.000354972	   2.84904	-0.00036875	   2.85693	-0.000368913	   2.85222	-0.000364212	   2.85222	  -9.10529	
   2.92415	-0.000351983	   2.92243	-0.00036604	   2.93031	-0.00036612	   2.92563	-0.000361381	   2.92563	  -9.03453	
   2.99752	-0.000349003	   2.99573	-0.000363353	   3.00357	-0.000363282	   2.99894	-0.000358546	   2.99894	  -8.96366	
   3.07063	-0.000346062	   3.06877	-0.000360661	   3.07662	-0.000360353	     3.072	-0.000355692	     3.072	   -8.8923	
   3.14374	-0.00034311	   3.14189	-0.000357911	   3.14965	-0.000357397	   3.14509	-0.000352806	   3.14509	  -8.82015	
   3.21668	-0.000340105	   3.21485	-0.000355119	   3.22249	-0.000354479	   3.21801	-0.000349901	   3.21801	  -8.74753	
   3.28947	-0.000337088	   3.28773	-0.000352344	   3.29508	-0.000351581	   3.29076	-0.000347004	   3.29076	  -8.67511	
   3.36219	-0.000334124	    3.3606	-0.000349592	   3.36759	-0.000348639	   3.36346	-0.000344118	   3.36346	  -8.60295	
   3.43469	-0.000331176	   3.43323	-0.000346804	   3.43986	-0.00034564	   3.43593	-0.000341207	   3.43593	  -8.53016	
   3.50708	-0.00032818	   3.50581	-0.000343965	   3.51195	-0.000342634	   3.50828	-0.00033826	   3.50828	  -8.45649	
   3.57942	-0.000325152	   3.57832	-0.000341124	   3.58399	-0.00033966	   3.58058	-0.000335312	   3.58058	   -8.3828	
   3.65153	-0.000322147	   3.65058	-0.000338309	    3.6558	-0.000336695	   3.65264	-0.000332384	   3.65264	  -8.30959	
   3.72369	-0.000319164	   3.72286	-0.00033545	   3.72758	-0.000333717	   3.72471	-0.000329444	   3.72471	  -8.23609	
   3.79572	-0.000316157	     3.795	-0.000332513	   3.79924	-0.000330719	   3.79665	-0.000326463	   3.79665	  -8.16157	
   3.86738	-0.000313117	   3.86692	-0.000329581	   3.87087	-0.000327668	   3.86839	-0.000323455	   3.86839	  -8.08638	
   3.93903	-0.000310098	   3.93871	-0.000326731	    3.9423	-0.000324559	   3.94001	-0.000320463	   3.94001	  -8.01157	
    4.0105	-0.000307108	   4.01031	-0.000323896	   4.01355	-0.000321442	   4.01146	-0.000317482	   4.01146	  -7.93705	
   4.08157	-0.000304074	   4.08156	-0.000320953	   4.08457	-0.000318397	   4.08257	-0.000314475	   4.08257	  -7.86187	
   4.15231	-0.000300977	   4.15275	-0.000317907	    4.1556	-0.000315417	   4.15355	-0.000311434	   4.15355	  -7.78584	
   4.22295	-0.00029792	   4.22371	-0.000314897	    4.2264	-0.000312417	   4.22435	-0.000308411	   4.22435	  -7.71029	
   4.29361	-0.00029494	   4.29442	-0.000311993	   4.29697	-0.000309329	     4.295	-0.000305421	     4.295	  -7.63552	
   4.36393	-0.00029193	   4.36503	-0.00030909	   4.36752	-0.000306183	   4.36549	-0.000302401	   4.36549	  -7.56003	
   4.43395	-0.000288826	   4.43537	-0.000306067	    4.4378	-0.000303029	   4.43571	-0.000299307	   4.43571	  -7.48268	
   4.50386	-0.000285697	   4.50547	-0.00030296	   4.50768	-0.000299918	   4.50567	-0.000296192	   4.50567	  -7.40479	
   4.57367	-0.000282626	   4.57552	-0.000299898	   4.57753	-0.000296864	   4.57557	-0.000293129	   4.57557	  -7.32823	
   4.64307	-0.000279575	   4.64528	-0.000296909	   4.64709	-0.000293811	   4.64515	-0.000290099	   4.64515	  -7.25246	
    4.7123	-0.000276482	   4.71497	-0.000293895	   4.71652	-0.000290687	    4.7146	-0.000287021	    4.7146	  -7.17553	
   4.78141	-0.000273342	   4.78457	-0.000290781	   4.78587	-0.000287494	   4.78395	-0.000283872	   4.78395	  -7.09681	
   4.85055	-0.000270179	   4.85385	-0.000287631	     4.855	-0.000284309	   4.85313	-0.000280706	   4.85313	  -7.01766	
   4.91952	-0.000267051	   4.92284	-0.000284533	   4.92401	-0.00028118	   4.92212	-0.000277588	   4.92212	   -6.9397	
    4.9882	-0.000263991	   4.99173	-0.000281467	   4.99292	-0.000278059	   4.99095	-0.000274506	   4.99095	  -6.86265	
    5.0566	-0.00026094	   5.06039	-0.00027836	    5.0615	-0.000274871	    5.0595	-0.00027139	    5.0595	  -6.78476	
   5.12486	-0.000257804	   5.12872	-0.000275211	   5.12984	-0.000271629	   5.12781	-0.000268215	   5.12781	  -6.70537	
   5.19306	-0.000254601	   5.19695	-0.000272078	   5.19808	-0.000268413	   5.19603	-0.000265031	   5.19603	  -6.62576	
   5.26096	-0.000251432	   5.26486	-0.000268957	   5.26608	-0.000265257	   5.26396	-0.000261882	   5.26396	  -6.54705	
   5.32871	-0.000248342	   5.33253	-0.000265798	   5.33389	-0.000262101	   5.33171	-0.000258747	   5.33171	  -6.46868	
   5.39639	-0.000245237	    5.4001	-0.000262586	    5.4016	-0.00025888	   5.39936	-0.000255568	   5.39936	   -6.3892	
   5.46376	-0.000242039	   5.46736	-0.000259377	   5.46898	-0.000255624	    5.4667	-0.000252346	    5.4667	  -6.30866	
   5.53087	-0.000238801	    5.5345	-0.000256205	   5.53606	-0.000252404	   5.53381	-0.000249137	   5.53381	  -6.22842	
   5.59791	-0.000235626	   5.60147	-0.000253027	   5.60305	-0.000249224	   5.60081	-0.000245959	   5.60081	  -6.14897	
   5.66466	-0.000232501	   5.66813	-0.000249789	   5.66973	-0.000246025	   5.66751	-0.000242772	   5.66751	  -6.06929	
   5.73113	-0.000229323	   5.73457	-0.000246499	   5.73617	-0.000242782	   5.73396	-0.000239535	   5.73396	  -5.98837	
   5.79755	-0.000226027	   5.80086	-0.000243225	   5.80238	-0.000239528	   5.80026	-0.00023626	   5.80026	   -5.9065	
   5.86369	-0.000222692	   5.86686	-0.000239986	   5.86831	-0.000236295	   5.86628	-0.000232991	   5.86628	  -5.82477	
   5.92967	-0.000219409	   5.93261	-0.00023672	   5.93399	-0.000233071	   5.93209	-0.000229733	   5.93209	  -5.74333	
   5.99554	-0.000216161	   5.99832	-0.000233384	   5.99956	-0.000229816	    5.9978	-0.000226454	    5.9978	  -5.66134	
   6.06115	-0.000212846	   6.06376	-0.000230022	   6.06487	-0.000226531	   6.06326	-0.000223133	   6.06326	  -5.57832	
   6.12643	-0.000209458	    6.1288	-0.000226696	   6.12986	-0.000223245	   6.12837	-0.000219799	   6.12837	  -5.49498	
   6.19171	-0.000206105	   6.19384	-0.000223393	   6.19484	-0.000219973	   6.19346	-0.00021649	   6.19346	  -5.41226	
   6.25675	-0.000202822	   6.25864	-0.000220046	   6.25959	-0.000216687	   6.25832	-0.000213185	   6.25832	  -5.32963	
   6.32151	-0.000199506	     6.323	-0.000216668	   6.32399	-0.000213365	   6.32283	-0.000209846	   6.32283	  -5.24616	
   6.38613	-0.000196087	   6.38703	-0.000213301	   6.38805	-0.000210021	   6.38707	-0.00020647	   6.38707	  -5.16174	
   6.45056	-0.000192637	   6.45089	-0.000209931	   6.45194	-0.000206688	   6.45113	-0.000203085	   6.45113	  -5.07714	
   6.51465	-0.000189266	   6.51439	-0.000206523	   6.51546	-0.000203358	   6.51483	-0.000199716	   6.51483	  -4.99289	
   6.57831	-0.000185961	   6.57757	-0.000203085	   6.57866	-0.000200008	   6.57818	-0.000196351	   6.57818	  -4.90878	
   6.64183	-0.000182613	   6.64065	-0.000199691	   6.64176	-0.000196637	   6.64142	-0.000192981	   6.64142	  -4.82452	
   6.70503	-0.000179184	   6.70343	-0.000196332	   6.70455	-0.00019327	   6.70434	-0.000189595	   6.70434	  -4.73988	
   6.76769	-0.000175759	   6.76579	-0.000192887	   6.76693	-0.000189913	    6.7668	-0.000186186	    6.7668	  -4.65466	
   6.83016	-0.000172414	   6.82806	-0.000189323	   6.82912	-0.000186544	   6.82911	-0.00018276	   6.82911	    -4.569	
   6.89239	-0.000169101	   6.89009	-0.000185788	   6.89109	-0.000183151	   6.89119	-0.000179347	   6.89119	  -4.48368	
   6.95418	-0.000165732	    6.9517	-0.000182394	   6.95264	-0.000179758	   6.95284	-0.000175961	   6.95284	  -4.39904	
   7.01568	-0.000162306	   7.01319	-0.000179031	   7.01392	-0.000176381	   7.01426	-0.000172573	   7.01426	  -4.31432	
   7.07702	-0.000158911	   7.07445	-0.000175522	   7.07505	-0.000173005	   7.07551	-0.000169146	   7.07551	  -4.22866	
   7.13802	-0.000155591	   7.13537	-0.000171894	   7.13585	-0.000169605	   7.13641	-0.000165697	   7.13641	  -4.14242	
   7.19848	-0.000152277	   7.19583	-0.000168332	   7.19621	-0.000166182	   7.19684	-0.000162264	   7.19684	  -4.05659	
   7.25881	-0.000148901	   7.25608	-0.000164904	    7.2562	-0.000162762	   7.25703	-0.000158856	   7.25703	  -3.97139	
    7.3189	-0.0001455	   7.31609	-0.000161477	   7.31598	-0.000159357	   7.31699	-0.000155445	   7.31699	  -3.88612	
   7.37857	-0.000142163	   7.37569	-0.000157905	   7.37544	-0.000155956	   7.37656	-0.000152008	   7.37656	  -3.80019	
   7.43785	-0.00013889	    7.4349	-0.000154241	    7.4346	-0.000152532	   7.43578	-0.000148554	   7.43578	  -3.71386	
   7.49692	-0.000135578	     7.494	-0.000150668	   7.49358	-0.000149092	   7.49484	-0.000145112	   7.49484	  -3.62781	
    7.5557	-0.000132171	   7.55279	-0.000147211	   7.55226	-0.000145665	   7.55359	-0.000141682	   7.55359	  -3.54205	
   7.61407	-0.000128765	   7.61118	-0.0001437	   7.61064	-0.000142257	   7.61196	-0.000138241	   7.61196	  -3.45602	
   7.67237	-0.000125472	   7.66928	-0.000140032	    7.6688	-0.000138837	   7.67015	-0.00013478	   7.67015	  -3.36951	
   7.73048	-0.000122239	   7.72721	-0.000136331	   7.72678	-0.000135396	   7.72816	-0.000131322	   7.72816	  -3.28305	
   7.78821	-0.000118922	   7.78477	-0.000132757	   7.78441	-0.000131955	   7.78579	-0.000127878	   7.78579	  -3.19695	
   7.84547	-0.000115502	   7.84187	-0.000129249	   7.84157	-0.000128521	   7.84297	-0.000124424	   7.84297	   -3.1106	
   7.90235	-0.000112111	   7.89878	-0.000125627	   7.89853	-0.000125079	   7.89989	-0.000120939	   7.89989	  -3.02347	
   7.95901	-0.00010883	   7.95547	-0.000121879	   7.95527	-0.000121641	   7.95658	-0.00011745	   7.95658	  -2.93625	
   8.01528	-0.000105567	   8.01176	-0.000118173	   8.01162	-0.000118227	   8.01289	-0.000113989	   8.01289	  -2.84972	
   8.07122	-0.000102203	   8.06779	-0.000114586	   8.06777	-0.000114812	   8.06892	-0.000110533	   8.06892	  -2.76334	
     8.127	-9.87714e-05	   8.12366	-0.000110995	   8.12359	-0.000111357	   8.12475	-0.000107041	   8.12475	  -2.67603	
   8.18253	 -9.54e-05	   8.17927	-0.000107278	   8.17916	-0.000107901	   8.18032	-0.000103526	   8.18032	  -2.58816	
   8.23765	-9.21216e-05	   8.23447	-0.000103493	   8.23448	-0.000104481	   8.23553	-0.000100032	   8.23553	   -2.5008	
   8.29226	-8.88309e-05	   8.28923	-9.97874e-05	   8.28942	-0.000101096	    8.2903	-9.65716e-05	    8.2903	  -2.41429	
   8.34673	-8.54472e-05	   8.34382	-9.61739e-05	   8.34403	-9.76938e-05	   8.34486	-9.3105e-05	   8.34486	  -2.32762	
   8.40095	-8.20344e-05	   8.39817	-9.25239e-05	   8.39838	-9.42428e-05	   8.39917	-8.96004e-05	   8.39917	  -2.24001	
   8.45476	-7.86897e-05	   8.45209	-8.87584e-05	   8.45256	-9.07758e-05	   8.45314	-8.60746e-05	   8.45314	  -2.15187	
   8.50816	-7.53929e-05	   8.50573	-8.49747e-05	   8.50636	-8.73424e-05	   8.50675	-8.257e-05	   8.50675	  -2.06425	
   8.56142	-7.20509e-05	   8.55913	-8.13095e-05	   8.55975	-8.39155e-05	    8.5601	-7.9092e-05	    8.5601	   -1.9773	
   8.61445	-6.86381e-05	   8.61229	-7.77042e-05	   8.61267	-8.04419e-05	   8.61313	-7.55947e-05	   8.61313	  -1.88987	
   8.66709	-6.52307e-05	   8.66504	-7.39979e-05	   8.66512	-7.69341e-05	   8.66575	-7.20542e-05	   8.66575	  -1.80136	
   8.71925	-6.18812e-05	    8.7173	-7.01936e-05	   8.71726	-7.34341e-05	   8.71794	-6.85029e-05	   8.71794	  -1.71257	
   8.77122	-5.85379e-05	   8.76928	-6.64603e-05	   8.76913	-6.99548e-05	   8.76988	-6.49843e-05	   8.76988	  -1.62461	
     8.823	-5.51353e-05	   8.82106	-6.28601e-05	   8.82073	-6.65155e-05	    8.8216	-6.15036e-05	    8.8216	  -1.53759	
   8.87442	-5.16926e-05	   8.87248	-5.92985e-05	   8.87198	-6.30922e-05	   8.87296	-5.80278e-05	   8.87296	  -1.45069	
   8.92534	-4.82769e-05	   8.92339	-5.56215e-05	   8.92275	-5.96167e-05	   8.92383	-5.4505e-05	   8.92383	  -1.36263	
   8.97569	-4.49027e-05	   8.97381	-5.18371e-05	    8.9731	-5.60715e-05	    8.9742	-5.09371e-05	    8.9742	  -1.27343	
   9.02576	-4.15172e-05	   9.02386	-4.80862e-05	    9.0231	-5.25735e-05	   9.02424	-4.73923e-05	   9.02424	  -1.18481	
   9.07558	-3.80803e-05	   9.07364	-4.44599e-05	   9.07284	-4.91587e-05	   9.07402	-4.38996e-05	   9.07402	  -1.09749	
   9.12498	-3.46279e-05	   9.12301	-4.09029e-05	   9.12218	-4.57162e-05	   9.12339	-4.04157e-05	   9.12339	  -1.01039	
    9.1739	-3.12116e-05	   9.17184	-3.72961e-05	   9.17112	-4.21606e-05	   9.17229	-3.68894e-05	   9.17229	 -0.922236	
    9.2224	-2.78311e-05	    9.2204	-3.36218e-05	   9.21955	-3.85891e-05	   9.22078	-3.33473e-05	   9.22078	 -0.833683	
   9.27066	-2.44536e-05	   9.26872	-2.99625e-05	   9.26769	-3.51344e-05	   9.26902	-2.98502e-05	   9.26902	 -0.746255	
   9.31862	-2.10221e-05	   9.31673	-2.63813e-05	   9.31553	-3.17426e-05	   9.31696	-2.6382e-05	   9.31696	  -0.65955	
   9.36614	-1.75418e-05	   9.36429	-2.28203e-05	   9.36294	-2.82557e-05	   9.36446	-2.28726e-05	   9.36446	 -0.571816	
    9.4131	-1.40743e-05	   9.41128	-1.92084e-05	   9.40988	-2.46325e-05	   9.41142	-1.93051e-05	   9.41142	 -0.482626	
   9.45972	-1.06648e-05	   9.45786	-1.5569e-05	   9.45657	-2.10407e-05	   9.45805	-1.57582e-05	   9.45805	 -0.393954	
   9.50619	-7.28845e-06	   9.50428	-1.19689e-05	   9.50293	-1.75911e-05	   9.50446	-1.22828e-05	   9.50446	 -0.307071	
   9.55234	-3.87986e-06	   9.55038	-8.40005e-06	   9.54899	-1.41859e-05	   9.55057	-8.82193e-06	   9.55057	 -0.220548	
   9.59805	-3.92757e-07	   9.59605	-4.81082e-06	   9.59461	-1.06574e-05	   9.59623	-5.28698e-06	   9.59623	 -0.132175	
    9.6434	3.05922e-06	   9.64121	-1.1915e-06	   9.63982	-7.00161e-06	   9.64148	-1.7113e-06	   9.64148	-0.0427825	
    9.6892	6.38336e-06	   9.68595	2.42686e-06	    9.6846	-3.37576e-06	   9.68658	1.81149e-06	   9.68658	 0.0452872	
   9.73484	9.62959e-06	   9.73053	6.02539e-06	   9.72916	1.11461e-07	   9.73151	5.25548e-06	   9.73151	  0.131387	
   9.77968	1.29965e-05	   9.77483	9.61062e-06	   9.77344	3.56351e-06	   9.77599	8.72355e-06	   9.77599	  0.218089	
   9.82309	1.65369e-05	   9.81871	1.32058e-05	   9.81731	7.1429e-06	    9.8197	1.22952e-05	    9.8197	   0.30738	
   9.86578	2.0066e-05	   9.86213	1.68157e-05	   9.86066	1.08118e-05	   9.86285	1.58978e-05	   9.86285	  0.397446	
    9.9082	2.34269e-05	   9.90522	2.04215e-05	   9.90362	1.44027e-05	   9.90568	1.9417e-05	   9.90568	  0.485426	
   9.95042	2.67114e-05	   9.94791	2.40134e-05	   9.94633	1.78821e-05	   9.94822	2.2869e-05	   9.94822	  0.571725	
   9.99246	3.01195e-05	   9.99038	2.75905e-05	   9.98866	2.13942e-05	    9.9905	2.6368e-05	    9.9905	  0.659201	
   10.0342	3.36522e-05	   10.0325	3.11735e-05	   10.0306	2.50164e-05	   10.0325	2.99474e-05	   10.0325	  0.748684	
   10.0756	3.71393e-05	    10.074	3.47643e-05	   10.0722	2.86384e-05	   10.0739	3.3514e-05	   10.0739	   0.83785	
   10.1165	4.04832e-05	   10.1151	3.83411e-05	   10.1132	3.21418e-05	   10.1149	3.69887e-05	   10.1149	  0.924718	
   10.1571	4.38129e-05	   10.1558	4.18868e-05	   10.1536	3.55745e-05	   10.1555	4.04247e-05	   10.1555	   1.01062	
   10.1974	4.72722e-05	   10.1961	4.54115e-05	   10.1936	3.90714e-05	   10.1957	4.39184e-05	   10.1957	   1.09796	
   10.2375	5.08013e-05	    10.236	4.89412e-05	   10.2334	4.26455e-05	   10.2356	4.74627e-05	   10.2356	   1.18657	
   10.2771	5.42435e-05	   10.2756	5.24722e-05	   10.2729	4.61795e-05	   10.2752	5.09651e-05	   10.2752	   1.27413	
   10.3163	5.75844e-05	   10.3147	 5.598e-05	    10.312	4.96116e-05	   10.3143	5.4392e-05	   10.3143	    1.3598	
   10.3549	6.09488e-05	   10.3534	5.94659e-05	   10.3506	5.30267e-05	    10.353	5.78138e-05	    10.353	   1.44534	
    10.393	6.44312e-05	   10.3916	6.29281e-05	   10.3888	5.65248e-05	   10.3911	6.12947e-05	   10.3911	   1.53237	
   10.4307	6.79684e-05	   10.4293	6.6369e-05	   10.4264	6.00677e-05	   10.4288	6.48017e-05	   10.4288	   1.62004	
    10.468	7.14403e-05	   10.4668	6.9808e-05	   10.4637	6.35415e-05	   10.4662	6.82633e-05	   10.4662	   1.70658	
    10.505	7.48302e-05	   10.5039	7.32549e-05	   10.5007	6.69276e-05	   10.5032	7.16709e-05	   10.5032	   1.79177	
   10.5416	7.82323e-05	   10.5406	7.66736e-05	   10.5374	7.03261e-05	   10.5399	7.50773e-05	   10.5399	   1.87693	
   10.5777	8.17126e-05	   10.5769	8.00664e-05	   10.5736	7.38023e-05	   10.5761	7.85271e-05	   10.5761	   1.96318	
   10.6133	8.5225e-05	   10.6126	8.3468e-05	   10.6093	7.72899e-05	   10.6118	8.19943e-05	   10.6118	   2.04986	
   10.6483	8.86683e-05	   10.6477	8.68629e-05	   10.6445	8.06956e-05	   10.6468	8.54089e-05	   10.6468	   2.13522	
   10.6829	9.20482e-05	   10.6825	9.02026e-05	   10.6792	8.40429e-05	   10.6815	8.87646e-05	   10.6815	   2.21911	
   10.7171	9.54703e-05	   10.7171	9.3512e-05	   10.7134	8.74322e-05	   10.7158	9.21382e-05	   10.7158	   2.30345	
    10.751	9.89717e-05	   10.7512	9.68639e-05	   10.7473	9.08775e-05	   10.7498	9.5571e-05	   10.7498	   2.38928	
   10.7845	0.000102466	    10.785	0.000100254	   10.7809	9.42967e-05	   10.7835	9.90055e-05	   10.7835	   2.47514	
   10.8177	0.000105877	   10.8184	0.000103608	   10.8141	9.76373e-05	   10.8167	0.000102374	   10.8167	   2.55935	
   10.8504	0.000109252	   10.8512	0.000106953	   10.8468	0.00010095	   10.8495	0.000105718	   10.8495	   2.64296	
   10.8826	0.000112684	   10.8835	0.000110343	    10.879	0.000104317	   10.8817	0.000109115	   10.8817	   2.72787	
   10.9142	0.000116172	   10.9153	0.000113723	   10.9107	0.000107731	   10.9134	0.000112542	   10.9134	   2.81355	
   10.9451	0.00011964	   10.9465	0.000117027	   10.9418	0.000111096	   10.9445	0.000115921	   10.9445	   2.89803	
   10.9757	0.000123047	   10.9775	0.000120296	   10.9724	0.000114363	   10.9752	0.000119235	   10.9752	   2.98087	
   11.0058	0.000126431	    11.008	0.000123633	   11.0028	0.000117622	   11.0056	0.000122562	   11.0056	   3.06405	
   11.0358	0.000129854	   11.0383	0.000127035	   11.0328	0.000120981	   11.0356	0.000125957	   11.0356	   3.14892	
   11.0654	0.000133327	   11.0681	0.000130391	   11.0625	0.000124399	   11.0653	0.000129372	   11.0653	   3.23431	
   11.0947	0.000136781	   11.0976	0.000133655	   11.0918	0.000127743	   11.0947	0.000132726	   11.0947	   3.31816	
   11.1235	0.000140165	   11.1266	0.000136901	   11.1206	0.000130982	   11.1236	0.000136016	   11.1236	    3.4004	
   11.1518	0.000143535	    11.155	0.000140206	   11.1491	0.000134231	    11.152	0.000139324	    11.152	    3.4831	
   11.1796	0.000146964	   11.1829	0.000143535	    11.177	0.000137588	   11.1798	0.000142696	   11.1798	   3.56739	
   11.2068	0.000150432	   11.2101	0.000146804	   11.2044	0.000140998	   11.2071	0.000146078	   11.2071	   3.65195	
   11.2335	0.000153856	   11.2368	0.000150009	   11.2314	0.000144308	   11.2339	0.000149391	   11.2339	   3.73477	
   11.2597	0.000157216	   11.2629	0.000153244	   11.2584	0.00014747	   11.2603	0.000152643	   11.2603	   3.81609	
   11.2856	0.000160586	   11.2886	0.000156546	   11.2852	0.000150629	   11.2864	0.00015592	   11.2864	   3.89801	
   11.3111	0.00016402	   11.3139	0.000159789	   11.3114	0.000153941	   11.3121	0.00015925	   11.3121	   3.98125	
   11.3363	0.000167461	   11.3392	0.00016287	   11.3367	0.000157348	   11.3374	0.00016256	   11.3374	   4.06399	
   11.3612	0.00017084	   11.3641	0.000165917	   11.3611	0.000160657	   11.3621	0.000165805	   11.3621	   4.14512	
   11.3857	0.00017417	   11.3879	0.000169107	   11.3853	0.00016381	   11.3863	0.000169029	   11.3863	   4.22572	
   11.4098	0.000177525	   11.4108	0.000172395	   11.4092	0.000166959	     11.41	0.000172293	     11.41	   4.30732	
   11.4335	0.000180932	   11.4334	0.000175563	   11.4327	0.000170241	   11.4332	0.000175579	   11.4332	   4.38947	
   11.4567	0.000184355	   11.4557	0.000178536	   11.4557	0.000173583	    11.456	0.000178824	    11.456	   4.47061	
   11.4793	0.000187742	   11.4777	0.00018151	   11.4782	0.000176825	   11.4784	0.000182025	   11.4784	   4.55064	
   11.5014	0.000191078	   11.4992	0.000184677	   11.5001	0.000179962	   11.5002	0.000185239	   11.5002	   4.63097	
   11.5229	0.000194399	   11.5201	0.000187929	   11.5214	0.000183135	   11.5215	0.000188488	   11.5215	   4.71219	
   11.5438	0.00019774	   11.5405	0.000191017	   11.5421	0.000186415	   11.5421	0.000191724	   11.5421	   4.79311	
   11.5641	0.000201116	   11.5603	0.000193914	   11.5622	0.000189701	   11.5622	0.00019491	   11.5622	   4.87276	
   11.5838	0.000204485	   11.5797	0.000196869	   11.5817	0.000192879	   11.5817	0.000198078	   11.5817	   4.95194	
   11.6031	0.000207814	   11.5985	0.000200026	   11.6008	0.000195989	   11.6008	0.000201276	   11.6008	   5.03191	
   11.6218	0.000211113	   11.6167	0.000203226	   11.6193	0.000199155	   11.6193	0.000204498	   11.6193	   5.11245	
   11.6404	0.000214422	   11.6347	0.000206257	   11.6372	0.000202398	   11.6374	0.000207692	   11.6374	   5.19231	
   11.6584	0.000217741	   11.6523	0.000209131	   11.6548	0.000205614	   11.6552	0.000210829	   11.6552	   5.27072	
   11.6762	0.000221044	   11.6696	0.000212082	    11.672	0.000208739	   11.6726	0.000213955	   11.6726	   5.34888	
   11.6936	0.000224323	   11.6866	0.000215209	    11.689	0.000211848	   11.6897	0.000217127	   11.6897	   5.42817	
   11.7106	0.000227609	   11.7035	0.00021833	   11.7058	0.000215032	   11.7066	0.000220324	   11.7066	    5.5081	
   11.7273	0.000230898	   11.7201	0.000221245	   11.7222	0.000218253	   11.7232	0.000223465	   11.7232	   5.58663	
   11.7437	0.000234156	   11.7365	0.000224082	   11.7383	0.000221412	   11.7395	0.00022655	   11.7395	   5.66375	
   11.7598	0.000237396	   11.7526	0.000227099	   11.7541	0.000224487	   11.7555	0.000229661	   11.7555	   5.74152	
   11.7754	0.000240639	   11.7684	0.000230265	   11.7696	0.00022758	   11.7711	0.000232828	   11.7711	    5.8207	
   11.7907	0.000243888	   11.7838	0.000233276	   11.7847	0.00023077	   11.7864	0.000235978	   11.7864	   5.89945	
   11.8055	0.000247109	   11.7988	0.000236059	   11.7994	0.000233974	   11.8013	0.000239047	   11.8013	   5.97618	
   11.8199	0.000250284	   11.8135	0.000238864	   11.8138	0.000237082	   11.8157	0.000242077	   11.8157	   6.05192	
   11.8338	0.000253445	   11.8277	0.000241878	   11.8278	0.000240113	   11.8298	0.000245145	   11.8298	   6.12863	
   11.8473	0.000256623	   11.8415	0.000244937	   11.8414	0.000243205	   11.8434	0.000248255	   11.8434	   6.20637	
   11.8603	0.000259786	   11.8549	0.000247799	   11.8546	0.000246375	   11.8566	0.00025132	   11.8566	     6.283	
   11.8728	0.000262938	   11.8678	0.000250515	   11.8673	0.00024949	   11.8693	0.000254314	   11.8693	   6.35786	
   11.8844	0.000266088	   11.8803	0.000253331	   11.8796	0.00025249	   11.8814	0.000257303	   11.8814	   6.43257	
   11.8954	0.000269208	   11.8923	0.000256288	   11.8915	0.000255498	   11.8931	0.000260331	   11.8931	   6.50829	
   11.9062	0.000272276	   11.9039	0.000259217	   11.9029	0.000258603	   11.9043	0.000263365	   11.9043	   6.58414	
   11.9164	0.00027533	   11.9149	0.000262004	   11.9138	0.000261718	    11.915	0.000266351	    11.915	   6.65877	
   11.9261	0.000278408	   11.9256	0.000264745	   11.9243	0.000264721	   11.9253	0.000269291	   11.9253	   6.73229	
   11.9352	0.000281468	   11.9357	0.000267577	   11.9344	0.00026767	   11.9351	0.000272238	   11.9351	   6.80596	
   11.9441	0.000284426	   11.9454	0.000270457	    11.944	0.000270702	   11.9445	0.000275195	   11.9445	   6.87988	
   11.9526	0.000287324	   11.9547	0.000273246	   11.9532	0.000273815	   11.9535	0.000278129	   11.9535	   6.95321	
   11.9608	0.000290269	   11.9634	0.000275935	   11.9619	0.00027687	   11.9621	0.000281025	   11.9621	   7.02562	
   11.9683	0.00029324	   11.9718	0.00027866	   11.9703	0.000279807	   11.9701	0.000283903	   11.9701	   7.09756	
   11.9755	0.000296139	   11.9797	0.000281486	   11.9781	0.000282726	   11.9778	0.000286784	   11.9778	   7.16959	
   11.9819	0.000298946	   11.9871	0.000284297	   11.9853	0.000285727	   11.9848	0.000289657	   11.9848	   7.24141	
   11.9877	0.00030173	   11.9938	0.000286985	   11.9921	0.000288772	   11.9912	0.000292496	   11.9912	   7.31239	
   11.9929	0.000304537	   12.0001	0.000289612	   11.9984	0.000291752	   11.9971	 0.0002953	   11.9971	   7.38251	
   11.9978	0.00030736	    12.006	0.000292315	   12.0043	0.000294639	   12.0027	0.000298105	   12.0027	   7.45261	
   12.0022	0.000310142	   12.0112	0.000295102	   12.0097	0.00029751	   12.0077	0.000300918	   12.0077	   7.52295	
   12.0061	0.00031288	    12.016	0.000297841	   12.0143	0.000300434	   12.0121	0.000303718	   12.0121	   7.59295	
   12.0095	0.000315601	   12.0201	0.000300469	   12.0182	0.000303372	   12.0159	0.000306481	   12.0159	   7.66202	
   12.0123	0.000318315	   12.0235	0.000303082	   12.0214	0.000306248	   12.0191	0.000309215	   12.0191	   7.73036	
   12.0146	0.000320994	   12.0263	0.000305789	   12.0238	0.000309107	   12.0215	0.000311963	   12.0215	   7.79909	
   12.0163	0.000323638	   12.0285	0.000308549	   12.0254	0.00031199	   12.0234	0.000314726	   12.0234	   7.86815	
   12.0176	0.000326287	   12.0301	0.00031124	    12.027	0.000314843	   12.0249	0.000317456	   12.0249	   7.93641	
   12.0184	0.000328948	    12.031	0.000313842	   12.0282	0.000317592	   12.0259	0.000320127	   12.0259	   8.00318	
   12.0186	0.000331582	   12.0311	0.000316462	   12.0291	0.000320268	   12.0263	0.000322771	   12.0263	   8.06927	
   12.0182	0.000334169	   12.0307	0.000319168	   12.0292	0.000323016	    12.026	0.000325451	    12.026	   8.13627	
   12.0174	0.000336741	   12.0297	0.000321889	   12.0281	0.000325859	   12.0251	0.000328163	   12.0251	   8.20407	
    12.016	0.000339322	   12.0282	0.000324534	   12.0264	0.000328651	   12.0236	0.000330836	   12.0236	    8.2709	
   12.0143	0.00034189	   12.0262	0.000327121	   12.0242	0.000331297	   12.0216	0.000333436	   12.0216	    8.3359	
   12.0122	0.000344418	   12.0238	0.00032974	   12.0217	0.000333892	   12.0192	0.000336017	   12.0192	   8.40042	
   12.0097	0.000346917	   12.0209	0.00033241	   12.0186	0.000336564	   12.0164	0.00033863	   12.0164	   8.46576	
   12.0069	0.000349419	   12.0176	0.000335071	   12.0151	0.00033929	   12.0132	0.00034126	   12.0132	    8.5315	
   12.0038	0.000351922	   12.0138	0.000337671	   12.0112	0.000341948	   12.0096	0.000343847	   12.0096	   8.59618	
   12.0004	0.000354391	   12.0097	0.000340228	   12.0066	0.000344517	   12.0056	0.000346379	   12.0056	   8.65947	
   11.9964	0.000356813	   12.0051	0.000342778	   12.0016	0.000347088	    12.001	0.000348893	    12.001	   8.72232	
    11.992	0.000359217	   11.9999	0.000345368	   11.9961	0.000349711	    11.996	0.000351432	    11.996	    8.7858	
   11.9871	0.000361633	   11.9941	0.000347991	     11.99	0.000352371	   11.9904	0.000353998	   11.9904	   8.84996	
   11.9814	0.000364058	   11.9877	0.000350584	   11.9833	0.00035502	   11.9841	0.000356554	   11.9841	   8.91386	
   11.9753	0.000366453	   11.9807	0.000353104	   11.9761	0.000357637	   11.9773	0.000359065	   11.9773	   8.97662	
   11.9686	0.00036879	   11.9732	0.000355595	   11.9684	0.000360221	   11.9701	0.000361535	   11.9701	   9.03838	
   11.9614	0.000371082	   11.9654	0.000358107	   11.9604	0.000362781	   11.9624	0.00036399	   11.9624	   9.09976	
   11.9538	0.000373378	   11.9571	0.000360635	    11.952	0.000365337	   11.9543	0.00036645	   11.9543	   9.16125	
   11.9458	0.000375708	   11.9486	0.00036313	   11.9432	0.000367895	   11.9459	0.000368911	   11.9459	   9.22278	
   11.9375	0.000378042	   11.9398	0.000365581	    11.934	0.000370448	   11.9371	0.000371357	   11.9371	   9.28393	
   11.9289	0.000380321	   11.9304	0.00036805	   11.9241	0.000373005	   11.9278	0.000373792	   11.9278	    9.3448	
   11.9201	0.000382547	   11.9203	0.000370566	   11.9135	0.000375547	   11.9179	0.00037622	   11.9179	    9.4055	
   11.9107	0.00038478	   11.9095	0.000373068	   11.9025	0.000378041	   11.9076	0.00037863	   11.9076	   9.46574	
   11.9006	0.000387048	   11.8985	0.000375485	   11.8915	0.000380525	   11.8969	0.00038102	   11.8969	   9.52549	
     11.89	0.000389308	   11.8874	0.000377865	     11.88	0.000383051	   11.8858	0.000383408	   11.8858	   9.58519	
   11.8789	0.000391515	   11.8757	0.000380297	   11.8681	0.000385596	   11.8743	0.000385803	   11.8743	   9.64507	
   11.8672	0.000393664	   11.8637	0.000382758	   11.8559	0.000388087	   11.8623	0.00038817	   11.8623	   9.70424	
   11.8552	0.000395794	   11.8513	0.000385153	   11.8432	0.000390537	   11.8499	0.000390495	   11.8499	   9.76237	
   11.8426	0.000397933	   11.8386	0.000387476	   11.8299	0.000393022	    11.837	0.00039281	    11.837	   9.82025	
   11.8295	0.000400095	   11.8251	0.000389827	   11.8161	0.000395557	   11.8236	0.00039516	   11.8236	   9.87899	
   11.8158	0.000402258	   11.8113	0.000392236	   11.8019	0.00039806	   11.8097	0.000397518	   11.8097	   9.93794	
   11.8017	0.000404376	   11.7969	0.000394624	   11.7875	0.000400493	   11.7953	0.000399831	   11.7953	   9.99577	
    11.787	0.00040647	   11.7821	0.000396922	   11.7727	0.000402908	   11.7806	 0.0004021	   11.7806	   10.0525	
   11.7718	0.000408589	    11.767	0.000399167	   11.7575	0.000405367	   11.7654	0.000404374	   11.7654	   10.1094	
   11.7562	0.000410718	   11.7515	0.000401448	   11.7418	0.000407839	   11.7498	0.000406669	   11.7498	   10.1667	
   11.7403	0.000412814	   11.7356	0.000403787	   11.7257	0.000410254	   11.7339	0.000408952	   11.7339	   10.2238	
   11.7241	0.000414883	   11.7195	0.000406099	   11.7091	0.000412608	   11.7176	0.000411197	   11.7176	   10.2799	
   11.7075	0.000416953	   11.7029	0.000408323	    11.692	0.000414968	   11.7008	0.000413415	   11.7008	   10.3354	
   11.6904	0.000419032	   11.6859	0.000410517	   11.6745	0.00041736	   11.6836	0.000415636	   11.6836	   10.3909	
   11.6726	0.00042109	   11.6684	0.000412775	   11.6566	0.00041974	   11.6659	0.000417868	   11.6659	   10.4467	
   11.6543	0.000423123	   11.6504	0.00041508	   11.6383	0.000422065	   11.6477	0.000420089	   11.6477	   10.5022	
   11.6357	0.000425156	    11.632	0.000417336	   11.6196	0.000424355	   11.6291	0.000422282	   11.6291	   10.5571	
   11.6166	0.000427192	   11.6133	0.000419505	   11.6006	0.000426663	   11.6102	0.000424453	   11.6102	   10.6113	
   11.5972	0.000429212	   11.5943	0.000421656	    11.581	0.000428989	   11.5908	0.000426619	   11.5908	   10.6655	
   11.5772	0.000431218	   11.5747	0.000423863	    11.561	0.000431283	    11.571	0.000428788	    11.571	   10.7197	
   11.5566	0.000433222	   11.5545	0.000426095	   11.5406	0.000433521	   11.5505	0.000430946	   11.5505	   10.7736	
   11.5354	0.000435222	   11.5337	0.000428307	   11.5196	0.000435742	   11.5296	0.00043309	   11.5296	   10.8273	
    11.514	0.00043721	   11.5125	0.000430453	   11.4983	0.000437981	   11.5082	0.000435214	   11.5082	   10.8804	
   11.4921	0.000439183	   11.4912	0.000432523	   11.4767	0.000440219	   11.4867	0.000437308	   11.4867	   10.9327	
     11.47	0.000441152	   11.4696	0.00043457	   11.4548	0.000442412	   11.4648	0.000439378	   11.4648	   10.9844	
   11.4472	0.000443125	   11.4474	0.00043663	   11.4323	0.000444555	   11.4423	0.000441437	   11.4423	   11.0359	
   11.4237	0.000445091	   11.4247	0.000438727	   11.4094	0.00044669	   11.4193	0.000443503	   11.4193	   11.0876	
   11.3999	0.000447032	    11.401	0.000440826	   11.3859	0.000448836	   11.3956	0.000445564	   11.3956	   11.1391	
   11.3756	0.00044895	   11.3768	0.000442858	   11.3622	0.000450962	   11.3715	0.00044759	   11.3715	   11.1898	
   11.3511	0.00045088	    11.352	0.000444819	    11.338	0.000453035	    11.347	0.000449578	    11.347	   11.2394	
   11.3261	0.000452835	   11.3269	0.00044677	   11.3134	0.000455057	   11.3221	0.000451554	   11.3221	   11.2889	
   11.3005	0.000454776	   11.3014	0.000448722	   11.2881	0.000457088	   11.2967	0.000453528	   11.2967	   11.3382	
   11.2744	0.000456683	   11.2754	0.000450659	   11.2624	0.000459136	   11.2707	0.000455493	   11.2707	   11.3873	
    11.248	0.000458583	   11.2488	0.000452585	   11.2362	0.000461142	   11.2444	0.000457436	   11.2444	   11.4359	
   11.2212	0.000460503	   11.2218	0.000454512	   11.2098	0.000463055	   11.2176	0.000459357	   11.2176	   11.4839	
   11.1939	0.000462429	   11.1943	0.000456415	   11.1827	0.000464917	   11.1903	0.000461254	   11.1903	   11.5313	
   11.1662	0.000464332	   11.1664	0.000458267	   11.1551	0.000466829	   11.1626	0.000463143	   11.1626	   11.5786	
   11.1381	0.000466205	   11.1381	0.000460101	   11.1269	0.000468796	   11.1343	0.000465034	   11.1343	   11.6259	
   11.1096	0.000468073	   11.1093	0.00046195	   11.0984	0.000470708	   11.1057	0.00046691	   11.1057	   11.6728	
   11.0807	0.00046995	   11.0801	0.000463796	   11.0696	0.000472512	   11.0768	0.000468753	   11.0768	   11.7188	
   11.0513	0.000471804	   11.0506	0.000465612	   11.0405	0.000474317	   11.0475	0.000470578	   11.0475	   11.7644	
   11.0215	0.000473606	   11.0206	0.000467402	   11.0106	0.000476217	   11.0176	0.000472408	   11.0176	   11.8102	
   10.9912	0.000475382	   10.9901	0.000469194	   10.9805	0.000478122	   10.9873	0.000474233	   10.9873	   11.8558	
   10.9605	0.000477174	   10.9593	0.000470998	   10.9499	 0.0004799	   10.9566	0.000476024	   10.9566	   11.9006	
   10.9296	0.000478973	   10.9282	0.000472794	   10.9189	0.00048159	   10.9256	0.000477786	   10.9256	   11.9446	
   10.8982	0.000480724	   10.8969	0.000474561	   10.8874	0.000483336	   10.8941	0.00047954	   10.8941	   11.9885	
   10.8662	0.000482416	    10.865	0.000476307	   10.8554	0.000485147	   10.8622	0.00048129	   10.8622	   12.0322	
   10.8339	0.000484106	   10.8326	0.000478052	   10.8229	0.000486923	   10.8298	0.000483027	   10.8298	   12.0757	
   10.8012	0.000485822	   10.7996	0.000479799	   10.7896	0.000488617	   10.7968	0.000484746	   10.7968	   12.1187	
   10.7681	0.000487515	   10.7662	0.000481531	   10.7559	0.000490275	   10.7634	0.00048644	   10.7634	    12.161	
   10.7345	0.000489147	   10.7324	0.000483232	   10.7221	0.000491958	   10.7297	0.000488112	   10.7297	   12.2028	
   10.7004	0.000490743	   10.6984	0.000484913	   10.6879	0.000493659	   10.6956	0.000489772	   10.6956	   12.2443	
    10.666	0.000492352	   10.6639	0.000486594	   10.6533	0.000495328	   10.6611	0.000491424	   10.6611	   12.2856	
   10.6311	0.000493961	   10.6288	0.000488257	   10.6183	0.000496939	   10.6261	0.000493052	   10.6261	   12.3263	
   10.5958	0.000495521	   10.5932	0.00048988	    10.583	0.000498493	   10.5907	0.000494631	   10.5907	   12.3658	
     10.56	0.000497034	   10.5571	0.000491482	   10.5477	0.000500016	   10.5549	0.000496177	   10.5549	   12.4044	
   10.5238	0.000498539	   10.5207	0.000493117	   10.5118	0.000501539	   10.5187	0.000497731	   10.5187	   12.4433	
   10.4874	0.000500051	   10.4839	0.000494758	   10.4755	0.000503055	   10.4822	0.000499288	   10.4822	   12.4822	
   10.4506	0.000501544	   10.4467	0.000496325	   10.4389	0.000504562	   10.4454	0.000500811	   10.4454	   12.5203	
   10.4133	0.000502989	    10.409	0.000497807	   10.4016	0.000506054	    10.408	0.000502283	    10.408	   12.5571	
   10.3756	0.000504396	    10.371	0.000499288	   10.3639	0.000507517	   10.3702	0.000503734	   10.3702	   12.5933	
   10.3376	0.000505793	   10.3326	0.00050084	   10.3258	0.000508932	    10.332	0.000505188	    10.332	   12.6297	
   10.2992	0.000507198	   10.2938	0.000502411	   10.2874	0.000510313	   10.2935	0.000506641	   10.2935	    12.666	
   10.2602	0.000508607	   10.2547	0.000503891	   10.2485	0.000511708	   10.2545	0.000508069	   10.2545	   12.7017	
   10.2209	0.000509994	   10.2153	0.000505244	   10.2093	0.000513102	   10.2151	0.000509447	   10.2151	   12.7362	
   10.1812	0.000511324	   10.1756	0.000506574	   10.1694	0.000514433	   10.1754	0.000510777	   10.1754	   12.7694	
    10.141	0.000512611	   10.1352	0.000507975	   10.1291	0.000515701	   10.1351	0.000512096	   10.1351	   12.8024	
   10.1003	0.000513908	   10.0944	0.000509398	   10.0882	0.000516965	   10.0943	0.000513424	   10.0943	   12.8356	
   10.0592	0.000515221	   10.0533	0.000510727	   10.0471	0.000518253	   10.0532	0.000514734	   10.0532	   12.8683	
   10.0179	0.00051653	   10.0118	0.000511956	   10.0056	0.000519512	   10.0118	0.000515999	   10.0118	      12.9	
     9.976	0.000517805	   9.96964	0.000513203	   9.96362	 0.0005207	   9.96975	0.000517236	   9.96975	   12.9309	
   9.93368	0.000518991	   9.92707	0.000514519	    9.9212	0.000521851	   9.92732	0.000518454	   9.92732	   12.9613	
   9.89109	0.000520135	   9.88427	0.000515797	   9.87855	0.000523012	   9.88464	0.000519648	   9.88464	   12.9912	
   9.84814	0.000521357	   9.84131	0.000516934	   9.83559	0.000524167	   9.84168	0.000520819	   9.84168	   13.0205	
    9.8047	0.000522665	   9.79778	0.000517976	   9.79208	0.000525278	   9.79819	0.000521973	   9.79819	   13.0493	
    9.7608	0.00052393	   9.75389	0.000519062	   9.74823	0.000526336	   9.75431	0.00052311	   9.75431	   13.0777	
    9.7167	0.000525014	   9.70981	0.000520229	    9.7042	0.000527378	   9.71024	0.000524207	   9.71024	   13.1052	
   9.67199	0.000525998	   9.66541	0.00052136	   9.65974	0.000528426	   9.66571	0.000525261	   9.66571	   13.1315	
    9.6268	0.000527083	   9.62053	0.000522371	   9.61481	0.000529457	   9.62071	0.000526304	   9.62071	   13.1576	
   9.58132	0.000528302	   9.57535	0.000523318	   9.56961	0.000530442	   9.57543	0.000527354	   9.57543	   13.1838	
    9.5355	0.000529461	   9.52996	0.000524285	   9.52399	0.000531394	   9.52982	0.00052838	   9.52982	   13.2095	
   9.48912	0.000530445	   9.48413	0.000525259	   9.47789	0.00053234	   9.48371	0.000529348	   9.48371	   13.2337	
   9.44237	0.000531375	    9.4379	0.000526177	   9.43144	0.000533284	   9.43724	0.000530279	   9.43724	    13.257	
   9.39546	0.000532421	   9.39132	0.000527036	   9.38475	0.000534205	   9.39051	0.000531221	   9.39051	   13.2805	
   9.34806	0.000533523	   9.34423	0.000527897	   9.33767	0.000535093	   9.34332	0.000532171	   9.34332	   13.3043	
   9.30022	0.000534499	   9.29667	0.000528781	   9.29015	0.000535956	   9.29568	0.000533078	   9.29568	    13.327	
   9.25214	0.000535327	   9.24885	0.000529625	   9.24238	0.000536816	   9.24779	0.000533922	   9.24779	   13.3481	
   9.20365	0.000536183	   9.20074	0.000530387	   9.19427	0.000537677	   9.19955	0.000534749	   9.19955	   13.3687	
   9.15465	0.000537154	   9.15218	0.000531114	   9.14565	0.000538519	   9.15082	0.000535596	   9.15082	   13.3899	
   9.10535	0.000538119	   9.10327	0.000531864	   9.09672	0.000539326	   9.10178	0.000536436	   9.10178	   13.4109	
   9.05587	0.000538938	   9.05415	0.000532614	    9.0476	0.000540111	   9.05254	0.000537221	   9.05254	   13.4305	
   9.00589	0.000539666	   9.00465	0.000533305	   8.99797	 0.0005409	   9.00284	0.000537957	   9.00284	   13.4489	
   8.95556	0.000540465	   8.95474	0.000533931	   8.94798	0.00054169	   8.95276	0.000538696	   8.95276	   13.4674	
   8.90492	0.00054134	   8.90456	0.000534557	   8.89774	0.000542453	   8.90241	0.00053945	   8.90241	   13.4862	
   8.85389	0.000542136	   8.85387	0.000535207	   8.84711	0.000543176	   8.85162	0.000540173	   8.85162	   13.5043	
   8.80255	0.000542769	   8.80276	0.000535833	   8.79606	0.000543883	   8.80046	0.000540828	   8.80046	   13.5207	
   8.75102	0.000543371	   8.75142	0.00053637	   8.74467	0.000544568	   8.74904	0.000541436	   8.74904	   13.5359	
   8.69901	0.000544092	   8.69957	0.000536887	   8.69279	0.000545248	   8.69712	0.000542076	   8.69712	   13.5519	
   8.64649	0.000544863	   8.64705	0.000537483	   8.64055	0.000545945	    8.6447	0.000542764	    8.6447	   13.5691	
   8.59368	0.000545491	   8.59406	0.000538115	    8.5881	0.000546644	   8.59194	0.000543417	   8.59194	   13.5854	
   8.54065	0.000545963	   8.54107	0.000538655	   8.53533	0.000547305	   8.53902	0.000543975	   8.53902	   13.5994	
   8.48725	0.000546459	   8.48778	0.000539099	    8.4821	0.000547909	   8.48571	0.000544489	   8.48571	   13.6122	
    8.4334	0.000547074	   8.43423	0.000539565	   8.42863	0.000548497	   8.43208	0.000545046	   8.43208	   13.6261	
    8.3792	0.000547675	   8.38021	0.00054009	   8.37487	0.000549121	    8.3781	0.000545629	    8.3781	   13.6407	
    8.3247	0.00054811	   8.32615	0.000540572	   8.32063	0.000549771	   8.32383	0.000546151	   8.32383	   13.6538	
   8.26996	0.000548444	   8.27172	0.000540961	   8.26614	0.000550396	   8.26927	 0.0005466	   8.26927	    13.665	
    8.2149	0.000548848	     8.217	0.000541329	   8.21145	0.000550968	   8.21445	0.000547048	   8.21445	   13.6762	
   8.15969	0.000549337	   8.16201	0.000541727	   8.15628	0.000551548	   8.15933	0.000547537	   8.15933	   13.6884	
   8.10402	0.000549764	   8.10679	0.000542123	   8.10077	0.000552185	   8.10386	0.000548024	   8.10386	   13.7006	
    8.0479	0.000550045	   8.05091	0.000542459	   8.04497	0.000552829	   8.04793	0.000548444	   8.04793	   13.7111	
   7.99154	0.00055028	   7.99469	0.000542746	   7.98869	0.000553412	   7.99164	0.000548813	   7.99164	   13.7203	
   7.93486	0.000550597	   7.93811	0.000543046	   7.93209	0.00055397	   7.93502	0.000549204	   7.93502	   13.7301	
    7.8778	0.000550954	   7.88119	0.000543375	   7.87525	0.000554568	   7.87808	0.000549632	   7.87808	   13.7408	
   7.82039	0.00055121	   7.82388	0.000543674	   7.81794	0.000555184	   7.82074	0.000550022	   7.82074	   13.7506	
   7.76275	0.00055135	   7.76624	0.000543893	   7.76042	0.000555751	   7.76313	0.000550331	   7.76313	   13.7583	
   7.70483	0.000551498	   7.70828	0.000544126	   7.70259	0.000556286	   7.70524	0.000550637	   7.70524	   13.7659	
   7.64648	0.000551722	   7.64997	0.000544452	   7.64433	0.000556832	   7.64693	0.000551002	   7.64693	   13.7751	
   7.58795	0.000551932	   7.59143	0.000544804	   7.58587	0.000557376	   7.58842	0.000551371	   7.58842	   13.7843	
   7.52911	0.00055203	   7.53258	0.000545058	   7.52719	0.00055788	   7.52963	0.000551656	   7.52963	   13.7914	
   7.46995	0.000552055	   7.47332	0.000545229	   7.46817	0.000558349	   7.47048	0.000551878	   7.47048	   13.7969	
   7.41063	0.000552114	   7.41387	0.000545421	   7.40897	0.000558814	   7.41115	0.000552116	   7.41115	   13.8029	
   7.35092	0.000552214	   7.35417	0.000545681	   7.34937	0.000559282	   7.35149	0.000552392	   7.35149	   13.8098	
   7.29094	0.000552264	    7.2941	0.000545929	    7.2894	0.00055973	   7.29148	0.000552641	   7.29148	    13.816	
   7.23075	0.000552214	   7.23387	0.000546094	    7.2293	0.00056015	    7.2313	0.000552819	    7.2313	   13.8205	
   7.17032	0.000552131	   7.17323	0.000546203	   7.16886	0.000560549	    7.1708	0.000552961	    7.1708	    13.824	
   7.10956	0.000552098	   7.11226	0.000546341	    7.1081	0.000560937	   7.10997	0.000553125	   7.10997	   13.8281	
   7.04854	 0.0005521	   7.05119	0.000546524	   7.04707	0.000561308	   7.04893	0.000553311	   7.04893	   13.8328	
   6.98716	0.000552027	   6.98987	0.000546684	   6.98574	0.000561648	   6.98759	0.000553453	   6.98759	   13.8363	
    6.9255	0.00055185	   6.92826	0.000546774	   6.92412	0.000561992	   6.92596	0.000553539	   6.92596	   13.8385	
   6.86365	0.000551658	   6.86651	0.000546837	   6.86225	0.000562352	   6.86414	0.000553616	   6.86414	   13.8404	
   6.80143	0.000551531	   6.80436	0.000546933	   6.79999	0.000562678	   6.80193	0.000553714	   6.80193	   13.8428	
   6.73899	0.000551437	   6.74197	0.000547038	   6.73752	0.000562925	   6.73949	 0.0005538	   6.73949	    13.845	
   6.67633	0.000551266	   6.67956	0.000547094	   6.67474	0.000563116	   6.67688	0.000553825	   6.67688	   13.8456	
   6.61335	0.000550982	   6.61672	0.000547133	   6.61164	0.000563318	    6.6139	0.000553811	    6.6139	   13.8453	
   6.55021	0.000550687	   6.55369	0.000547217	    6.5484	0.000563573	   6.55077	0.000553826	   6.55077	   13.8456	
   6.48674	0.000550462	   6.49053	0.000547298	   6.48483	0.000563828	   6.48737	0.000553863	   6.48737	   13.8466	
   6.42293	0.000550249	   6.42714	0.00054729	   6.42094	0.000563993	   6.42367	0.000553844	   6.42367	   13.8461	
   6.35905	0.000549952	   6.36361	0.000547229	   6.35697	0.000564071	   6.35987	0.000553751	   6.35987	   13.8438	
   6.29487	0.000549581	   6.29987	0.00054722	   6.29271	0.000564155	   6.29581	0.000553652	   6.29581	   13.8413	
   6.23042	0.000549225	    6.2358	0.000547267	   6.22819	0.000564296	   6.23147	0.000553596	   6.23147	   13.8399	
   6.16574	0.000548902	   6.17151	0.000547263	   6.16344	0.000564422	    6.1669	0.000553529	    6.1669	   13.8382	
   6.10071	0.000548545	   6.10697	0.000547173	   6.09834	0.000564435	   6.10201	0.000553384	   6.10201	   13.8346	
   6.03551	0.000548128	   6.04219	0.000547069	   6.03301	0.000564364	    6.0369	0.000553187	    6.0369	   13.8297	
   5.97013	0.000547693	   5.97715	0.000547021	   5.96758	0.000564313	   5.97162	0.000553009	   5.97162	   13.8252	
    5.9044	0.000547277	   5.91171	0.000546995	   5.90182	0.000564303	   5.90597	0.000552858	   5.90597	   13.8215	
   5.83849	0.000546866	   5.84611	0.00054691	   5.83596	0.000564247	   5.84019	0.000552674	   5.84019	   13.8168	
   5.77229	0.000546433	   5.78009	0.000546758	   5.76981	0.000564084	   5.77407	0.000552425	   5.77407	   13.8106	
   5.70585	0.000545993	   5.71377	0.000546618	   5.70349	0.000563866	    5.7077	0.000552159	    5.7077	    13.804	
   5.63911	0.000545514	   5.64711	0.00054654	     5.637	0.000563671	   5.64107	0.000551908	   5.64107	   13.7977	
   5.57213	0.000544976	   5.58009	0.000546465	   5.57018	0.000563485	   5.57413	0.000551642	   5.57413	   13.7911	
   5.50501	0.00054442	   5.51288	0.000546305	   5.50319	0.000563228	   5.50703	0.000551317	   5.50703	   13.7829	
   5.43774	0.000543906	   5.44557	0.000546085	   5.43612	0.000562878	   5.43981	0.000550956	   5.43981	   13.7739	
   5.37023	0.000543418	   5.37792	0.000545914	   5.36872	0.000562496	   5.37229	0.000550609	   5.37229	   13.7652	
   5.30267	0.000542929	   5.31018	0.000545789	   5.30125	0.000562135	    5.3047	0.000550284	    5.3047	   13.7571	
   5.23479	0.000542399	    5.2422	0.000545616	   5.23337	0.000561763	   5.23679	0.000549926	   5.23679	   13.7481	
    5.1667	0.000541792	   5.17396	0.000545348	   5.16528	0.000561319	   5.16865	0.000549486	   5.16865	   13.7372	
   5.09864	0.000541103	   5.10566	0.000545071	   5.09713	0.000560804	   5.10048	0.000548993	   5.10048	   13.7248	
   5.03071	0.000540401	   5.03697	0.000544861	   5.02868	0.000560278	   5.03212	0.000548513	   5.03212	   13.7128	
   4.96253	0.000539797	   4.96806	0.000544653	   4.96011	0.000559769	   4.96357	0.000548073	   4.96357	   13.7018	
   4.89366	0.000539281	   4.89906	0.000544339	   4.89131	0.000559232	   4.89467	0.000547617	   4.89467	   13.6904	
   4.82436	0.00053871	   4.82977	0.000543938	   4.82223	0.000558622	   4.82546	0.00054709	   4.82546	   13.6773	
   4.75507	0.000538004	   4.76048	0.000543567	   4.75293	0.000557961	   4.75616	0.000546511	   4.75616	   13.6628	
   4.68595	0.000537272	   4.69075	0.000543244	    4.6834	0.000557303	    4.6867	0.000545939	    4.6867	   13.6485	
   4.61666	0.000536636	   4.62087	0.00054287	   4.61372	0.000556653	   4.61708	0.000545386	   4.61708	   13.6347	
   4.54703	0.000536059	   4.55101	0.000542393	   4.54399	0.000555959	   4.54734	0.000544803	   4.54734	   13.6201	
    4.4771	0.000535406	   4.48083	0.00054189	   4.47396	0.00055519	    4.4773	0.000544162	    4.4773	   13.6041	
   4.40696	0.000534652	   4.41062	0.00054143	   4.40382	0.000554383	   4.40713	0.000543488	   4.40713	   13.5872	
   4.33675	0.000533913	   4.34002	0.000540969	   4.33339	0.000553582	   4.33672	0.000542821	   4.33672	   13.5705	
   4.26635	0.000533263	   4.26924	0.000540422	   4.26279	0.00055278	   4.26613	0.000542155	   4.26613	   13.5539	
   4.19587	0.000532613	   4.19848	0.000539797	     4.192	0.000551929	   4.19545	0.000541447	   4.19545	   13.5362	
   4.12506	0.000531862	   4.12746	0.00053917	    4.1209	0.000551019	   4.12448	0.000540684	   4.12448	   13.5171	
    4.0542	0.000531051	   4.05639	0.000538568	    4.0497	0.00055009	   4.05343	0.000539903	   4.05343	   13.4976	
   3.98311	0.000530303	   3.98518	0.000537928	   3.97848	0.000549176	   3.98225	0.000539136	   3.98225	   13.4784	
   3.91183	0.00052962	   3.91376	0.000537204	   3.90707	0.000548261	   3.91089	0.000538362	   3.91089	    13.459	
   3.84053	0.000528855	    3.8424	0.000536425	   3.83561	0.000547287	   3.83951	0.000537522	   3.83951	   13.4381	
   3.76898	0.000527938	   3.77085	0.000535657	    3.7639	0.00054623	   3.76791	0.000536609	   3.76791	   13.4152	
   3.69735	0.000527005	    3.6992	0.000534897	   3.69214	0.00054516	   3.69623	0.000535687	   3.69623	   13.3922	
   3.62581	0.000526193	   3.62748	0.000534098	   3.62009	0.00054413	   3.62446	0.000534807	   3.62446	   13.3702	
   3.55404	0.000525428	   3.55551	0.000533218	   3.54786	0.000543105	   3.55247	0.000533917	   3.55247	   13.3479	
   3.48222	0.000524535	   3.48358	0.000532261	   3.47563	0.000542004	   3.48047	0.000532933	   3.48047	   13.3233	
   3.41017	0.000523511	   3.41149	0.000531272	   3.40314	0.000540845	   3.40827	0.000531876	   3.40827	   13.2969	
   3.33802	0.000522537	   3.33929	0.000530278	   3.33061	0.000539704	   3.33597	0.00053084	   3.33597	    13.271	
   3.26574	0.000521678	   3.26687	0.000529289	   3.25799	0.000538603	   3.26353	0.000529856	   3.26353	   13.2464	
   3.19322	0.000520787	   3.19421	0.000528269	   3.18518	0.000537472	   3.19087	0.000528842	   3.19087	   13.2211	
   3.12066	0.000519737	    3.1215	0.000527183	   3.11245	0.000536273	   3.11821	0.000527731	   3.11821	   13.1933	
   3.04782	0.000518606	   3.04852	0.000526044	   3.03947	0.000535043	   3.04527	0.000526565	   3.04527	   13.1641	
   2.97489	0.000517555	   2.97544	0.000524893	   2.96643	0.000533826	   2.97225	0.000525425	   2.97225	   13.1356	
   2.90188	0.000516583	   2.90237	0.000523743	   2.89343	0.000532612	   2.89922	0.000524313	   2.89922	   13.1078	
   2.82864	0.000515538	   2.82906	0.000522572	   2.82021	0.000531363	   2.82597	0.000523157	   2.82597	   13.0789	
   2.75537	0.000514351	   2.75571	0.000521356	   2.74698	0.000530084	   2.75268	0.00052193	   2.75268	   13.0483	
   2.68189	0.00051313	   2.68221	0.000520103	   2.67363	0.000528796	   2.67924	0.000520676	   2.67924	   13.0169	
   2.60832	0.000511986	   2.60863	0.000518845	    2.6002	0.000527499	   2.60572	0.000519443	   2.60572	   12.9861	
   2.53478	0.000510872	   2.53489	0.000517569	   2.52664	0.000526163	    2.5321	0.000518201	    2.5321	    12.955	
   2.46101	0.000509664	   2.46093	0.000516252	   2.45288	0.00052476	   2.45827	0.000516892	   2.45827	   12.9223	
    2.3873	0.000508343	   2.38703	0.00051491	    2.3791	0.000523333	   2.38448	0.000515529	   2.38448	   12.8882	
    2.3133	0.000507025	   2.31294	0.000513574	   2.30515	0.000521924	   2.31046	0.000514175	   2.31046	   12.8544	
   2.23924	0.000505775	   2.23885	0.000512227	   2.23114	0.000520536	   2.23641	0.000512846	   2.23641	   12.8211	
   2.16515	0.000504506	   2.16472	0.000510845	   2.15704	0.000519146	    2.1623	0.000511499	    2.1623	   12.7875	
   2.09085	0.000503129	   2.09039	0.000509443	   2.08276	0.000517737	     2.088	0.000510103	     2.088	   12.7526	
   2.01662	0.000501675	   2.01611	0.00050805	   2.00849	0.000516277	   2.01374	0.000508667	   2.01374	   12.7167	
   1.94221	0.00050025	   1.94174	0.000506641	   1.93406	0.000514742	   1.93934	0.000507211	   1.93934	   12.6803	
   1.86775	0.000498884	   1.86729	0.000505185	    1.8596	0.000513164	   1.86488	0.000505744	   1.86488	   12.6436	
   1.79315	0.000497476	   1.79287	0.000503697	   1.78503	0.000511607	   1.79035	0.00050426	   1.79035	   12.6065	
   1.71837	0.00049595	   1.71824	0.000502233	   1.71029	0.000510087	   1.71563	0.000502757	   1.71563	   12.5689	
   1.64368	0.000494359	   1.64367	0.000500785	   1.63557	0.000508542	   1.64098	0.000501229	   1.64098	   12.5307	
   1.56882	0.000492805	   1.56885	0.000499264	   1.56078	0.00050692	   1.56615	0.000499663	   1.56615	   12.4916	
   1.49392	0.000491316	   1.49397	0.000497655	   1.48596	0.000505247	   1.49129	0.000498073	   1.49129	   12.4518	
   1.41896	0.000489779	   1.41887	0.000496031	   1.41102	0.000503595	   1.41628	0.000496468	   1.41628	   12.4117	
   1.34382	0.000488122	   1.34377	0.000494472	   1.33593	0.000501985	   1.34117	0.00049486	   1.34117	   12.3715	
   1.26872	0.000486421	   1.26868	0.000492939	   1.26088	0.000500332	    1.2661	0.000493231	    1.2661	   12.3308	
   1.19333	0.000484788	   1.19346	0.000491341	   1.18565	0.000498561	   1.19081	0.000491564	   1.19081	   12.2891	
   1.11794	0.00048319	   1.11821	0.000489661	   1.11041	0.000496708	   1.11552	0.000489853	   1.11552	   12.2463	
   1.04257	0.000481499	   1.04304	0.00048796	   1.03513	0.000494918	   1.04025	0.000488126	   1.04025	   12.2031	
  0.967072	0.000479702	  0.967704	0.000486279	   0.95973	0.000493204	  0.964835	0.000486395	  0.964835	   12.1599	
  0.891626	0.000477919	  0.892467	0.000484607	  0.884391	0.000491424	  0.889495	0.00048465	  0.889495	   12.1163	
  0.816077	0.000476204	  0.817178	0.000482897	  0.808875	0.000489473	  0.814043	0.000482858	  0.814043	   12.0715	
  0.740531	0.000474465	  0.741855	0.000481129	  0.733376	0.000487446	  0.738588	0.000481013	  0.738588	   12.0253	
  0.665086	0.000472619	  0.666599	0.000479337	  0.657827	0.000485489	  0.663171	0.000479148	  0.663171	   11.9787	
  0.589576	0.00047071	  0.591175	0.000477568	  0.582239	0.00048359	  0.587663	0.000477289	  0.587663	   11.9322	
  0.514193	0.000468827	  0.515854	0.000475809	  0.506801	0.000481618	  0.512282	0.000475418	  0.512282	   11.8855	
  0.438752	0.000466981	  0.440455	0.000474019	    0.4314	0.000479521	  0.436869	0.000473507	  0.436869	   11.8377	
  0.363301	0.000465093	  0.365024	0.000472193	  0.356001	0.000477389	  0.361442	0.000471558	  0.361442	    11.789	
  0.287739	0.000463117	   0.28961	0.000470354	  0.280719	0.000475298	  0.286023	0.00046959	  0.286023	   11.7397	
  0.212128	0.000461102	  0.214033	0.000468507	  0.205296	0.000473208	  0.210486	0.000467606	  0.210486	   11.6901	
  0.136647	0.000459117	  0.138568	0.000466632	  0.130004	0.000471014	  0.135073	0.000465588	  0.135073	   11.6397	
 0.0610603	0.000457141	 0.0632199	0.000464744	 0.0545223	0.000468713	 0.0596008	0.000463532	 0.0596008	   11.5883	
-0.0145271	0.000455083	-0.0121659	0.000462868	-0.0209544	0.000466443	-0.0158824	0.000461465	-0.0158824	   11.5366	
-0.0900172	0.000452956	-0.0874896	0.000460975	-0.0964913	0.00046428	-0.0913327	0.000459404	-0.0913327	   11.4851	
 -0.165647	0.000450865	 -0.162986	0.000459024	 -0.172077	0.000462118	 -0.166903	0.000457336	 -0.166903	   11.4334	
 -0.241146	0.000448812	 -0.238382	0.000457043	 -0.247603	0.000459789	 -0.242377	0.000455215	 -0.242377	   11.3804	
 -0.316624	0.00044669	 -0.313859	0.000455091	 -0.323092	0.000457297	 -0.317858	0.000453026	 -0.317858	   11.3256	
 -0.392032	0.000444465	 -0.389369	0.000453147	 -0.398581	0.000454827	 -0.393327	0.000450813	 -0.393327	   11.2703	
 -0.467281	0.000442229	 -0.464732	0.000451124	 -0.473889	0.000452481	 -0.468634	0.000448611	 -0.468634	   11.2153	
 -0.542621	0.000440032	 -0.540122	0.000449011	 -0.549271	0.000450139	 -0.544005	0.000446394	 -0.544005	   11.1598	
 -0.617861	0.000437826	 -0.615427	0.000446899	 -0.624533	0.000447642	 -0.619274	0.000444123	 -0.619274	   11.1031	
 -0.693109	0.000435594	  -0.69068	0.000444836	 -0.699859	0.000445032	 -0.694549	0.000441821	 -0.694549	   11.0455	
 -0.768394	0.00043338	 -0.765988	0.000442754	 -0.775201	0.000442473	 -0.769861	0.000439536	 -0.769861	   10.9884	
   -0.8436	0.000431176	 -0.841234	0.000440573	  -0.85037	0.000440005	 -0.845068	0.000437251	 -0.845068	   10.9313	
 -0.918653	0.000428903	 -0.916586	0.00043832	 -0.925619	0.000437501	 -0.920286	0.000434908	 -0.920286	   10.8727	
  -0.99349	0.000426561	 -0.991861	0.000436085	  -1.00077	0.000434869	 -0.995372	0.000432505	 -0.995372	   10.8126	
  -1.06834	0.000424237	  -1.06705	0.000433881	  -1.07572	0.000432181	  -1.07037	 0.0004301	  -1.07037	   10.7525	
   -1.1432	0.000421947	  -1.14231	0.000431628	  -1.15074	0.000429561	  -1.14542	0.000427712	  -1.14542	   10.6928	
  -1.21789	0.000419617	  -1.21737	0.000429286	  -1.22563	0.000426998	   -1.2203	 0.0004253	   -1.2203	   10.6325	
  -1.29252	0.000417224	  -1.29243	0.000426903	  -1.30057	0.000424373	  -1.29517	0.000422833	  -1.29517	   10.5708	
  -1.36737	0.000414838	  -1.36745	0.000424541	  -1.37545	0.000421644	  -1.37009	0.000420341	  -1.37009	   10.5085	
  -1.44228	0.000412495	  -1.44231	0.000422183	  -1.45016	0.000418905	  -1.44491	0.000417861	  -1.44491	   10.4465	
  -1.51713	0.00041014	  -1.51727	0.000419754	  -1.52495	0.000416241	  -1.51978	0.000415378	  -1.51978	   10.3845	
  -1.59181	0.000407692	  -1.59208	0.000417234	  -1.59957	0.000413603	  -1.59449	0.000412843	  -1.59449	   10.3211	
  -1.66634	0.000405175	  -1.66697	0.000414717	  -1.67427	0.000410892	  -1.66919	0.000410261	  -1.66919	   10.2565	
  -1.74087	0.000402698	  -1.74185	0.000412271	  -1.74893	0.000408104	  -1.74388	0.000407691	  -1.74388	   10.1923	
  -1.81531	0.000400304	  -1.81661	0.000409821	  -1.82348	0.000405332	  -1.81846	0.000405152	  -1.81846	   10.1288	
  -1.88974	0.000397881	  -1.89142	0.000407252	  -1.89798	0.000402622	  -1.89304	0.000402585	  -1.89304	   10.0646	
  -1.96413	0.000395316	  -1.96609	0.000404579	  -1.97235	0.000399906	  -1.96753	0.000399934	  -1.96753	   9.99834	
  -2.03849	0.000392668	  -2.04056	0.000401921	  -2.04659	0.000397114	  -2.04188	0.000397234	  -2.04188	   9.93086	
  -2.11275	0.00039011	  -2.11499	0.000399347	  -2.12087	0.000394284	   -2.1162	0.00039458	   -2.1162	    9.8645	
   -2.1868	0.000387676	   -2.1892	0.000396775	    -2.195	 0.0003915	  -2.19033	0.000391984	  -2.19033	   9.79959	
  -2.26084	0.000385201	  -2.26331	0.000394091	  -2.26902	0.00038876	  -2.26439	0.000389351	  -2.26439	   9.73376	
  -2.33475	0.000382568	  -2.33738	0.000391315	  -2.34297	0.000385983	  -2.33837	0.000386622	  -2.33837	   9.66555	
  -2.40851	0.000379874	  -2.41121	0.000388583	  -2.41676	0.000383129	  -2.41216	0.000383862	  -2.41216	   9.59655	
  -2.48223	0.000377277	  -2.48499	0.000385924	  -2.49064	0.00038026	  -2.48595	0.000381154	  -2.48595	   9.52884	
  -2.55582	0.000374762	  -2.55864	0.00038323	  -2.56435	0.000377445	   -2.5596	0.000378479	   -2.5596	   9.46197	
  -2.62927	0.000372172	  -2.63215	0.000380422	  -2.63783	0.000374652	  -2.63308	0.000375749	  -2.63308	   9.39372	
  -2.70269	0.000369452	   -2.7057	0.000377581	  -2.71132	0.00037181	  -2.70657	0.000372948	  -2.70657	   9.32369	
  -2.77598	0.000366728	  -2.77902	0.000374803	  -2.78465	0.000368915	  -2.77988	0.000370148	  -2.77988	   9.25371	
  -2.84917	0.000364095	  -2.85224	0.000372042	  -2.85793	0.000366019	  -2.85312	0.000367385	  -2.85312	   9.18463	
  -2.92232	0.000361485	  -2.92542	0.000369186	  -2.93106	0.000363168	  -2.92627	0.000364613	  -2.92627	   9.11532	
  -2.99524	0.000358772	  -2.99837	0.000366263	  -3.00387	0.00036033	  -2.99916	0.000361788	  -2.99916	   9.04471	
  -3.06821	0.000355958	  -3.07136	0.000363414	  -3.07663	0.000357448	  -3.07206	0.00035894	  -3.07206	    8.9735	
  -3.14104	0.000353168	  -3.14421	0.000360663	  -3.14925	0.000354528	  -3.14483	0.00035612	  -3.14483	     8.903	
  -3.21382	0.000350461	  -3.21685	0.000357844	  -3.22158	0.000351622	  -3.21742	0.000353309	  -3.21742	   8.83272	
  -3.28664	0.000347743	  -3.28954	0.000354846	  -3.29397	0.000348729	  -3.29005	0.000350439	  -3.29005	   8.76099	
  -3.35924	0.000344918	  -3.36202	 0.0003518	  -3.36615	0.000345808	  -3.36247	0.000347509	  -3.36247	   8.68772	
  -3.43171	0.000342025	  -3.43446	0.000348895	  -3.43831	0.000342855	  -3.43483	0.000344592	  -3.43483	    8.6148	
  -3.50414	0.000339186	   -3.5068	0.000346088	  -3.51044	0.000339891	  -3.50713	0.000341722	  -3.50713	   8.54304	
  -3.57637	0.000336433	  -3.57894	0.000343168	  -3.58229	0.00033693	   -3.5792	0.000338844	   -3.5792	   8.47109	
  -3.64837	0.000333649	  -3.65086	0.000340082	  -3.65409	0.000333956	  -3.65111	0.000335896	  -3.65111	    8.3974	
  -3.72028	0.000330734	   -3.7227	0.000337014	   -3.7258	0.00033098	  -3.72293	0.000332909	  -3.72293	   8.32273	
  -3.79186	0.000327746	  -3.79428	0.000334098	  -3.79725	0.000328009	  -3.79446	0.000329951	  -3.79446	   8.24877	
  -3.86329	0.000324829	  -3.86572	0.000331224	  -3.86863	0.000325019	  -3.86588	0.000327024	  -3.86588	    8.1756	
  -3.93458	0.000321993	  -3.93703	 0.0003282	  -3.93988	0.000321989	  -3.93716	0.00032406	  -3.93716	   8.10151	
  -4.00559	0.000319102	  -4.00804	0.000325067	  -4.01091	0.000318947	  -4.00818	0.000321039	  -4.00818	   8.02597	
  -4.07665	0.00031608	  -4.07905	0.00032203	  -4.08192	0.000315919	  -4.07921	0.00031801	  -4.07921	   7.95024	
  -4.14753	0.000313017	  -4.14987	0.000319126	  -4.15273	0.00031289	  -4.15004	0.000315011	  -4.15004	   7.87528	
  -4.21814	0.000310024	  -4.22036	0.000316176	  -4.22327	0.00030983	  -4.22059	0.00031201	  -4.22059	   7.80025	
  -4.28876	0.000307068	  -4.29087	0.00031308	  -4.29381	0.00030674	  -4.29115	0.000308963	  -4.29115	   7.72407	
  -4.35915	0.000304042	  -4.36117	0.000309959	  -4.36413	0.000303644	  -4.36148	0.000305882	  -4.36148	   7.64704	
  -4.42941	0.000300919	  -4.43126	0.000306954	  -4.43424	0.00030056	  -4.43164	0.000302811	  -4.43164	   7.57028	
  -4.49964	0.000297759	  -4.50127	0.000304005	  -4.50424	0.000297473	  -4.50172	0.000299746	  -4.50172	   7.49364	
   -4.5696	0.000294641	  -4.57103	0.000300967	  -4.57407	0.000294378	  -4.57157	0.000296662	  -4.57157	   7.41655	
   -4.6395	0.000291561	  -4.64062	0.000297831	  -4.64369	0.000291267	  -4.64127	0.000293553	  -4.64127	   7.33883	
  -4.70932	0.00028844	  -4.71007	0.000294719	  -4.71326	0.000288104	  -4.71088	0.000290421	  -4.71088	   7.26053	
  -4.77883	0.000285233	  -4.77934	0.000291686	  -4.78253	0.00028489	  -4.78024	0.000287269	  -4.78024	   7.18173	
  -4.84812	0.000281981	  -4.84854	0.000288643	  -4.85166	0.000281689	  -4.84944	0.000284104	  -4.84944	   7.10261	
   -4.9173	0.000278748	  -4.91768	0.000285498	  -4.92071	0.000278539	  -4.91856	0.000280929	  -4.91856	   7.02321	
  -4.98617	0.000275529	   -4.9865	0.000282293	  -4.98944	0.000275369	  -4.98737	0.00027773	  -4.98737	   6.94326	
  -5.05476	0.000272271	  -5.05513	0.000279072	   -5.0579	0.000272134	  -5.05593	0.000274492	  -5.05593	   6.86231	
  -5.12325	0.000268962	  -5.12367	0.000275886	  -5.12627	0.000268886	   -5.1244	0.000271245	   -5.1244	   6.78112	
  -5.19142	0.000265635	   -5.1919	0.000272734	  -5.19441	0.000265687	  -5.19257	0.000268019	  -5.19257	   6.70047	
  -5.25942	0.000262317	   -5.2599	0.000269573	  -5.26231	0.000262477	  -5.26054	0.000264789	  -5.26054	   6.61973	
  -5.32732	0.000258997	   -5.3278	0.000266371	  -5.32996	0.000259169	  -5.32836	0.000261512	  -5.32836	   6.53781	
  -5.39491	0.000255636	  -5.39547	 0.0002631	  -5.39731	0.000255804	  -5.39589	0.00025818	  -5.39589	   6.45451	
  -5.46229	0.000252252	  -5.46293	0.000259787	  -5.46439	0.000252502	   -5.4632	0.000254847	   -5.4632	   6.37118	
  -5.52958	0.000248868	   -5.5303	0.000256494	  -5.53141	0.000249269	  -5.53043	0.000251543	  -5.53043	   6.28858	
  -5.59655	0.000245465	  -5.59736	0.000253253	  -5.59813	0.000246001	  -5.59734	0.00024824	  -5.59734	   6.20599	
  -5.66321	0.000242038	  -5.66418	0.000250005	   -5.6645	0.000242664	  -5.66396	0.000244902	  -5.66396	   6.12255	
  -5.72972	0.000238596	  -5.73084	0.00024669	  -5.73083	0.000239287	  -5.73046	0.000241524	  -5.73046	   6.03811	
  -5.79594	0.000235157	  -5.79721	0.000243336	  -5.79688	0.000235935	  -5.79668	0.000238143	  -5.79668	   5.95356	
  -5.86182	0.000231735	  -5.86323	0.000240028	  -5.86271	0.000232624	  -5.86259	0.000234796	  -5.86259	   5.86989	
  -5.92767	0.000228311	  -5.92921	0.000236771	   -5.9285	0.000229313	  -5.92846	0.000231465	  -5.92846	   5.78663	
  -5.99317	0.000224822	  -5.99493	0.000233468	  -5.99404	0.000225942	  -5.99405	0.000228077	  -5.99405	   5.70192	
   -6.0578	0.000221248	  -6.06033	0.000230078	  -6.05929	0.00022255	  -6.05914	0.000224625	  -6.05914	   5.61564	
  -6.12211	0.000217648	  -6.12563	0.000226689	  -6.12438	0.00021921	  -6.12404	0.000221182	  -6.12404	   5.52955	
  -6.18643	0.000214134	   -6.1907	0.00022337	  -6.18925	0.000215931	  -6.18879	0.000217812	  -6.18879	   5.44529	
  -6.25123	0.000210706	  -6.25532	0.000220059	  -6.25384	0.000212619	  -6.25347	0.000214461	  -6.25347	   5.36153	
  -6.31605	0.000207229	  -6.31964	0.000216668	  -6.31838	0.000209227	  -6.31802	0.000211041	  -6.31802	   5.27604	
  -6.38051	0.000203638	  -6.38379	0.000213217	  -6.38273	0.000205841	  -6.38234	0.000207565	  -6.38234	   5.18913	
  -6.44448	0.000200026	  -6.44756	0.00020979	  -6.44676	0.000202531	  -6.44627	0.000204116	  -6.44627	   5.10289	
  -6.50808	0.000196489	  -6.51104	0.000206402	  -6.51056	0.000199248	   -6.5099	0.000200713	   -6.5099	   5.01782	
  -6.57115	0.000193002	  -6.57442	0.00020299	  -6.57423	0.000195898	  -6.57327	0.000197297	  -6.57327	   4.93241	
  -6.63415	0.000189478	  -6.63747	0.000199523	  -6.63754	0.000192486	  -6.63639	0.000193829	  -6.63639	   4.84572	
  -6.69696	0.000185899	  -6.70017	0.000196034	  -6.70033	0.000189093	  -6.69915	0.000190342	  -6.69915	   4.75854	
  -6.75964	0.000182326	  -6.76276	0.000192571	  -6.76298	0.000185752	  -6.76179	0.000186883	  -6.76179	   4.67208	
  -6.82206	0.000178804	  -6.82509	0.000189129	  -6.82537	0.000182403	  -6.82417	0.000183446	  -6.82417	   4.58614	
  -6.88403	0.000175306	  -6.88705	0.000185672	  -6.88731	0.00017899	  -6.88613	0.000179989	  -6.88613	   4.49974	
  -6.94586	0.000171775	  -6.94878	0.000182166	  -6.94903	0.000175547	  -6.94789	0.000176496	  -6.94789	    4.4124	
  -7.00751	0.000168208	  -7.01035	0.000178632	  -7.01058	0.000172142	  -7.00948	0.000172994	  -7.00948	   4.32485	
  -7.06878	0.000164673	  -7.07163	0.000175126	  -7.07176	0.000168765	  -7.07072	0.000169521	  -7.07072	   4.23803	
  -7.12957	 0.0001612	  -7.13257	0.000171652	  -7.13246	0.000165339	  -7.13153	0.000166064	  -7.13153	    4.1516	
  -7.19021	0.000157731	  -7.19342	0.000168159	  -7.19301	0.000161855	  -7.19221	0.000162582	  -7.19221	   4.06454	
  -7.25057	0.000154223	  -7.25398	0.000164617	  -7.25329	0.000158404	  -7.25262	0.000159081	  -7.25262	   3.97704	
  -7.31048	0.000150716	  -7.31408	0.000161102	   -7.3132	0.000155037	  -7.31259	0.000155618	  -7.31259	   3.89046	
  -7.37001	0.000147254	  -7.37393	0.00015764	  -7.37281	0.000151667	  -7.37225	0.000152187	  -7.37225	   3.80467	
  -7.42939	0.000143811	  -7.43361	0.000154147	  -7.43219	0.000148191	  -7.43173	0.000148716	  -7.43173	   3.71791	
  -7.48844	0.000140346	  -7.49292	0.00015056	  -7.49123	0.000144655	  -7.49086	0.000145187	  -7.49086	   3.62967	
  -7.54719	0.000136861	  -7.55177	0.000146947	  -7.54983	0.000141192	  -7.54959	0.000141667	  -7.54959	   3.54167	
  -7.60581	0.000133393	   -7.6104	0.000143426	  -7.60832	0.000137814	  -7.60817	0.000138211	  -7.60817	   3.45527	
  -7.66421	0.000129957	  -7.66879	0.000139965	  -7.66659	0.000134378	  -7.66653	0.000134766	  -7.66653	   3.36916	
  -7.72219	0.000126538	  -7.72676	0.000136429	  -7.72454	0.000130827	   -7.7245	0.000131265	   -7.7245	   3.28162	
  -7.77981	0.000123103	  -7.78437	0.00013279	   -7.7822	0.00012729	  -7.78213	0.000127728	  -7.78213	    3.1932	
  -7.83734	0.00011966	   -7.8418	0.000129161	  -7.83968	0.000123886	  -7.83961	0.000124236	  -7.83961	   3.10589	
  -7.89458	0.000116245	  -7.89894	0.000125615	  -7.89689	0.000120535	   -7.8968	0.000120798	   -7.8968	   3.01995	
  -7.95136	0.00011285	  -7.95563	0.000122102	  -7.95372	0.00011708	  -7.95357	0.000117344	  -7.95357	    2.9336	
  -8.00782	0.000109414	    -8.012	0.000118528	  -8.01022	0.00011352	  -8.01001	0.000113821	  -8.01001	   2.84552	
  -8.06415	0.000105935	  -8.06808	0.000114876	  -8.06634	0.000110006	  -8.06619	0.000110272	  -8.06619	   2.75681	
  -8.12015	0.000102499	  -8.12364	0.000111196	  -8.12216	0.000106612	  -8.12198	0.000106769	  -8.12198	   2.66923	
  -8.17576	9.91339e-05	  -8.17843	0.000107518	  -8.17752	0.000103235	  -8.17724	0.000103296	  -8.17724	   2.58239	
  -8.23102	9.57516e-05	  -8.23301	0.000103846	  -8.23248	9.97506e-05	  -8.23217	9.97826e-05	  -8.23217	   2.49457	
  -8.28604	9.22845e-05	  -8.28774	0.000100184	  -8.28731	9.62005e-05	  -8.28703	9.62228e-05	  -8.28703	   2.40557	
  -8.34075	8.87871e-05	  -8.34261	9.65479e-05	  -8.34185	9.2713e-05	  -8.34174	9.26827e-05	  -8.34174	   2.31707	
  -8.39497	8.53504e-05	    -8.397	9.28832e-05	    -8.396	8.93019e-05	  -8.39599	8.91785e-05	  -8.39599	   2.22946	
  -8.44881	8.19604e-05	  -8.45075	8.91298e-05	  -8.44979	 8.587e-05	  -8.44978	8.56534e-05	  -8.44978	   2.14134	
  -8.50245	7.85165e-05	  -8.50408	8.53504e-05	  -8.50338	8.23669e-05	   -8.5033	8.20779e-05	   -8.5033	   2.05195	
  -8.55579	7.49852e-05	  -8.55715	8.16264e-05	  -8.55668	7.88291e-05	  -8.55654	7.84802e-05	  -8.55654	   1.96201	
  -8.60867	7.14508e-05	  -8.60987	7.79262e-05	  -8.60953	7.52893e-05	  -8.60936	7.48888e-05	  -8.60936	   1.87222	
  -8.66103	6.79983e-05	  -8.66216	7.4146e-05	  -8.66179	7.17427e-05	  -8.66166	7.12957e-05	  -8.66166	   1.78239	
  -8.71324	6.4577e-05	  -8.71424	7.02895e-05	  -8.71384	6.82073e-05	  -8.71377	6.76913e-05	  -8.71377	   1.69228	
  -8.76519	6.10817e-05	  -8.76608	6.64618e-05	  -8.76605	6.47099e-05	  -8.76578	6.40845e-05	  -8.76578	   1.60211	
  -8.81674	5.75217e-05	  -8.81753	6.27031e-05	  -8.81806	6.12209e-05	  -8.81744	6.04819e-05	  -8.81744	   1.51205	
  -8.86789	5.40087e-05	  -8.86852	5.89389e-05	  -8.86948	5.76834e-05	  -8.86863	5.6877e-05	  -8.86863	   1.42192	
  -8.91849	5.05576e-05	  -8.91927	5.51007e-05	  -8.92018	5.40976e-05	  -8.91931	5.3252e-05	  -8.91931	    1.3313	
  -8.96883	4.70848e-05	  -8.96967	5.12246e-05	  -8.97038	5.05306e-05	  -8.96963	4.96133e-05	  -8.96963	   1.24033	
  -9.01884	4.35441e-05	  -9.01975	4.73961e-05	  -9.02027	4.70089e-05	  -9.01962	4.5983e-05	  -9.01962	   1.14958	
  -9.06839	3.99851e-05	  -9.06944	4.36176e-05	   -9.0697	4.3473e-05	  -9.06918	4.23586e-05	  -9.06918	   1.05896	
  -9.11747	3.6454e-05	  -9.11853	3.98137e-05	  -9.11861	3.98814e-05	   -9.1182	3.87163e-05	   -9.1182	  0.967908	
  -9.16623	3.29437e-05	  -9.16737	3.59492e-05	  -9.16713	3.62825e-05	  -9.16691	3.50585e-05	  -9.16691	  0.876462	
  -9.21476	2.94106e-05	  -9.21599	3.20819e-05	  -9.21537	3.2729e-05	  -9.21537	3.14072e-05	  -9.21537	   0.78518	
  -9.26292	2.58478e-05	  -9.26423	2.82876e-05	  -9.26328	2.92008e-05	  -9.26347	2.77787e-05	  -9.26347	  0.694468	
  -9.31057	2.2278e-05	  -9.31197	2.45348e-05	  -9.31071	2.56219e-05	  -9.31108	2.41449e-05	  -9.31108	  0.603623	
  -9.35784	1.87233e-05	  -9.35924	2.07241e-05	  -9.35777	2.19799e-05	  -9.35828	2.04757e-05	  -9.35828	  0.511894	
  -9.40483	1.52059e-05	  -9.40608	1.68344e-05	  -9.40452	1.83413e-05	  -9.40514	1.67939e-05	  -9.40514	  0.419847	
  -9.45158	1.16873e-05	  -9.45262	1.29713e-05	  -9.45104	1.47396e-05	  -9.45175	1.31328e-05	  -9.45175	  0.328319	
  -9.49794	8.10489e-06	   -9.4988	9.22193e-06	  -9.49721	1.11333e-05	  -9.49798	9.48672e-06	  -9.49798	  0.237168	
  -9.54379	4.47561e-06	  -9.54448	5.51463e-06	  -9.54289	7.49965e-06	  -9.54372	5.82996e-06	  -9.54372	  0.145749	
  -9.58909	8.83429e-07	  -9.58964	1.73054e-06	  -9.58813	3.86611e-06	  -9.58895	2.16003e-06	  -9.58895	 0.0540006	
  -9.63394	-2.62662e-06	  -9.63451	-2.13711e-06	    -9.633	2.42985e-07	  -9.63382	-1.50692e-06	  -9.63382	-0.0376729	
   -9.6785	-6.11665e-06	  -9.67919	-5.98608e-06	  -9.67752	-3.40362e-06	   -9.6784	-5.16878e-06	   -9.6784	  -0.12922	
  -9.72272	-9.66548e-06	  -9.72353	-9.71079e-06	  -9.72172	-7.09693e-06	  -9.72266	-8.8244e-06	  -9.72266	  -0.22061	
  -9.76649	-1.3257e-05	  -9.76741	-1.33679e-05	  -9.76547	-1.08021e-05	  -9.76646	-1.24757e-05	  -9.76646	 -0.311892	
  -9.80983	-1.68215e-05	  -9.81071	-1.71082e-05	  -9.80881	-1.44671e-05	  -9.80978	-1.61323e-05	  -9.80978	 -0.403307	
  -9.85273	-2.03361e-05	  -9.85367	-2.09581e-05	  -9.85171	-1.81101e-05	   -9.8527	-1.98014e-05	   -9.8527	 -0.495036	
  -9.89533	-2.38487e-05	  -9.89633	-2.47467e-05	  -9.89441	-2.17926e-05	  -9.89536	-2.34627e-05	  -9.89536	 -0.586566	
  -9.93743	-2.74003e-05	  -9.93873	-2.8359e-05	  -9.93685	-2.55286e-05	  -9.93767	-2.7096e-05	  -9.93767	   -0.6774	
  -9.97915	-3.09756e-05	  -9.98074	-3.19377e-05	  -9.97889	-2.926e-05	  -9.97959	-3.07245e-05	  -9.97959	 -0.768112	
  -10.0204	-3.45286e-05	  -10.0222	-3.57044e-05	  -10.0205	-3.29402e-05	   -10.021	-3.43911e-05	   -10.021	 -0.859777	
  -10.0612	-3.80886e-05	  -10.0634	-3.95584e-05	  -10.0615	-3.6607e-05	   -10.062	-3.80847e-05	   -10.062	 -0.952116	
  -10.1018	-4.16886e-05	  -10.1043	-4.32458e-05	  -10.1022	-4.03207e-05	  -10.1028	-4.17517e-05	  -10.1028	  -1.04379	
  -10.1421	-4.52562e-05	  -10.1449	-4.67662e-05	  -10.1427	-4.40748e-05	  -10.1433	-4.53657e-05	  -10.1433	  -1.13414	
  -10.1826	-4.87409e-05	  -10.1852	-5.03776e-05	  -10.1829	-4.78069e-05	  -10.1836	-4.89751e-05	  -10.1836	  -1.22438	
  -10.2228	-5.22243e-05	  -10.2251	-5.41885e-05	  -10.2227	-5.14984e-05	  -10.2235	-5.26371e-05	  -10.2235	  -1.31593	
  -10.2622	-5.58179e-05	  -10.2645	-5.79942e-05	   -10.262	-5.51997e-05	  -10.2629	-5.63373e-05	  -10.2629	  -1.40843	
  -10.3012	-5.94614e-05	  -10.3034	-6.16029e-05	  -10.3008	-5.8954e-05	  -10.3018	-6.00061e-05	  -10.3018	  -1.50015	
  -10.3399	-6.30327e-05	  -10.3419	-6.51083e-05	  -10.3392	-6.27267e-05	  -10.3403	-6.36226e-05	  -10.3403	  -1.59056	
   -10.378	-6.65127e-05	    -10.38	-6.87306e-05	  -10.3773	-6.64565e-05	  -10.3784	-6.72333e-05	  -10.3784	  -1.68083	
  -10.4155	-7.00118e-05	  -10.4178	-7.24833e-05	  -10.4151	-7.01496e-05	  -10.4161	-7.08815e-05	  -10.4161	  -1.77204	
   -10.453	-7.35869e-05	  -10.4553	-7.61691e-05	  -10.4526	-7.382e-05	  -10.4536	-7.45253e-05	  -10.4536	  -1.86313	
  -10.4902	-7.71929e-05	  -10.4924	-7.96803e-05	  -10.4897	-7.75057e-05	  -10.4907	-7.81263e-05	  -10.4907	  -1.95316	
  -10.5267	-8.07721e-05	   -10.529	-8.31518e-05	  -10.5259	-8.12614e-05	  -10.5272	-8.17284e-05	  -10.5272	  -2.04321	
  -10.5627	-8.43126e-05	   -10.565	-8.67447e-05	  -10.5613	-8.50641e-05	   -10.563	-8.53738e-05	   -10.563	  -2.13435	
  -10.5982	-8.78523e-05	  -10.6007	-9.04029e-05	  -10.5963	-8.88335e-05	  -10.5984	-8.90296e-05	  -10.5984	  -2.22574	
  -10.6335	-9.1424e-05	  -10.6361	-9.39441e-05	   -10.631	-9.24936e-05	  -10.6335	-9.26206e-05	  -10.6335	  -2.31551	
  -10.6685	-9.50211e-05	  -10.6711	-9.7349e-05	  -10.6658	-9.61004e-05	  -10.6685	-9.61568e-05	  -10.6685	  -2.40392	
  -10.7032	-9.85967e-05	  -10.7058	-0.000100776	  -10.7003	-9.97623e-05	  -10.7031	-9.97116e-05	  -10.7031	  -2.49279	
  -10.7375	-0.000102129	    -10.74	-0.000104317	  -10.7343	-0.000103487	  -10.7373	-0.000103311	  -10.7373	  -2.58277	
  -10.7714	-0.00010565	  -10.7738	-0.000107859	  -10.7676	-0.000107168	  -10.7709	-0.000106892	  -10.7709	  -2.67231	
  -10.8048	-0.000109198	  -10.8071	-0.000111266	  -10.8007	-0.000110755	  -10.8042	-0.000110406	  -10.8042	  -2.76016	
  -10.8376	-0.000112748	  -10.8398	-0.00011458	  -10.8334	-0.000114302	  -10.8369	-0.000113877	  -10.8369	  -2.84692	
    -10.87	-0.000116263	   -10.872	-0.000117963	  -10.8657	-0.000117873	  -10.8692	-0.000117367	  -10.8692	  -2.93417	
   -10.902	-0.000119752	  -10.9039	-0.000121432	  -10.8975	-0.000121468	  -10.9011	-0.000120884	  -10.9011	  -3.02211	
  -10.9336	-0.000123248	  -10.9355	-0.000124834	   -10.929	-0.00012505	  -10.9327	-0.000124378	  -10.9327	  -3.10944	
  -10.9649	-0.000126762	  -10.9667	-0.000128104	  -10.9602	-0.000128587	  -10.9639	-0.000127818	  -10.9639	  -3.19544	
  -10.9958	-0.000130269	  -10.9976	-0.000131365	   -10.991	-0.00013208	  -10.9948	-0.000131238	  -10.9948	  -3.28095	
  -11.0261	-0.000133745	   -11.028	-0.000134727	  -11.0214	-0.000135563	  -11.0252	-0.000134679	  -11.0252	  -3.36696	
   -11.056	-0.000137207	  -11.0579	-0.000138128	  -11.0512	-0.000139078	   -11.055	-0.000138137	   -11.055	  -3.45343	
  -11.0853	-0.000140683	  -11.0872	-0.000141445	  -11.0806	-0.000142593	  -11.0843	-0.000141573	  -11.0843	  -3.53933	
   -11.114	-0.000144168	  -11.1159	-0.000144682	  -11.1093	-0.000146036	  -11.1131	-0.000144962	  -11.1131	  -3.62404	
   -11.142	-0.000147638	  -11.1439	-0.000147961	  -11.1376	-0.000149405	  -11.1412	-0.000148335	  -11.1412	  -3.70836	
  -11.1695	-0.000151083	  -11.1715	-0.000151311	  -11.1654	-0.000152786	  -11.1688	-0.000151727	  -11.1688	  -3.79316	
  -11.1967	-0.000154525	  -11.1989	-0.000154625	  -11.1929	-0.000156206	  -11.1961	-0.000155119	  -11.1961	  -3.87796	
  -11.2235	-0.000157981	   -11.226	-0.000157825	  -11.2199	-0.000159595	  -11.2232	-0.000158467	  -11.2232	  -3.96167	
  -11.2501	-0.000161446	  -11.2529	-0.000161004	  -11.2467	-0.000162889	  -11.2499	-0.00016178	  -11.2499	   -4.0445	
  -11.2763	-0.00016489	  -11.2792	-0.00016428	  -11.2732	-0.000166134	  -11.2762	-0.000165102	  -11.2762	  -4.12754	
  -11.3021	-0.000168298	  -11.3048	-0.00016759	  -11.2993	-0.000169415	  -11.3021	-0.000168434	  -11.3021	  -4.21086	
  -11.3275	-0.000171699	  -11.3301	-0.00017084	  -11.3249	-0.00017272	  -11.3275	-0.000171753	  -11.3275	  -4.29383	
  -11.3523	-0.000175134	  -11.3547	-0.000174016	    -11.35	-0.000175973	  -11.3523	-0.000175041	  -11.3523	  -4.37603	
  -11.3766	-0.000178579	  -11.3787	-0.000177206	  -11.3745	-0.000179154	  -11.3766	-0.000178313	  -11.3766	  -4.45782	
  -11.4003	-0.00018198	  -11.4024	-0.000180424	  -11.3985	-0.00018233	  -11.4004	-0.000181578	  -11.4004	  -4.53945	
  -11.4234	-0.000185338	  -11.4257	-0.000183608	  -11.4219	-0.000185565	  -11.4237	-0.000184837	  -11.4237	  -4.62093	
  -11.4459	-0.000188707	  -11.4488	-0.00018674	  -11.4448	-0.000188816	  -11.4465	-0.000188088	  -11.4465	  -4.70219	
  -11.4679	-0.000192092	  -11.4713	-0.000189865	  -11.4674	-0.000191982	  -11.4689	-0.000191313	  -11.4689	  -4.78283	
  -11.4895	-0.000195457	  -11.4934	-0.000193009	  -11.4899	-0.000195055	  -11.4909	-0.000194507	  -11.4909	  -4.86268	
  -11.5106	-0.000198788	  -11.5149	-0.000196136	  -11.5121	-0.00019816	  -11.5125	-0.000197695	  -11.5125	  -4.94237	
  -11.5314	-0.000202107	  -11.5361	-0.000199212	  -11.5336	-0.000201383	  -11.5337	-0.000200901	  -11.5337	  -5.02252	
  -11.5519	-0.000205435	  -11.5569	-0.000202253	  -11.5544	-0.000204622	  -11.5544	-0.000204103	  -11.5544	  -5.10258	
  -11.5722	-0.000208766	  -11.5773	-0.000205307	  -11.5748	-0.00020773	  -11.5748	-0.000207268	  -11.5748	   -5.1817	
  -11.5921	-0.000212081	  -11.5974	-0.000208377	  -11.5947	-0.000210743	  -11.5947	-0.0002104	  -11.5947	  -5.26001	
  -11.6117	-0.000215372	  -11.6171	-0.000211425	   -11.614	-0.000213835	  -11.6143	-0.000213544	  -11.6143	   -5.3386	
   -11.631	-0.00021864	  -11.6365	-0.000214431	  -11.6328	-0.000217041	  -11.6334	-0.000216704	  -11.6334	   -5.4176	
  -11.6499	-0.000221884	  -11.6554	-0.000217426	  -11.6513	-0.00022023	  -11.6522	-0.000219847	  -11.6522	  -5.49616	
  -11.6683	-0.000225141	  -11.6739	-0.000220447	  -11.6695	-0.000223304	  -11.6706	-0.000222964	  -11.6706	   -5.5741	
  -11.6863	-0.000228437	  -11.6919	-0.000223483	  -11.6872	-0.000226334	  -11.6885	-0.000226085	  -11.6885	  -5.65212	
  -11.7038	-0.000231767	  -11.7095	-0.000226491	  -11.7043	-0.000229427	  -11.7059	-0.000229228	  -11.7059	  -5.73071	
  -11.7208	-0.000235056	  -11.7265	-0.00022946	   -11.721	-0.000232563	  -11.7228	-0.00023236	  -11.7228	  -5.80899	
  -11.7373	-0.000238238	   -11.743	-0.000232392	  -11.7372	-0.000235628	  -11.7391	-0.000235419	  -11.7391	  -5.88548	
  -11.7532	-0.000241364	  -11.7589	-0.000235389	  -11.7528	-0.00023861	   -11.755	-0.000238454	   -11.755	  -5.96135	
  -11.7687	-0.000244541	  -11.7735	-0.000238474	   -11.768	-0.00024161	  -11.7701	-0.000241542	  -11.7701	  -6.03854	
  -11.7835	-0.000247782	  -11.7873	-0.000241563	  -11.7826	-0.000244685	  -11.7845	-0.000244677	  -11.7845	  -6.11691	
  -11.7978	-0.00025099	  -11.8013	-0.00024454	  -11.7968	-0.00024775	  -11.7986	-0.00024776	  -11.7986	    -6.194	
  -11.8116	-0.000254104	  -11.8158	-0.000247412	  -11.8104	-0.000250728	  -11.8126	-0.000250748	  -11.8126	   -6.2687	
  -11.8248	-0.000257181	  -11.8297	-0.000250312	  -11.8236	-0.000253676	   -11.826	-0.000253723	   -11.826	  -6.34308	
  -11.8374	-0.000260284	   -11.843	-0.000253308	  -11.8361	-0.000256679	  -11.8389	-0.000256757	  -11.8389	  -6.41893	
  -11.8495	-0.00026339	  -11.8557	-0.000256311	  -11.8482	-0.000259713	  -11.8511	-0.000259805	  -11.8511	  -6.49511	
  -11.8611	-0.000266447	  -11.8675	-0.00025921	  -11.8597	-0.000262667	  -11.8628	-0.000262775	  -11.8628	  -6.56937	
  -11.8721	-0.000269457	  -11.8789	-0.000262039	  -11.8707	-0.000265574	  -11.8739	-0.00026569	  -11.8739	  -6.64225	
  -11.8826	-0.000272453	  -11.8899	-0.000264926	  -11.8811	-0.000268557	  -11.8846	-0.000268646	  -11.8846	  -6.71614	
  -11.8926	-0.000275461	  -11.9006	-0.0002679	  -11.8911	-0.000271626	  -11.8948	-0.000271663	  -11.8948	  -6.79156	
  -11.9021	-0.000278459	  -11.9107	-0.000270841	  -11.9005	-0.000274633	  -11.9044	-0.000274644	  -11.9044	  -6.86611	
   -11.911	-0.00028141	  -11.9202	-0.000273689	  -11.9095	-0.000277505	  -11.9135	-0.000277534	  -11.9135	  -6.93836	
  -11.9194	-0.0002843	  -11.9291	-0.000276523	  -11.9179	-0.000280369	  -11.9221	-0.000280398	  -11.9221	  -7.00994	
  -11.9274	-0.00028716	  -11.9375	-0.000279431	  -11.9259	-0.000283355	  -11.9302	-0.000283315	  -11.9302	  -7.08288	
  -11.9348	-0.000290023	  -11.9454	-0.000282356	  -11.9334	-0.000286376	  -11.9379	-0.000286252	  -11.9379	  -7.15629	
  -11.9418	-0.000292907	  -11.9528	-0.000285215	  -11.9404	-0.000289273	   -11.945	-0.000289132	   -11.945	   -7.2283	
  -11.9484	-0.000295764	  -11.9596	-0.000288042	   -11.947	-0.000292069	  -11.9517	-0.000291958	  -11.9517	  -7.29896	
  -11.9545	-0.000298553	  -11.9661	-0.000290907	  -11.9532	-0.000294939	  -11.9579	-0.0002948	  -11.9579	  -7.36999	
  -11.9602	-0.000301307	   -11.972	-0.000293793	   -11.959	-0.000297926	  -11.9637	-0.000297675	  -11.9637	  -7.44188	
  -11.9655	-0.000304073	  -11.9775	-0.000296635	  -11.9644	-0.000300877	  -11.9691	-0.000300528	  -11.9691	   -7.5132	
  -11.9704	-0.000306849	  -11.9825	-0.000299426	  -11.9694	-0.000303675	  -11.9741	-0.000303317	  -11.9741	  -7.58292	
   -11.975	-0.000309586	  -11.9871	-0.000302209	   -11.974	-0.00030642	  -11.9787	-0.000306072	  -11.9787	  -7.65179	
  -11.9792	-0.000312249	  -11.9914	-0.000304998	  -11.9782	-0.000309276	  -11.9829	-0.000308841	  -11.9829	  -7.72102	
   -11.983	-0.000314885	  -11.9952	-0.000307771	  -11.9821	-0.000312217	  -11.9868	-0.000311624	  -11.9868	  -7.79061	
  -11.9865	-0.000317568	  -11.9987	-0.000310513	  -11.9855	-0.00031509	  -11.9902	-0.000314391	  -11.9902	  -7.85976	
  -11.9896	-0.000320272	  -12.0019	-0.00031323	  -11.9887	-0.000317831	  -11.9934	-0.000317111	  -11.9934	  -7.92778	
  -11.9924	-0.000322907	  -12.0047	-0.000315932	  -11.9916	-0.000320527	  -11.9962	-0.000319788	  -11.9962	  -7.99471	
   -11.995	-0.000325455	  -12.0072	-0.000318619	  -11.9945	-0.000323299	  -11.9989	-0.000322458	  -11.9989	  -8.06144	
  -11.9973	-0.000328001	  -12.0094	-0.000321288	   -11.997	-0.000326134	  -12.0012	-0.000325141	  -12.0012	  -8.12852	
  -11.9992	-0.000330594	  -12.0111	-0.000323936	  -11.9988	-0.00032892	  -12.0031	-0.000327817	  -12.0031	  -8.19542	
  -12.0008	-0.000333166	  -12.0124	-0.000326569	  -12.0001	-0.000331592	  -12.0044	-0.000330442	  -12.0044	  -8.26106	
  -12.0019	-0.000335645	  -12.0129	-0.000329185	  -12.0008	-0.000334242	  -12.0052	-0.000333024	  -12.0052	   -8.3256	
  -12.0025	-0.000338076	  -12.0129	-0.000331779	  -12.0007	-0.000336987	  -12.0054	-0.000335614	  -12.0054	  -8.39035	
  -12.0024	-0.000340534	  -12.0122	-0.000334351	  -11.9999	-0.000339779	  -12.0049	-0.000338221	  -12.0049	  -8.45554	
  -12.0017	-0.000343023	  -12.0109	-0.000336919	  -11.9989	-0.000342455	  -12.0039	-0.000340799	  -12.0039	  -8.51997	
  -12.0005	-0.000345479	   -12.009	-0.000339485	  -11.9976	-0.000345011	  -12.0024	-0.000343325	  -12.0024	  -8.58313	
  -11.9986	-0.000347881	  -12.0065	-0.000341987	  -11.9956	-0.00034763	  -12.0002	-0.000345833	  -12.0002	  -8.64581	
  -11.9962	-0.000350273	  -12.0034	-0.000344424	   -11.993	-0.000350398	  -11.9976	-0.000348365	  -11.9976	  -8.70913	
  -11.9933	-0.000352702	  -11.9999	-0.000346892	    -11.99	-0.000353146	  -11.9944	-0.000350913	  -11.9944	  -8.77284	
  -11.9899	-0.000355137	   -11.996	-0.000349448	  -11.9865	-0.000355705	  -11.9908	-0.00035343	  -11.9908	  -8.83575	
  -11.9861	-0.000357531	  -11.9917	-0.000352016	  -11.9826	-0.000358161	  -11.9868	-0.000355903	  -11.9868	  -8.89758	
   -11.982	-0.000359887	  -11.9871	-0.000354469	  -11.9782	-0.00036074	  -11.9825	-0.000358365	  -11.9825	  -8.95913	
  -11.9776	-0.000362256	  -11.9821	-0.000356815	  -11.9734	-0.000363472	  -11.9777	-0.000360848	  -11.9777	  -9.02119	
  -11.9727	-0.000364655	  -11.9768	-0.0003592	  -11.9681	-0.000366134	  -11.9725	-0.00036333	  -11.9725	  -9.08324	
  -11.9673	-0.000367043	  -11.9711	-0.000361688	  -11.9621	-0.000368574	  -11.9669	-0.000365768	  -11.9669	  -9.14421	
  -11.9615	-0.000369392	  -11.9647	-0.000364172	  -11.9557	-0.000370942	  -11.9606	-0.000368168	  -11.9606	  -9.20421	
  -11.9551	-0.000371727	  -11.9577	-0.000366542	  -11.9487	-0.000373461	  -11.9538	-0.000370577	  -11.9538	  -9.26442	
  -11.9479	-0.000374082	  -11.9501	-0.000368846	  -11.9411	-0.000376097	  -11.9464	-0.000373008	  -11.9464	  -9.32521	
  -11.9402	-0.000376444	  -11.9419	-0.000371204	  -11.9329	-0.000378628	  -11.9384	-0.000375426	  -11.9384	  -9.38564	
  -11.9319	-0.000378785	  -11.9333	-0.000373626	  -11.9243	-0.000380971	  -11.9298	-0.000377794	  -11.9298	  -9.44485	
  -11.9232	-0.000381153	  -11.9242	-0.000375988	  -11.9154	-0.000383305	  -11.9209	-0.000380149	  -11.9209	  -9.50372	
  -11.9141	-0.000383528	  -11.9148	-0.000378224	  -11.9061	-0.00038579	  -11.9116	-0.000382514	  -11.9116	  -9.56285	
  -11.9047	-0.000385824	   -11.905	-0.000380436	  -11.8965	-0.000388326	  -11.9021	-0.000384862	  -11.9021	  -9.62156	
  -11.8949	-0.00038803	  -11.8948	-0.000382752	  -11.8866	-0.00039071	  -11.8921	-0.000387164	  -11.8921	   -9.6791	
  -11.8846	-0.000390251	  -11.8842	-0.000385117	  -11.8762	-0.00039295	  -11.8817	-0.000389439	  -11.8817	  -9.73597	
  -11.8738	-0.00039259	  -11.8731	-0.000387355	  -11.8652	-0.000395246	  -11.8707	-0.00039173	  -11.8707	  -9.79326	
  -11.8623	-0.000394977	  -11.8613	-0.000389462	  -11.8536	-0.000397677	   -11.859	-0.000394039	   -11.859	  -9.85097	
  -11.8502	-0.000397274	  -11.8489	-0.000391612	  -11.8414	-0.000400083	  -11.8468	-0.000396323	  -11.8468	  -9.90807	
  -11.8376	-0.000399447	  -11.8361	-0.000393884	  -11.8288	-0.000402322	  -11.8342	-0.000398551	  -11.8342	  -9.96378	
  -11.8246	-0.000401628	  -11.8229	-0.000396145	  -11.8158	-0.000404484	  -11.8211	-0.000400752	  -11.8211	  -10.0188	
  -11.8112	-0.000403922	  -11.8094	-0.000398276	  -11.8024	-0.000406743	  -11.8077	-0.00040298	  -11.8077	  -10.0745	
  -11.7975	-0.000406252	  -11.7955	-0.000400331	  -11.7886	-0.000409081	  -11.7939	-0.000405221	  -11.7939	  -10.1305	
  -11.7835	-0.000408469	  -11.7812	-0.000402451	  -11.7741	-0.000411329	  -11.7796	-0.000407416	  -11.7796	  -10.1854	
  -11.7689	-0.000410567	  -11.7663	-0.000404632	   -11.759	-0.000413438	  -11.7647	-0.000409546	  -11.7647	  -10.2386	
  -11.7537	-0.000412708	  -11.7508	-0.000406752	  -11.7435	-0.000415542	  -11.7493	-0.000411667	  -11.7493	  -10.2917	
  -11.7379	-0.000414988	  -11.7349	-0.000408766	  -11.7274	-0.000417743	  -11.7334	-0.000413832	  -11.7334	  -10.3458	
  -11.7217	-0.000417278	  -11.7185	-0.000410782	  -11.7109	-0.000419973	   -11.717	-0.000416011	   -11.717	  -10.4003	
  -11.7051	-0.000419419	  -11.7017	-0.000412867	  -11.6941	-0.000422106	  -11.7003	-0.000418131	  -11.7003	  -10.4533	
  -11.6882	-0.000421461	  -11.6845	-0.000414941	  -11.6771	-0.000424135	  -11.6832	-0.000420179	  -11.6832	  -10.5045	
  -11.6707	-0.000423597	  -11.6669	-0.000416897	  -11.6596	-0.000426175	  -11.6657	-0.000422223	  -11.6657	  -10.5556	
  -11.6527	-0.000425849	  -11.6488	-0.000418777	  -11.6416	-0.000428291	  -11.6477	-0.000424306	  -11.6477	  -10.6076	
  -11.6343	-0.000428044	  -11.6301	-0.000420747	  -11.6231	-0.000430393	  -11.6292	-0.000426395	  -11.6292	  -10.6599	
  -11.6154	-0.000430093	  -11.6109	-0.000422794	   -11.604	-0.000432376	  -11.6101	-0.000428421	  -11.6101	  -10.7105	
   -11.596	-0.000432108	  -11.5916	-0.000424738	  -11.5846	-0.000434271	  -11.5907	-0.000430372	  -11.5907	  -10.7593	
  -11.5762	-0.000434215	  -11.5722	-0.000426534	  -11.5649	-0.000436195	  -11.5711	-0.000432315	  -11.5711	  -10.8079	
  -11.5561	-0.000436365	  -11.5522	-0.000428346	  -11.5448	-0.000438177	   -11.551	-0.000434296	   -11.551	  -10.8574	
  -11.5356	-0.000438444	  -11.5317	-0.000430289	  -11.5243	-0.000440109	  -11.5305	-0.000436281	  -11.5305	   -10.907	
  -11.5145	-0.000440447	  -11.5107	-0.000432245	  -11.5031	-0.000441925	  -11.5094	-0.000438206	  -11.5094	  -10.9551	
   -11.493	-0.000442476	  -11.4893	-0.000434077	  -11.4814	-0.000443703	  -11.4879	-0.000440085	  -11.4879	  -11.0021	
  -11.4709	-0.000444571	  -11.4671	-0.000435843	  -11.4593	-0.000445536	  -11.4658	-0.000441983	  -11.4658	  -11.0496	
  -11.4486	-0.000446677	  -11.4443	-0.000437687	  -11.4369	-0.000447398	  -11.4433	-0.000443921	  -11.4433	   -11.098	
  -11.4259	-0.000448699	  -11.4208	-0.000439599	  -11.4142	-0.000449164	  -11.4203	-0.000445821	  -11.4203	  -11.1455	
  -11.4029	-0.000450659	  -11.3972	-0.000441459	  -11.3909	-0.000450816	   -11.397	-0.000447645	   -11.397	  -11.1911	
  -11.3791	-0.000452645	  -11.3731	-0.000443211	   -11.367	-0.000452473	  -11.3731	-0.000449443	  -11.3731	  -11.2361	
  -11.3548	-0.000454679	  -11.3489	-0.000444942	  -11.3426	-0.000454208	  -11.3488	-0.000451276	  -11.3488	  -11.2819	
  -11.3302	-0.000456689	  -11.3243	-0.000446735	  -11.3179	-0.000455924	  -11.3241	-0.000453116	  -11.3241	  -11.3279	
  -11.3053	-0.00045861	  -11.2991	-0.000448546	  -11.2929	-0.00045752	  -11.2991	-0.000454892	  -11.2991	  -11.3723	
  -11.2798	-0.000460492	  -11.2734	-0.000450287	  -11.2676	-0.000459063	  -11.2736	-0.000456614	  -11.2736	  -11.4154	
  -11.2538	-0.000462421	  -11.2472	-0.000451952	  -11.2417	-0.000460685	  -11.2476	-0.000458353	  -11.2476	  -11.4588	
  -11.2274	-0.000464376	  -11.2205	-0.000453622	  -11.2152	-0.000462363	   -11.221	-0.00046012	   -11.221	   -11.503	
  -11.2005	-0.000466279	  -11.1934	-0.000455337	  -11.1884	-0.000463953	  -11.1941	-0.000461856	  -11.1941	  -11.5464	
  -11.1733	-0.000468118	  -11.1659	-0.000457039	  -11.1613	-0.000465436	  -11.1668	-0.000463531	  -11.1668	  -11.5883	
  -11.1457	-0.000469956	  -11.1379	-0.000458671	  -11.1336	-0.000466946	   -11.139	-0.000465191	   -11.139	  -11.6298	
  -11.1175	-0.000471837	  -11.1093	-0.000460266	  -11.1052	-0.000468551	  -11.1107	-0.000466885	  -11.1107	  -11.6721	
  -11.0888	-0.000473712	  -11.0802	-0.000461891	  -11.0764	-0.000470143	  -11.0818	-0.000468582	  -11.0818	  -11.7145	
  -11.0597	-0.000475514	  -11.0508	-0.000463545	  -11.0473	-0.000471649	  -11.0526	-0.000470236	  -11.0526	  -11.7559	
  -11.0304	-0.000477279	  -11.0211	-0.000465167	  -11.0178	-0.000473121	  -11.0231	-0.000471856	  -11.0231	  -11.7964	
  -11.0007	-0.000479094	  -10.9909	-0.000466733	  -10.9876	-0.000474635	  -10.9931	-0.000473487	  -10.9931	  -11.8372	
  -10.9704	-0.000480952	  -10.9601	-0.000468289	  -10.9569	-0.000476153	  -10.9625	-0.000475131	  -10.9625	  -11.8783	
  -10.9396	-0.000482748	  -10.9288	-0.000469889	  -10.9258	-0.000477585	  -10.9314	-0.000476741	  -10.9314	  -11.9185	
  -10.9084	-0.000484439	  -10.8973	-0.000471505	  -10.8943	-0.000478968	     -10.9	-0.000478304	     -10.9	  -11.9576	
   -10.877	-0.000486133	  -10.8656	-0.00047307	  -10.8623	-0.000480418	  -10.8683	-0.000479874	  -10.8683	  -11.9968	
   -10.845	-0.0004879	  -10.8334	-0.000474589	  -10.8298	-0.000481939	  -10.8361	-0.000481476	  -10.8361	  -12.0369	
  -10.8125	-0.000489652	  -10.8007	-0.000476132	  -10.7968	-0.000483407	  -10.8033	-0.000483064	  -10.8033	  -12.0766	
  -10.7795	-0.000491288	  -10.7676	-0.000477743	  -10.7635	-0.000484745	  -10.7702	-0.000484592	  -10.7702	  -12.1148	
   -10.746	-0.000492865	  -10.7343	-0.000479341	  -10.7299	-0.000486042	  -10.7367	-0.000486083	  -10.7367	  -12.1521	
   -10.712	-0.000494514	  -10.7003	-0.000480841	  -10.6958	-0.000487459	  -10.7027	-0.000487605	  -10.7027	  -12.1901	
  -10.6775	-0.000496238	  -10.6659	-0.000482281	   -10.661	-0.000488969	  -10.6681	-0.000489163	  -10.6681	  -12.2291	
  -10.6425	-0.00049791	  -10.6311	-0.000483778	  -10.6259	-0.000490404	  -10.6332	-0.000490697	  -10.6332	  -12.2674	
  -10.6073	-0.000499449	   -10.596	-0.000485368	  -10.5906	-0.000491677	  -10.5979	-0.000492165	  -10.5979	  -12.3041	
  -10.5717	-0.000500944	  -10.5605	-0.000486947	  -10.5548	-0.000492918	  -10.5623	-0.000493603	  -10.5623	  -12.3401	
  -10.5356	-0.000502509	  -10.5244	-0.000488417	  -10.5184	-0.000494266	  -10.5261	-0.000495064	  -10.5261	  -12.3766	
  -10.4989	-0.000504113	  -10.4879	-0.000489832	  -10.4816	-0.000495669	  -10.4895	-0.000496538	  -10.4895	  -12.4135	
  -10.4619	-0.000505641	  -10.4511	-0.000491279	  -10.4446	-0.000496985	  -10.4525	-0.000497968	  -10.4525	  -12.4492	
  -10.4245	-0.000507063	  -10.4139	-0.000492755	  -10.4071	-0.000498207	  -10.4152	-0.000499342	  -10.4152	  -12.4835	
  -10.3866	-0.00050847	  -10.3763	-0.000494207	  -10.3691	-0.000499445	  -10.3773	-0.000500707	  -10.3773	  -12.5177	
  -10.3481	-0.000509934	  -10.3382	-0.000495621	  -10.3307	-0.000500754	   -10.339	-0.000502103	   -10.339	  -12.5526	
  -10.3092	-0.000511398	  -10.2998	-0.000497007	   -10.292	-0.000502053	  -10.3004	-0.000503486	  -10.3004	  -12.5872	
  -10.2698	-0.000512767	   -10.261	-0.000498395	   -10.253	-0.000503254	  -10.2613	-0.000504805	  -10.2613	  -12.6201	
  -10.2301	-0.000514054	  -10.2216	-0.000499804	  -10.2136	-0.000504389	  -10.2218	-0.000506082	  -10.2218	  -12.6521	
  -10.1899	-0.000515383	  -10.1817	-0.000501195	  -10.1739	-0.000505562	  -10.1818	-0.00050738	  -10.1818	  -12.6845	
  -10.1494	-0.000516792	  -10.1416	-0.000502529	  -10.1338	-0.000506784	  -10.1416	-0.000508702	  -10.1416	  -12.7175	
  -10.1084	-0.000518183	   -10.101	-0.00050382	  -10.0932	-0.000507949	  -10.1009	-0.000509984	  -10.1009	  -12.7496	
  -10.0669	-0.000519434	    -10.06	-0.000505129	  -10.0521	-0.000509012	  -10.0597	-0.000511192	  -10.0597	  -12.7798	
   -10.025	-0.000520588	  -10.0185	-0.000506464	  -10.0106	-0.000510061	  -10.0181	-0.000512371	  -10.0181	  -12.8093	
  -9.98287	-0.000521781	  -9.97681	-0.000507766	   -9.9689	-0.000511166	   -9.9762	-0.000513571	   -9.9762	  -12.8393	
  -9.94034	-0.00052303	  -9.93463	-0.000509001	  -9.92681	-0.000512264	  -9.93393	-0.000514765	  -9.93393	  -12.8691	
  -9.89735	-0.000524261	  -9.89192	-0.000510205	  -9.88423	-0.000513268	  -9.89117	-0.000515911	  -9.89117	  -12.8978	
  -9.85404	-0.00052541	  -9.84889	-0.000511414	  -9.84133	-0.000514215	  -9.84809	-0.000517013	  -9.84809	  -12.9253	
  -9.81027	-0.000526494	  -9.80563	-0.000512632	  -9.79807	-0.000515194	  -9.80466	-0.000518107	  -9.80466	  -12.9527	
  -9.76597	-0.000527572	   -9.7619	-0.000513837	  -9.75429	-0.000516218	  -9.76072	-0.000519209	  -9.76072	  -12.9802	
  -9.72124	-0.000528684	  -9.71772	-0.000514999	  -9.71008	-0.000517201	  -9.71635	-0.000520295	  -9.71635	  -13.0074	
  -9.67627	-0.000529775	  -9.67321	-0.00051613	  -9.66565	-0.000518095	  -9.67171	-0.000521333	  -9.67171	  -13.0333	
  -9.63111	-0.000530776	  -9.62825	-0.000517268	  -9.62079	-0.000518953	  -9.62672	-0.000522332	  -9.62672	  -13.0583	
   -9.5854	-0.000531702	  -9.58293	-0.000518432	  -9.57541	-0.000519853	  -9.58125	-0.000523329	  -9.58125	  -13.0832	
  -9.53936	-0.000532655	  -9.53725	-0.000519568	  -9.52972	-0.000520782	  -9.53544	-0.000524335	  -9.53544	  -13.1084	
  -9.49309	-0.000533648	  -9.49133	-0.00052065	  -9.48372	-0.000521657	  -9.48938	-0.000525318	  -9.48938	   -13.133	
  -9.44641	-0.000534571	  -9.44478	-0.000521714	  -9.43727	-0.000522454	  -9.44282	-0.000526246	  -9.44282	  -13.1562	
   -9.3993	-0.000535377	   -9.3978	-0.000522781	  -9.39041	-0.000523243	  -9.39583	-0.000527133	  -9.39583	  -13.1783	
  -9.35196	-0.000536172	   -9.3506	-0.000523814	  -9.34333	-0.00052408	  -9.34863	-0.000528022	  -9.34863	  -13.2006	
  -9.30433	-0.00053703	   -9.3031	-0.000524788	   -9.2959	-0.000524925	  -9.30111	-0.000528914	  -9.30111	  -13.2229	
  -9.25619	-0.000537872	   -9.2551	-0.000525738	  -9.24798	-0.00052571	  -9.25309	-0.000529773	  -9.25309	  -13.2443	
  -9.20774	-0.000538638	   -9.2068	-0.000526705	  -9.19977	-0.000526449	  -9.20477	-0.000530597	  -9.20477	  -13.2649	
   -9.1591	-0.000539374	  -9.15831	-0.000527678	  -9.15138	-0.000527214	  -9.15626	-0.000531422	  -9.15626	  -13.2856	
  -9.10995	-0.000540125	   -9.1093	-0.000528588	   -9.1025	-0.000528022	  -9.10725	-0.000532245	  -9.10725	  -13.3061	
  -9.06043	-0.00054083	  -9.05993	-0.000529415	  -9.05327	-0.000528817	  -9.05788	-0.000533021	  -9.05788	  -13.3255	
  -9.01074	-0.000541451	  -9.01039	-0.000530236	  -9.00387	-0.000529552	  -9.00833	-0.000533746	  -9.00833	  -13.3437	
  -8.96051	-0.000542074	  -8.96038	-0.0005311	  -8.95393	-0.000530263	  -8.95827	-0.000534479	  -8.95827	   -13.362	
  -8.90986	-0.000542773	  -8.90996	-0.000531964	  -8.90359	-0.000531006	   -8.9078	-0.000535248	   -8.9078	  -13.3812	
    -8.859	-0.000543481	  -8.85931	-0.000532752	  -8.85296	-0.000531777	  -8.85709	-0.000536003	  -8.85709	  -13.4001	
  -8.80777	-0.000544075	  -8.80821	-0.000533471	  -8.80182	-0.000532525	  -8.80594	-0.00053669	  -8.80594	  -13.4173	
  -8.75608	-0.000544556	  -8.75666	-0.000534203	  -8.75033	-0.000533225	  -8.75436	-0.000537328	  -8.75436	  -13.4332	
  -8.70416	-0.000545061	  -8.70485	-0.000534975	  -8.69861	-0.000533918	  -8.70254	-0.000537985	  -8.70254	  -13.4496	
  -8.65194	-0.000545652	  -8.65268	-0.000535718	  -8.64653	-0.000534643	  -8.65038	-0.000538671	  -8.65038	  -13.4668	
  -8.59923	-0.000546232	  -8.60009	-0.000536376	  -8.59405	-0.000535378	  -8.59779	-0.000539328	  -8.59779	  -13.4832	
  -8.54626	-0.000546697	  -8.54723	-0.000536965	  -8.54131	-0.000536074	  -8.54493	-0.000539912	  -8.54493	  -13.4978	
    -8.493	-0.000547087	  -8.49402	-0.000537586	  -8.48821	-0.000536729	  -8.49174	-0.000540467	  -8.49174	  -13.5117	
  -8.43932	-0.000547515	  -8.44029	-0.000538266	   -8.4347	-0.00053738	   -8.4381	-0.000541054	   -8.4381	  -13.5263	
  -8.38534	-0.000548004	  -8.38629	-0.000538917	  -8.38092	-0.00053805	  -8.38418	-0.000541657	  -8.38418	  -13.5414	
  -8.33121	-0.000548453	  -8.33206	-0.000539448	   -8.3269	-0.000538704	  -8.33005	-0.000542202	  -8.33005	   -13.555	
  -8.27654	-0.000548794	  -8.27748	-0.000539904	  -8.27252	-0.000539306	  -8.27551	-0.000542668	  -8.27551	  -13.5667	
  -8.22158	-0.000549088	  -8.22252	-0.000540392	  -8.21785	-0.00053989	  -8.22065	-0.000543123	  -8.22065	  -13.5781	
  -8.16646	-0.000549422	  -8.16741	-0.000540927	  -8.16285	-0.000540499	  -8.16557	-0.000543616	  -8.16557	  -13.5904	
  -8.11094	-0.000549786	  -8.11177	-0.000541417	  -8.10747	-0.000541102	  -8.11006	-0.000544101	  -8.11006	  -13.6025	
  -8.05512	-0.000550086	  -8.05585	-0.000541812	  -8.05179	-0.000541608	  -8.05425	-0.000544502	  -8.05425	  -13.6126	
  -7.99907	-0.000550272	  -7.99977	-0.000542171	  -7.99574	-0.000542028	  -7.99819	-0.000544824	  -7.99819	  -13.6206	
  -7.94256	-0.000550429	  -7.94326	-0.000542565	  -7.93926	-0.000542471	  -7.94169	-0.000545155	  -7.94169	  -13.6289	
  -7.88568	-0.000550675	  -7.88645	-0.000542978	   -7.8825	-0.000543023	  -7.88488	-0.000545558	  -7.88488	   -13.639	
  -7.82816	-0.000550994	   -7.8295	-0.000543334	  -7.82543	-0.000543606	   -7.8277	-0.000545978	   -7.8277	  -13.6494	
  -7.77024	-0.000551227	  -7.77203	-0.00054361	  -7.76795	-0.00054407	  -7.77007	-0.000546303	  -7.77007	  -13.6576	
  -7.71265	-0.000551303	  -7.71428	-0.000543871	   -7.7102	-0.000544405	  -7.71238	-0.000546526	  -7.71238	  -13.6632	
  -7.65506	-0.00055135	  -7.65627	-0.00054418	  -7.65234	-0.000544745	  -7.65456	-0.000546758	  -7.65456	   -13.669	
  -7.59703	-0.000551515	  -7.59778	-0.000544489	  -7.59408	-0.000545162	   -7.5963	-0.000547056	   -7.5963	  -13.6764	
  -7.53843	-0.000551733	  -7.53906	-0.000544722	  -7.53558	-0.000545565	  -7.53769	-0.00054734	  -7.53769	  -13.6835	
  -7.47954	-0.00055185	  -7.48007	-0.000544888	  -7.47681	-0.000545878	  -7.47881	-0.000547539	  -7.47881	  -13.6885	
  -7.42041	-0.000551849	  -7.42064	-0.000545063	  -7.41773	-0.000546138	  -7.41959	-0.000547683	  -7.41959	  -13.6921	
  -7.36105	-0.000551881	  -7.36101	-0.000545261	  -7.35842	-0.000546395	  -7.36016	-0.000547846	  -7.36016	  -13.6961	
  -7.30152	-0.000552037	  -7.30125	-0.000545426	   -7.2989	-0.00054664	  -7.30056	-0.000548034	  -7.30056	  -13.7009	
  -7.24163	-0.000552214	  -7.24115	-0.000545524	  -7.23895	-0.00054688	  -7.24058	-0.000548206	  -7.24058	  -13.7051	
  -7.18145	-0.000552259	  -7.18088	-0.000545595	  -7.17882	-0.000547127	  -7.18038	-0.000548327	  -7.18038	  -13.7082	
    -7.121	-0.000552209	  -7.12028	-0.000545687	  -7.11828	-0.000547333	  -7.11986	-0.00054841	  -7.11986	  -13.7102	
  -7.06015	-0.00055223	   -7.0594	-0.000545771	  -7.05737	-0.000547449	  -7.05897	-0.000548483	  -7.05897	  -13.7121	
  -6.99914	-0.000552356	  -6.99837	-0.000545798	  -6.99618	-0.000547519	   -6.9979	-0.000548558	   -6.9979	  -13.7139	
  -6.93779	-0.000552427	  -6.93701	-0.000545795	  -6.93469	-0.000547626	   -6.9365	-0.000548616	   -6.9365	  -13.7154	
   -6.8761	-0.00055235	   -6.8754	-0.000545804	  -6.87288	-0.000547762	  -6.87479	-0.000548639	  -6.87479	   -13.716	
  -6.81422	-0.000552246	  -6.81369	-0.000545791	  -6.81091	-0.000547849	  -6.81294	-0.000548629	  -6.81294	  -13.7157	
  -6.75203	-0.000552249	  -6.75159	-0.000545721	  -6.74866	-0.000547861	  -6.75076	-0.00054861	  -6.75076	  -13.7153	
  -6.68947	-0.000552291	  -6.68921	-0.000545634	  -6.68615	-0.00054786	  -6.68828	-0.000548595	  -6.68828	  -13.7149	
  -6.62672	-0.000552223	  -6.62672	-0.000545575	  -6.62333	-0.000547888	  -6.62559	-0.000548562	  -6.62559	   -13.714	
  -6.56359	-0.000552042	  -6.56383	-0.000545518	  -6.56007	-0.000547916	   -6.5625	-0.000548492	   -6.5625	  -13.7123	
  -6.50025	-0.000551889	  -6.50073	-0.000545384	  -6.49662	-0.000547905	   -6.4992	-0.000548393	   -6.4992	  -13.7098	
  -6.43669	-0.000551837	   -6.4373	-0.000545186	  -6.43307	-0.00054785	  -6.43569	-0.000548291	  -6.43569	  -13.7073	
  -6.37273	-0.00055178	  -6.37349	-0.000544999	  -6.36915	-0.00054778	  -6.37179	-0.000548186	  -6.37179	  -13.7047	
  -6.30864	-0.000551599	  -6.30953	-0.000544858	   -6.3051	-0.000547714	  -6.30776	-0.000548057	  -6.30776	  -13.7014	
  -6.24428	-0.000551346	  -6.24537	-0.000544715	  -6.24066	-0.000547634	  -6.24344	-0.000547898	  -6.24344	  -13.6975	
  -6.17961	-0.000551157	  -6.18089	-0.000544514	  -6.17594	-0.000547522	  -6.17881	-0.000547731	  -6.17881	  -13.6933	
  -6.11487	-0.000551041	  -6.11619	-0.000544275	   -6.1111	-0.00054738	  -6.11405	-0.000547566	  -6.11405	  -13.6891	
  -6.04973	-0.000550878	  -6.05109	-0.000544048	  -6.04581	-0.000547229	  -6.04887	-0.000547385	  -6.04887	  -13.6846	
  -5.98443	-0.000550579	  -5.98576	-0.000543842	  -5.98032	-0.000547072	   -5.9835	-0.000547164	   -5.9835	  -13.6791	
  -5.91897	-0.000550221	   -5.9202	-0.000543615	  -5.91463	-0.000546891	  -5.91793	-0.000546909	  -5.91793	  -13.6727	
  -5.85319	-0.00054993	  -5.85433	-0.000543334	  -5.84866	-0.000546683	  -5.85206	-0.000546649	  -5.85206	  -13.6662	
  -5.78718	-0.00054969	  -5.78832	-0.00054302	  -5.78258	-0.000546461	  -5.78603	-0.00054639	  -5.78603	  -13.6597	
  -5.72094	-0.000549367	  -5.72185	-0.000542709	  -5.71621	-0.000546233	  -5.71967	-0.000546103	  -5.71967	  -13.6526	
  -5.65439	-0.000548961	  -5.65509	-0.00054241	  -5.64957	-0.000545994	  -5.65302	-0.000545788	  -5.65302	  -13.6447	
  -5.58778	-0.000548562	   -5.5883	-0.000542106	  -5.58283	-0.000545734	   -5.5863	-0.000545467	   -5.5863	  -13.6367	
  -5.52092	-0.000548194	  -5.52113	-0.000541766	  -5.51579	-0.000545454	  -5.51928	-0.000545138	  -5.51928	  -13.6284	
  -5.45384	-0.000547766	  -5.45378	-0.000541364	  -5.44858	-0.000545167	  -5.45207	-0.000544765	  -5.45207	  -13.6191	
  -5.38657	-0.000547227	  -5.38635	-0.000540921	  -5.38114	-0.000544882	  -5.38468	-0.000544343	  -5.38468	  -13.6086	
    -5.319	-0.000546677	  -5.31856	-0.000540484	  -5.31336	-0.000544605	  -5.31698	-0.000543922	  -5.31698	  -13.5981	
  -5.25132	-0.000546198	  -5.25061	-0.000540067	  -5.24552	-0.000544291	  -5.24915	-0.000543518	  -5.24915	   -13.588	
  -5.18327	-0.000545721	  -5.18242	-0.00053963	  -5.17735	-0.000543906	  -5.18101	-0.000543086	  -5.18101	  -13.5771	
  -5.11496	-0.00054514	  -5.11398	-0.000539134	  -5.10896	-0.000543493	  -5.11263	-0.000542589	  -5.11263	  -13.5647	
  -5.04656	-0.000544476	  -5.04532	-0.000538596	  -5.04043	-0.000543121	   -5.0441	-0.000542064	   -5.0441	  -13.5516	
  -4.97782	-0.000543841	  -4.97628	-0.000538055	  -4.97174	-0.000542782	  -4.97528	-0.000541559	  -4.97528	   -13.539	
  -4.90892	-0.000543281	  -4.90713	-0.000537521	  -4.90293	-0.000542392	  -4.90633	-0.000541065	  -4.90633	  -13.5266	
  -4.83984	-0.000542702	  -4.83776	-0.000536956	  -4.83395	-0.000541917	  -4.83718	-0.000540525	  -4.83718	  -13.5131	
  -4.77046	-0.000542022	  -4.76813	-0.000536334	  -4.76469	-0.000541417	  -4.76776	-0.000539924	  -4.76776	  -13.4981	
  -4.70097	-0.000541294	  -4.69851	-0.000535693	  -4.69542	-0.000540952	   -4.6983	-0.000539313	   -4.6983	  -13.4828	
  -4.63121	-0.000540609	  -4.62856	-0.00053508	  -4.62581	-0.000540496	  -4.62853	-0.000538728	  -4.62853	  -13.4682	
  -4.56128	-0.000539955	  -4.55847	-0.000534471	  -4.55603	-0.000539975	  -4.55859	-0.000538134	  -4.55859	  -13.4533	
  -4.49128	-0.00053925	  -4.48835	-0.000533791	   -4.4862	-0.000539379	  -4.48861	-0.000537473	  -4.48861	  -13.4368	
  -4.42104	-0.000538495	  -4.41802	-0.000533038	  -4.41614	-0.000538775	   -4.4184	-0.000536769	   -4.4184	  -13.4192	
  -4.35073	-0.000537762	  -4.34765	-0.000532293	  -4.34603	-0.000538205	  -4.34814	-0.000536087	  -4.34814	  -13.4022	
  -4.28036	-0.000537047	  -4.27717	-0.000531578	  -4.27571	-0.000537622	  -4.27775	-0.000535415	  -4.27775	  -13.3854	
  -4.20978	-0.0005363	   -4.2065	-0.000530818	  -4.20518	-0.000536963	  -4.20715	-0.000534694	  -4.20715	  -13.3673	
  -4.13915	-0.000535512	  -4.13581	-0.000529979	  -4.13456	-0.000536252	  -4.13651	-0.000533914	  -4.13651	  -13.3479	
   -4.0683	-0.000534709	  -4.06487	-0.000529115	  -4.06367	-0.000535554	  -4.06561	-0.000533126	  -4.06561	  -13.3282	
  -3.99736	-0.000533881	  -3.99385	-0.000528287	   -3.9927	-0.000534881	  -3.99464	-0.00053235	  -3.99464	  -13.3087	
   -3.9262	-0.000533023	  -3.92273	-0.000527471	  -3.92141	-0.000534179	  -3.92345	-0.000531558	  -3.92345	  -13.2889	
  -3.85481	-0.000532139	  -3.85138	-0.000526609	  -3.84992	-0.000533449	  -3.85204	-0.000530732	  -3.85204	  -13.2683	
   -3.7833	-0.000531239	  -3.77994	-0.000525703	  -3.77842	-0.000532686	  -3.78055	-0.000529876	  -3.78055	  -13.2469	
   -3.7115	-0.000530317	  -3.70823	-0.00052478	  -3.70666	-0.000531871	   -3.7088	-0.00052899	   -3.7088	  -13.2247	
  -3.63961	-0.000529368	  -3.63643	-0.000523857	  -3.63482	-0.000530992	  -3.63695	-0.000528073	  -3.63695	  -13.2018	
  -3.56755	-0.000528405	  -3.56441	-0.000522931	  -3.56275	-0.000530105	   -3.5649	-0.000527147	   -3.5649	  -13.1787	
  -3.49526	-0.000527432	  -3.49216	-0.000521998	  -3.49048	-0.000529275	  -3.49263	-0.000526235	  -3.49263	  -13.1559	
  -3.42301	-0.000526437	  -3.41998	-0.000521067	  -3.41811	-0.000528478	  -3.42036	-0.000525327	  -3.42036	  -13.1332	
   -3.3506	-0.000525415	  -3.34751	-0.000520109	  -3.34548	-0.000527634	  -3.34786	-0.000524386	  -3.34786	  -13.1097	
  -3.27809	-0.000524371	  -3.27496	-0.000519079	   -3.2727	-0.000526682	  -3.27525	-0.000523377	  -3.27525	  -13.0844	
  -3.20549	-0.000523313	  -3.20235	-0.000518015	  -3.19972	-0.00052566	  -3.20252	-0.000522329	  -3.20252	  -13.0582	
  -3.13264	-0.00052225	  -3.12951	-0.000517006	   -3.1267	-0.000524658	  -3.12962	-0.000521305	  -3.12962	  -13.0326	
  -3.05975	-0.000521168	  -3.05673	-0.000516069	  -3.05375	-0.000523704	  -3.05674	-0.000520314	  -3.05674	  -13.0078	
  -2.98655	-0.000520055	  -2.98374	-0.000515116	  -2.98055	-0.000522708	  -2.98361	-0.000519293	  -2.98361	  -12.9823	
  -2.91327	-0.000518919	  -2.91066	-0.00051407	  -2.90728	-0.000521552	   -2.9104	-0.000518181	   -2.9104	  -12.9545	
  -2.84001	-0.000517768	  -2.83753	-0.00051297	  -2.83385	-0.000520296	  -2.83713	-0.000517012	  -2.83713	  -12.9253	
   -2.7666	-0.000516603	  -2.76426	-0.000511909	  -2.76023	-0.00051911	  -2.76369	-0.000515874	  -2.76369	  -12.8968	
  -2.69314	-0.00051546	  -2.69103	-0.0005109	  -2.68654	-0.000518012	  -2.69024	-0.000514791	  -2.69024	  -12.8698	
  -2.61958	-0.000514319	  -2.61744	-0.000509856	  -2.61287	-0.000516836	  -2.61663	-0.00051367	  -2.61663	  -12.8418	
  -2.54598	-0.000513119	  -2.54377	-0.000508731	  -2.53915	-0.000515501	  -2.54297	-0.000512451	  -2.54297	  -12.8113	
  -2.47246	-0.000511834	  -2.47004	-0.000507573	  -2.46546	-0.000514138	  -2.46932	-0.000511182	  -2.46932	  -12.7795	
  -2.39876	-0.000510529	   -2.3961	-0.000506454	  -2.39157	-0.000512879	  -2.39547	-0.000509954	  -2.39547	  -12.7489	
  -2.32476	-0.00050925	  -2.32205	-0.000505359	  -2.31766	-0.000511654	  -2.32149	-0.000508754	  -2.32149	  -12.7189	
   -2.2507	-0.000507948	  -2.24782	-0.000504209	  -2.24365	-0.000510317	  -2.24739	-0.000507492	  -2.24739	  -12.6873	
  -2.17662	-0.000506559	  -2.17354	-0.000502984	  -2.16957	-0.000508868	  -2.17325	-0.000506137	  -2.17325	  -12.6534	
  -2.10228	-0.000505134	  -2.09917	-0.000501748	  -2.09555	-0.000507448	    -2.099	-0.000504777	    -2.099	  -12.6194	
  -2.02789	-0.000503711	  -2.02469	-0.000500546	  -2.02132	-0.000506102	  -2.02464	-0.000503453	  -2.02464	  -12.5863	
  -1.95355	-0.000502267	  -1.95023	-0.00049934	  -1.94709	-0.000504725	  -1.95029	-0.000502111	  -1.95029	  -12.5528	
  -1.87927	-0.000500955	  -1.87561	-0.000498126	  -1.87254	-0.000503252	  -1.87581	-0.000500777	  -1.87581	  -12.5194	
  -1.80497	-0.000499605	  -1.80094	-0.000496846	  -1.79794	-0.000501793	  -1.80129	-0.000499415	  -1.80129	  -12.4854	
