# User: ACHyster
# File name: C:/ACHYSTER/ACHyster SENS/SHAMS/CoFe2O4-1gl-water-60 Glycerol-Sens-08-03-2023/CoFe2O4-1gl-water-60 Glycerol- 10_100F- 12 kAm -Sens-08-03-20230000#1.txt
# Saved at: mi. mar. 8 12:45:26 2023
# Hyster Loop (3 iterations). Intensity: 12.0 kA/m; Tuned frequency: 9.4 kHz
# Units x axis: (kA/m)
# Units y axis: "Repeats y" & "Average y" (10^(-3)Am^2); "Mass avg y" (Am^2/kg)
# Magnetic mass: 4e-05 g
# Parameter      	Repeat   1	Repeat   2	Repeat   3	Average   	Sigma     
# H_C (kA/m)     	      10.6	      10.5	      10.3	      10.4	       0.1
# M_R (Am^2/kg)  	      27.2	      27.6	      27.2	      27.4	       0.2
# M_max (Am^2/kg)	      14.9	      15.8	      15.9	      15.5	       0.5
# Area (mJ/kg)   	    1275.3	    1293.8	    1253.8	    1274.3	      16.3
# SAR (W/g)      	      12.0	      12.1	      11.8	      11.9	       0.2
#Repeat 1 x	Repeat 1 y	Repeat 2 x	Repeat 2 y	Repeat 3 x	Repeat 3 y	Average x 	Average y 	Mass avg x 	Mass avg y 
  -1.67878	-0.00116286	  -1.67935	-0.00118071	   -1.6745	-0.00116466	  -1.67754	-0.00116941	  -1.67754	  -29.2352	
  -1.60387	-0.00115998	  -1.60436	-0.00117805	   -1.5997	-0.00116168	  -1.60264	-0.00116657	  -1.60264	  -29.1642	
  -1.52899	-0.00115711	  -1.52926	-0.00117524	  -1.52497	-0.00115864	  -1.52774	-0.00116366	  -1.52774	  -29.0916	
  -1.45392	-0.00115426	  -1.45408	-0.0011723	  -1.45007	-0.00115547	  -1.45269	-0.00116068	  -1.45269	   -29.017	
  -1.37889	-0.00115126	  -1.37898	-0.00116946	   -1.3752	-0.00115224	  -1.37769	-0.00115765	  -1.37769	  -28.9413	
  -1.30381	-0.00114827	  -1.30377	-0.00116653	  -1.30027	-0.00114898	  -1.30262	-0.00115459	  -1.30262	  -28.8648	
  -1.22866	-0.00114528	  -1.22849	-0.00116348	  -1.22527	-0.0011456	  -1.22747	-0.00115145	  -1.22747	  -28.7863	
   -1.1536	-0.00114217	  -1.15318	-0.00116049	  -1.15044	-0.00114214	  -1.15241	-0.00114827	  -1.15241	  -28.7066	
  -1.07838	-0.00113904	  -1.07774	-0.00115743	  -1.07543	-0.00113865	  -1.07718	-0.00114504	  -1.07718	   -28.626	
  -1.00324	-0.00113591	  -1.00237	-0.00115425	  -1.00046	-0.00113506	  -1.00202	-0.00114174	  -1.00202	  -28.5435	
 -0.928001	-0.00113266	 -0.926799	-0.00115111	 -0.925297	-0.00113139	 -0.926699	-0.00113839	 -0.926699	  -28.4597	
 -0.852735	-0.00112939	 -0.851234	-0.00114791	 -0.850128	-0.00112768	 -0.851366	-0.00113499	 -0.851366	  -28.3748	
 -0.777471	-0.00112613	  -0.77568	-0.00114461	 -0.774906	-0.00112387	 -0.776019	-0.00113154	 -0.776019	  -28.2884	
 -0.702065	-0.00112279	 -0.700067	-0.00114133	 -0.699562	-0.00112005	 -0.700565	-0.00112805	 -0.700565	  -28.2014	
 -0.626776	-0.00111939	 -0.624526	 -0.001138	 -0.624328	-0.0011161	  -0.62521	-0.0011245	  -0.62521	  -28.1124	
 -0.551352	-0.00111599	 -0.548809	-0.00113456	 -0.549026	-0.00111209	 -0.549729	-0.00112088	 -0.549729	   -28.022	
 -0.475953	-0.00111252	 -0.473177	-0.00113119	 -0.473762	-0.00110803	 -0.474297	-0.00111725	 -0.474297	  -27.9311	
 -0.400555	-0.00110894	 -0.397553	-0.00112771	 -0.398583	-0.00110388	 -0.398897	-0.00111351	 -0.398897	  -27.8377	
 -0.325062	-0.00110541	 -0.321892	-0.00112417	 -0.323313	-0.00109967	 -0.323422	-0.00110975	 -0.323422	  -27.7438	
 -0.249653	-0.00110176	 -0.246316	-0.00112067	 -0.248154	-0.00109543	 -0.248041	-0.00110596	 -0.248041	  -27.6489	
 -0.174063	-0.00109802	 -0.170682	-0.00111709	 -0.172885	-0.0010911	 -0.172543	-0.00110207	 -0.172543	  -27.5518	
-0.0985513	-0.00109437	-0.0951457	-0.00111344	-0.0976849	-0.00108668	-0.0971273	-0.00109816	-0.0971273	  -27.4541	
-0.0228025	-0.00109071	-0.0195409	-0.0011098	-0.0224409	-0.00108225	-0.0215948	-0.00109426	-0.0215948	  -27.3564	
 0.0527247	-0.00108682	 0.0560608	-0.00110613	 0.0528528	-0.00107772	 0.0538795	-0.00109022	 0.0538795	  -27.2556	
  0.128411	-0.00108306	  0.131606	-0.0011024	   0.12802	-0.00107316	  0.129346	-0.0010862	  0.129346	  -27.1551	
  0.204014	-0.00107925	  0.207269	-0.00109868	  0.203435	-0.00106854	  0.204906	-0.00108216	  0.204906	   -27.054	
   0.27952	-0.00107528	  0.282791	-0.00109488	  0.278682	-0.00106388	  0.280331	-0.00107801	  0.280331	  -26.9503	
  0.354984	-0.00107137	  0.358377	-0.00109102	  0.353995	-0.00105924	  0.355785	-0.00107388	  0.355785	  -26.8469	
  0.430456	-0.00106741	  0.433922	-0.0010872	  0.429316	-0.00105452	  0.431231	-0.00106971	  0.431231	  -26.7428	
  0.505808	-0.00106334	  0.509375	-0.00108331	  0.504594	-0.00104977	  0.506592	-0.00106547	  0.506592	  -26.6368	
  0.581291	-0.00105933	  0.584887	-0.00107937	  0.579925	 -0.001045	  0.582034	-0.00106123	  0.582034	  -26.5309	
  0.656624	-0.00105523	  0.660206	-0.00107546	  0.655133	-0.00104017	  0.657321	-0.00105695	  0.657321	  -26.4238	
  0.731987	-0.00105107	  0.735566	-0.00107152	  0.730346	-0.00103531	  0.732633	-0.00105263	  0.732633	  -26.3158	
  0.807327	-0.00104695	  0.810864	-0.00106749	  0.805514	-0.00103041	  0.807902	-0.00104828	  0.807902	  -26.2071	
  0.882579	-0.00104275	   0.88606	-0.00106348	  0.880524	-0.00102548	  0.883054	-0.0010439	  0.883054	  -26.0975	
  0.957934	-0.0010385	  0.961326	-0.00105941	  0.955651	-0.0010205	  0.958304	-0.00103947	  0.958304	  -25.9868	
   1.03314	-0.00103429	   1.03648	-0.00105526	   1.03064	-0.00101547	   1.03342	-0.00103501	   1.03342	  -25.8752	
   1.10839	  -0.00103	   1.11173	-0.0010511	   1.10566	-0.0010104	   1.10859	-0.0010305	   1.10859	  -25.7626	
   1.18359	-0.00102568	   1.18691	-0.00104691	   1.18065	-0.00100529	   1.18372	-0.00102596	   1.18372	   -25.649	
   1.25875	-0.00102137	   1.26203	-0.0010426	   1.25553	-0.00100011	   1.25877	-0.00102136	   1.25877	  -25.5341	
   1.33398	-0.00101701	    1.3372	-0.00103837	   1.33043	-0.000994925	   1.33387	-0.00101677	   1.33387	  -25.4192	
   1.40904	-0.00101261	   1.41225	-0.00103399	   1.40518	-0.000989729	   1.40882	-0.00101211	   1.40882	  -25.3027	
   1.48415	-0.00100818	   1.48751	-0.00102963	   1.47992	-0.000984435	   1.48386	-0.00100741	   1.48386	  -25.1854	
   1.55919	-0.00100371	   1.56238	-0.00102518	   1.55461	-0.000979149	   1.55873	-0.00100268	   1.55873	   -25.067	
   1.63404	-0.000999244	   1.63725	-0.00102059	    1.6292	-0.000973865	    1.6335	-0.000997901	    1.6335	  -24.9475	
   1.70896	-0.000994707	   1.71203	 -0.001016	   1.70386	-0.000968409	   1.70828	-0.00099304	   1.70828	   -24.826	
   1.78373	-0.000990072	   1.78668	-0.00101133	   1.77834	-0.000963076	   1.78292	-0.00098816	   1.78292	   -24.704	
   1.85848	-0.000985496	   1.86138	-0.00100654	    1.8529	-0.000957644	   1.85759	-0.000983225	   1.85759	  -24.5806	
   1.93294	-0.000980828	   1.93598	-0.00100171	   1.92742	-0.000952134	   1.93211	-0.000978225	   1.93211	  -24.4556	
    2.0074	-0.000976097	   2.01039	-0.000996822	   2.00175	-0.000946729	   2.00651	-0.000973216	   2.00651	  -24.3304	
   2.08188	-0.000971415	   2.08483	-0.000991827	    2.0761	-0.00094127	   2.08094	-0.000968171	   2.08094	  -24.2043	
   2.15615	-0.000966619	   2.15904	-0.000986748	   2.15021	-0.000935773	   2.15514	-0.000963047	   2.15514	  -24.0762	
   2.23044	-0.000961722	   2.23324	-0.000981574	   2.22435	-0.000930347	   2.22934	-0.000957881	   2.22934	   -23.947	
   2.30468	-0.000956888	   2.30733	-0.000976368	   2.29851	-0.000924824	   2.30351	-0.000952693	   2.30351	  -23.8173	
   2.37877	-0.000951925	   2.38125	-0.000971071	   2.37249	-0.000919231	   2.37751	-0.000947409	   2.37751	  -23.6852	
   2.45286	-0.000946879	    2.4552	-0.000965624	   2.44631	-0.000913777	   2.45146	-0.000942093	   2.45146	  -23.5523	
   2.52678	-0.000941893	   2.52897	-0.000960206	   2.52015	-0.000908194	    2.5253	-0.000936764	    2.5253	  -23.4191	
   2.60051	-0.000936803	   2.60267	-0.000954688	   2.59386	-0.000902635	   2.59901	-0.000931376	   2.59901	  -23.2844	
   2.67421	-0.000931615	   2.67632	-0.000949051	   2.66751	-0.000897116	   2.67268	-0.000925927	   2.67268	  -23.1482	
    2.7477	-0.000926488	   2.74978	-0.000943328	   2.74094	-0.000891533	   2.74614	-0.00092045	   2.74614	  -23.0112	
   2.82119	-0.00092129	    2.8233	-0.000937604	   2.81436	-0.000885956	   2.81961	-0.00091495	   2.81961	  -22.8738	
   2.89454	-0.00091601	   2.89665	-0.000931795	   2.88766	-0.0008804	   2.89295	-0.000909401	   2.89295	   -22.735	
   2.96766	-0.000910775	   2.96988	-0.000925893	   2.96078	-0.000874802	   2.96611	-0.000903823	   2.96611	  -22.5956	
   3.04074	-0.000905441	   3.04307	-0.000919919	   3.03396	-0.000869193	   3.03926	-0.000898184	   3.03926	  -22.4546	
   3.11362	-0.000900085	    3.1162	-0.000913914	   3.10691	-0.000863593	   3.11224	-0.000892531	   3.11224	  -22.3133	
   3.18642	-0.000894797	   3.18929	-0.000907779	   3.17983	-0.000857932	   3.18518	-0.000886836	   3.18518	  -22.1709	
   3.25915	-0.000889389	   3.26215	-0.000901628	   3.25269	-0.000852283	     3.258	-0.0008811	     3.258	  -22.0275	
   3.33164	-0.000883932	   3.33485	-0.000895472	   3.32532	-0.000846656	    3.3306	-0.000875354	    3.3306	  -21.8838	
   3.40413	-0.000878575	   3.40746	-0.000889123	    3.3979	-0.000840972	   3.40317	-0.000869557	   3.40317	  -21.7389	
   3.47646	-0.000873126	   3.47975	-0.000882757	   3.47032	-0.000835322	   3.47551	-0.000863735	   3.47551	  -21.5934	
    3.5486	-0.000867553	   3.55204	-0.000876446	   3.54248	-0.000829699	   3.54771	-0.000857899	   3.54771	  -21.4475	
   3.62072	-0.000862052	   3.62416	-0.000869988	   3.61463	-0.000823951	   3.61984	-0.000851997	   3.61984	  -21.2999	
    3.6926	-0.000856553	   3.69612	-0.000863488	   3.68655	-0.000818263	   3.69175	-0.000846101	   3.69175	  -21.1525	
   3.76438	-0.000850841	   3.76799	-0.00085704	   3.75839	-0.000812586	   3.76359	-0.000840156	   3.76359	  -21.0039	
   3.83606	-0.000845248	   3.83973	-0.000850473	   3.83015	-0.000806699	   3.83532	-0.00083414	   3.83532	  -20.8535	
   3.90742	-0.000839622	    3.9112	-0.000843838	   3.90166	-0.00080092	   3.90676	-0.000828127	   3.90676	  -20.7032	
   3.97869	-0.000833783	   3.98266	-0.000837256	   3.97313	-0.000795169	   3.97816	-0.000822069	   3.97816	  -20.5517	
   4.04988	-0.000828169	   4.05394	-0.000830601	   4.04444	-0.000789265	   4.04942	-0.000816012	   4.04942	  -20.4003	
   4.12066	-0.000822261	   4.12507	-0.000823866	   4.11549	-0.000783426	   4.12041	-0.000809851	   4.12041	  -20.2463	
   4.19147	-0.000816373	   4.19612	-0.000817137	   4.18646	-0.000777629	   4.19135	-0.000803713	   4.19135	  -20.0928	
   4.26205	-0.000810622	   4.26691	-0.000810362	   4.25721	-0.000771674	   4.26206	-0.000797552	   4.26206	  -19.9388	
   4.33249	-0.000804636	   4.33763	-0.000803468	    4.3277	-0.000765712	   4.33261	-0.000791272	   4.33261	  -19.7818	
    4.4029	-0.000798642	   4.40824	-0.000796603	   4.39812	-0.000759794	   4.40309	-0.000785013	   4.40309	  -19.6253	
   4.47303	-0.000792732	   4.47856	-0.000789715	   4.46826	-0.000753791	   4.47328	-0.000778746	   4.47328	  -19.4686	
   4.54305	-0.00078665	   4.54889	-0.000782733	   4.53823	-0.00074776	   4.54339	-0.000772381	   4.54339	  -19.3095	
   4.61296	-0.000780539	   4.61904	-0.000775701	   4.60811	-0.00074173	   4.61337	-0.00076599	   4.61337	  -19.1497	
   4.68255	-0.000774488	   4.68896	-0.000768733	   4.67766	-0.000735619	   4.68306	-0.000759613	   4.68306	  -18.9903	
   4.75207	-0.000768302	   4.75873	-0.000761601	   4.74709	-0.000729478	   4.75263	-0.000753127	   4.75263	  -18.8282	
   4.82144	-0.000762055	   4.82826	-0.000754465	   4.81639	-0.00072332	   4.82203	-0.000746613	   4.82203	  -18.6653	
   4.89058	-0.000755819	   4.89761	-0.000747371	   4.88537	-0.000717072	   4.89118	-0.000740087	   4.89118	  -18.5022	
   4.95962	-0.000749485	   4.96681	-0.000740158	   4.95424	-0.000710858	   4.96022	-0.0007335	   4.96022	  -18.3375	
   5.02846	-0.00074315	   5.03576	-0.000732916	   5.02294	-0.000704594	   5.02905	-0.000726887	   5.02905	  -18.1722	
   5.09701	-0.000736785	   5.10441	-0.000725749	   5.09131	-0.00069823	   5.09758	-0.000720255	   5.09758	  -18.0064	
    5.1655	-0.000730388	   5.17287	-0.000718437	   5.15957	-0.000691902	   5.16598	-0.000713576	   5.16598	  -17.8394	
   5.23375	-0.000723983	   5.24106	-0.000711164	   5.22762	-0.00068555	   5.23414	-0.000706899	   5.23414	  -17.6725	
   5.30168	-0.000717512	   5.30901	-0.000703922	   5.29537	-0.000679083	   5.30202	-0.000700172	   5.30202	  -17.5043	
   5.36952	-0.000711028	   5.37684	-0.000696605	   5.36301	-0.000672621	   5.36979	-0.000693418	   5.36979	  -17.3355	
   5.43712	-0.000704503	   5.44438	-0.000689309	   5.43043	-0.000666126	   5.43731	-0.000686646	   5.43731	  -17.1662	
   5.50439	-0.000697928	   5.51171	-0.000682043	   5.49757	-0.000659516	   5.50456	-0.000679829	   5.50456	  -16.9957	
   5.57159	-0.00069135	   5.57897	-0.000674718	   5.56461	-0.000652895	   5.57172	-0.000672988	   5.57172	  -16.8247	
   5.63855	-0.000684697	    5.6459	-0.000667395	   5.63142	-0.000646226	   5.63862	-0.000666106	   5.63862	  -16.6526	
   5.70523	-0.000677994	    5.7126	-0.000660098	   5.69791	-0.000639523	   5.70525	-0.000659205	   5.70525	  -16.4801	
   5.77178	-0.000671313	   5.77921	-0.000652754	   5.76435	-0.000632768	   5.77178	-0.000652279	   5.77178	   -16.307	
    5.8381	-0.000664553	   5.84549	-0.000645413	   5.83054	-0.000625953	   5.83805	-0.000645306	   5.83805	  -16.1327	
   5.90429	-0.000657713	   5.91146	-0.000638076	   5.89654	-0.000619092	    5.9041	-0.000638294	    5.9041	  -15.9573	
    5.9702	-0.000650905	   5.97727	-0.000630725	   5.96223	-0.000612208	    5.9699	-0.000631279	    5.9699	   -15.782	
   6.03594	-0.000644034	   6.04277	-0.000623396	   6.02763	-0.000605365	   6.03545	-0.000624265	   6.03545	  -15.6066	
   6.10141	-0.000637084	     6.108	-0.000616054	   6.09273	-0.000598311	   6.10072	-0.00061715	   6.10072	  -15.4287	
    6.1667	-0.000630144	    6.1732	-0.000608583	   6.15767	-0.000591294	   6.16586	-0.000610007	   6.16586	  -15.2502	
   6.23172	-0.000623161	   6.23792	-0.000601263	    6.2224	-0.000584264	   6.23068	-0.000602896	   6.23068	  -15.0724	
   6.29634	-0.000616103	   6.30251	-0.000593968	   6.28689	-0.000577079	   6.29525	-0.000595717	   6.29525	  -14.8929	
   6.36079	-0.000609024	   6.36687	-0.000586528	   6.35123	-0.00056992	   6.35963	-0.00058849	   6.35963	  -14.7123	
     6.425	-0.000601916	   6.43101	-0.000579193	   6.41532	-0.000562755	   6.42378	-0.000581288	   6.42378	  -14.5322	
   6.48883	-0.000594746	   6.49479	-0.000571921	   6.47903	-0.000555511	   6.48755	-0.000574059	   6.48755	  -14.3515	
   6.55248	-0.000587562	   6.55843	-0.000564574	   6.54247	-0.000548272	   6.55113	-0.000566803	   6.55113	  -14.1701	
   6.61592	-0.000580368	   6.62183	-0.000557308	   6.60576	-0.00054099	    6.6145	-0.000559555	    6.6145	  -13.9889	
   6.67896	-0.00057313	   6.68484	-0.000550101	   6.66871	-0.00053368	    6.6775	-0.000552304	    6.6775	  -13.8076	
   6.74172	-0.000565861	   6.74764	-0.000542827	   6.73139	-0.000526389	   6.74025	-0.000545026	   6.74025	  -13.6256	
   6.80434	-0.000558563	   6.81025	-0.000535565	   6.79394	-0.000518984	   6.80285	-0.000537704	   6.80285	  -13.4426	
   6.86662	-0.000551254	    6.8725	-0.000528364	   6.85618	-0.00051159	    6.8651	-0.000530403	    6.8651	  -13.2601	
   6.92854	-0.000543901	   6.93436	-0.000521152	   6.91803	-0.000504236	   6.92698	-0.000523096	   6.92698	  -13.0774	
   6.99029	-0.000536512	   6.99609	-0.000513945	   6.97975	-0.000496805	   6.98871	-0.000515754	   6.98871	  -12.8939	
   7.05175	-0.00052908	   7.05748	-0.000506781	   7.04122	-0.000489373	   7.05015	-0.000508412	   7.05015	  -12.7103	
   7.11277	-0.00052165	   7.11854	-0.000499606	   7.10224	-0.000481962	   7.11119	-0.000501073	   7.11119	  -12.5268	
   7.17354	-0.000514207	   7.17947	-0.000492429	   7.16291	-0.00047451	   7.17197	-0.000493715	   7.17197	  -12.3429	
   7.23408	-0.000506737	   7.24014	-0.000485279	   7.22335	-0.000467047	   7.23252	-0.000486354	   7.23252	  -12.1589	
   7.29423	-0.000499244	   7.30037	-0.000478127	   7.28345	-0.000459608	   7.29268	-0.000478993	   7.29268	  -11.9748	
   7.35411	-0.000491741	   7.36031	-0.000470952	    7.3432	-0.000452116	   7.35254	-0.000471603	   7.35254	  -11.7901	
   7.41383	-0.000484218	   7.42009	-0.000463788	   7.40272	-0.0004446	   7.41221	-0.000464202	   7.41221	   -11.605	
   7.47324	-0.000476696	   7.47949	-0.000456614	   7.46196	-0.00043716	   7.47156	-0.000456824	   7.47156	  -11.4206	
   7.53221	-0.00046918	   7.53857	-0.000449412	   7.52104	-0.000429711	   7.53061	-0.000449434	   7.53061	  -11.2359	
   7.59099	-0.000461672	   7.59745	-0.000442185	   7.57992	-0.000422213	   7.58945	-0.000442024	   7.58945	  -11.0506	
   7.64955	-0.000454087	   7.65602	-0.000434948	   7.63855	-0.000414749	   7.64804	-0.000434595	   7.64804	  -10.8649	
   7.70773	-0.000446628	   7.71436	-0.000427814	   7.69687	-0.000407305	   7.70632	-0.000427249	   7.70632	  -10.6812	
   7.76552	-0.000439183	   7.77244	-0.000420631	   7.75488	-0.000399846	   7.76428	-0.000419887	   7.76428	  -10.4972	
   7.82308	-0.000431631	   7.83017	-0.000413338	   7.81254	-0.000392429	   7.82193	-0.000412466	   7.82193	  -10.3117	
   7.88035	-0.000424176	   7.88752	-0.000406186	   7.86989	-0.000385029	   7.87925	-0.000405131	   7.87925	  -10.1283	
   7.93716	-0.000416778	   7.94451	-0.000398947	    7.9268	-0.000377621	   7.93616	-0.000397782	   7.93616	  -9.94455	
   7.99362	-0.000409283	   8.00131	-0.000391617	   7.98336	-0.000370257	   7.99276	-0.000390386	   7.99276	  -9.75965	
   8.04991	-0.00040186	   8.05787	-0.000384395	   8.03973	-0.000362888	   8.04917	-0.000383048	   8.04917	  -9.57619	
   8.10586	-0.000394478	   8.11402	-0.000377115	   8.09578	-0.000355538	   8.10522	-0.00037571	   8.10522	  -9.39276	
   8.16138	-0.000387037	   8.16974	-0.000369767	   8.15134	-0.000348146	   8.16082	-0.000368317	   8.16082	  -9.20791	
   8.21661	-0.000379655	   8.22521	-0.000362475	   8.20662	-0.000340785	   8.21615	-0.000360972	   8.21615	  -9.02429	
   8.27164	-0.000372307	   8.28042	-0.000355145	   8.26171	-0.000333429	   8.27126	-0.000353627	   8.27126	  -8.84067	
   8.32631	-0.000364902	   8.33519	-0.00034775	   8.31644	-0.000326013	   8.32598	-0.000346222	   8.32598	  -8.65554	
   8.38058	-0.00035754	   8.38947	-0.00034039	   8.37066	-0.000318641	   8.38023	-0.000338857	   8.38023	  -8.47142	
   8.43449	-0.000350214	   8.44354	-0.000333006	    8.4246	-0.000311257	   8.43421	-0.000331493	   8.43421	  -8.28731	
   8.48819	-0.000342841	   8.49734	-0.000325571	   8.47833	-0.000303823	   8.48796	-0.000324078	   8.48796	  -8.10196	
   8.54152	-0.000335499	    8.5507	-0.000318174	    8.5317	-0.000296405	   8.54131	-0.000316693	   8.54131	  -7.91732	
   8.59437	-0.000328192	   8.60366	-0.000310703	   8.58455	-0.000289022	    8.5942	-0.000309306	    8.5942	  -7.73264	
   8.64689	-0.000320849	   8.65635	-0.000303248	   8.63713	-0.000281526	   8.64679	-0.000301874	   8.64679	  -7.54685	
   8.69916	-0.000313526	   8.70878	-0.000295802	   8.68951	-0.000274051	   8.69915	-0.00029446	   8.69915	  -7.36149	
   8.75106	-0.000306217	   8.76078	-0.000288299	   8.74155	-0.000266599	   8.75113	-0.000287038	   8.75113	  -7.17596	
   8.80251	-0.000298927	   8.81239	-0.000280798	   8.79309	-0.000259023	   8.80267	-0.000279583	   8.80267	  -6.98957	
   8.85369	-0.000291602	   8.86383	-0.000273292	   8.84429	-0.000251438	   8.85394	-0.000272111	   8.85394	  -6.80276	
   8.90468	-0.000284279	   8.91503	-0.000265737	   8.89527	-0.000243937	   8.90499	-0.000264651	   8.90499	  -6.61628	
   8.95534	-0.000276985	   8.96582	-0.000258177	   8.94595	-0.000236305	   8.95571	-0.000257156	   8.95571	  -6.42889	
   9.00555	-0.0002696	   9.01606	-0.000250619	   8.99617	-0.000228644	   9.00593	-0.000249621	   9.00593	  -6.24052	
   9.05534	-0.00026227	   9.06596	-0.000243023	   9.04596	-0.000221059	   9.05575	-0.000242117	   9.05575	  -6.05293	
   9.10492	-0.000254983	   9.11562	-0.000235424	   9.09549	-0.000213384	   9.10534	-0.000234597	   9.10534	  -5.86492	
   9.15424	-0.000247644	   9.16495	-0.000227807	   9.14478	-0.00020568	   9.15465	-0.000227044	   9.15465	  -5.67609	
   9.20314	-0.00024033	   9.21379	-0.000220177	   9.19367	-0.000198029	   9.20353	-0.000219512	   9.20353	  -5.48781	
   9.25155	-0.000233011	   9.26218	-0.000212574	   9.24204	-0.000190329	   9.25192	-0.000211971	   9.25192	  -5.29929	
   9.29957	-0.000225619	   9.31027	-0.000204954	      9.29	-0.000182613	   9.29995	-0.000204395	   9.29995	  -5.10988	
   9.34741	-0.00021827	   9.35809	-0.000197306	   9.33768	-0.000174944	   9.34773	-0.00019684	   9.34773	  -4.92099	
   9.39493	-0.000210908	   9.40551	-0.000189638	   9.38507	-0.000167239	   9.39517	-0.000189262	   9.39517	  -4.73154	
   9.44196	-0.000203498	   9.45241	-0.000182025	   9.43201	-0.000159542	   9.44213	-0.000181688	   9.44213	  -4.54221	
    9.4885	-0.000196072	   9.49891	-0.000174354	   9.47845	-0.000151831	   9.48862	-0.000174086	   9.48862	  -4.35214	
    9.5347	-0.000188656	   9.54521	-0.000166682	   9.52449	-0.000144079	    9.5348	-0.000166472	    9.5348	  -4.16181	
   9.58076	-0.000181295	   9.59123	-0.000159016	   9.57025	-0.000136337	   9.58075	-0.000158883	   9.58075	  -3.97206	
   9.62619	-0.000173744	   9.63683	-0.000151355	    9.6157	-0.000128612	   9.62624	-0.000151237	   9.62624	  -3.78092	
   9.67133	-0.000166289	    9.6819	-0.000143648	    9.6607	-0.000120884	   9.67131	-0.000143607	   9.67131	  -3.59018	
   9.71596	-0.000158833	   9.72659	-0.000135917	   9.70559	-0.000113133	   9.71604	-0.000135961	   9.71604	  -3.39903	
   9.76035	-0.000151248	   9.77101	-0.000128207	   9.74972	-0.000105315	   9.76036	-0.000128257	   9.76036	  -3.20641	
   9.80448	-0.0001437	   9.81517	-0.000120424	   9.79363	-9.76136e-05	   9.80443	-0.000120579	   9.80443	  -3.01448	
   9.84828	-0.000136155	   9.85891	-0.000112658	   9.83718	-8.98459e-05	   9.84812	-0.000112886	   9.84812	  -2.82216	
    9.8916	-0.000128505	   9.90215	-0.00010492	   9.88031	-8.20591e-05	   9.89136	-0.000105161	   9.89136	  -2.62903	
   9.93437	-0.000120852	    9.9449	-9.71103e-05	   9.92292	-7.43029e-05	   9.93406	-9.74217e-05	   9.93406	  -2.43554	
   9.97677	-0.000113239	   9.98729	-8.93102e-05	   9.96493	-6.65236e-05	   9.97633	-8.96908e-05	   9.97633	  -2.24227	
   10.0189	-0.000105535	   10.0294	-8.1581e-05	   10.0066	-5.87157e-05	   10.0183	-8.19438e-05	   10.0183	   -2.0486	
   10.0607	-9.77989e-05	   10.0712	-7.37311e-05	   10.0481	-5.08771e-05	     10.06	-7.41357e-05	     10.06	  -1.85339	
   10.1022	-9.00861e-05	   10.1128	-6.58744e-05	   10.0891	-4.31263e-05	   10.1014	-6.63622e-05	   10.1014	  -1.65906	
   10.1431	-8.23004e-05	   10.1537	-5.80318e-05	   10.1298	-3.53066e-05	   10.1422	-5.85463e-05	   10.1422	  -1.46366	
   10.1834	-7.45078e-05	   10.1942	-5.02121e-05	   10.1699	-2.7431e-05	   10.1825	-5.07169e-05	   10.1825	  -1.26792	
   10.2233	-6.6724e-05	   10.2342	-4.22957e-05	   10.2095	-1.96433e-05	   10.2223	-4.28877e-05	   10.2223	  -1.07219	
   10.2628	-5.88037e-05	    10.274	-3.44055e-05	   10.2488	-1.18017e-05	   10.2619	-3.50036e-05	   10.2619	 -0.875091	
   10.3021	-5.09462e-05	   10.3134	-2.65244e-05	   10.2879	-3.92811e-06	   10.3011	-2.71329e-05	   10.3011	 -0.678323	
    10.341	-4.30666e-05	   10.3523	-1.85664e-05	   10.3267	3.88297e-06	     10.34	-1.925e-05	     10.34	  -0.48125	
   10.3793	-3.50915e-05	   10.3907	-1.06322e-05	    10.365	1.17372e-05	   10.3783	-1.13288e-05	   10.3783	 -0.283221	
   10.4171	-2.71446e-05	   10.4285	-2.68474e-06	   10.4027	1.9632e-05	   10.4161	-3.3991e-06	   10.4161	-0.0849775	
   10.4545	-1.91702e-05	   10.4659	5.2991e-06	   10.4399	2.73799e-05	   10.4534	4.50294e-06	   10.4534	  0.112574	
   10.4916	-1.11294e-05	   10.5029	1.32559e-05	   10.4767	3.52631e-05	   10.4904	1.24632e-05	   10.4904	   0.31158	
   10.5284	-3.09274e-06	   10.5396	2.12382e-05	   10.5133	4.31429e-05	   10.5271	2.04295e-05	   10.5271	  0.510736	
   10.5648	4.99915e-06	    10.576	2.92524e-05	   10.5495	5.09468e-05	   10.5634	2.83995e-05	   10.5634	  0.709987	
   10.6008	1.31306e-05	   10.6119	3.72795e-05	   10.5854	5.88291e-05	   10.5993	3.64131e-05	   10.5993	  0.910327	
   10.6361	2.12804e-05	   10.6471	4.53503e-05	   10.6208	6.6753e-05	   10.6347	4.44612e-05	   10.6347	   1.11153	
   10.6711	2.93331e-05	   10.6819	5.34077e-05	   10.6556	7.45489e-05	   10.6695	5.24299e-05	   10.6695	   1.31075	
   10.7058	3.74752e-05	   10.7162	6.1469e-05	     10.69	8.24405e-05	    10.704	6.04616e-05	    10.704	   1.51154	
   10.7398	4.56102e-05	   10.7503	6.96591e-05	   10.7238	9.03448e-05	    10.738	6.8538e-05	    10.738	   1.71345	
   10.7735	5.37008e-05	    10.784	7.77345e-05	   10.7572	 9.811e-05	   10.7716	7.65151e-05	   10.7716	   1.91288	
   10.8066	6.18413e-05	   10.8174	8.58501e-05	   10.7902	0.000105935	   10.8047	8.4542e-05	   10.8047	   2.11355	
   10.8394	6.99721e-05	   10.8504	9.40382e-05	   10.8229	0.000113847	   10.8375	9.2619e-05	   10.8375	   2.31548	
   10.8717	7.80528e-05	   10.8828	0.000102189	   10.8552	0.000121686	   10.8699	0.000100643	   10.8699	   2.51606	
   10.9034	8.61635e-05	   10.9145	0.000110351	    10.887	0.000129562	   10.9017	0.000108692	   10.9017	   2.71731	
   10.9346	9.42347e-05	   10.9459	0.000118586	   10.9183	0.000137519	   10.9329	0.00011678	   10.9329	    2.9195	
   10.9653	0.000102326	   10.9767	0.000126729	   10.9491	0.000145369	   10.9637	0.000124808	   10.9637	    3.1202	
   10.9957	0.000110366	   11.0071	0.000135001	   10.9794	0.000153263	   10.9941	0.000132877	   10.9941	   3.32192	
   11.0258	0.000118345	    11.037	0.000143285	   11.0093	0.000161265	   11.0241	0.000140965	   11.0241	   3.52413	
   11.0558	0.000126367	   11.0665	0.000151452	    11.039	0.000169158	   11.0537	0.000148992	   11.0537	   3.72481	
   11.0853	0.000134342	   11.0957	0.000159724	   11.0683	0.000177056	   11.0831	0.000157041	   11.0831	   3.92602	
   11.1144	0.000142321	   11.1244	0.000168017	   11.0973	0.000185038	   11.1121	0.000165126	   11.1121	   4.12814	
   11.1431	0.000150272	   11.1527	0.000176202	   11.1259	0.000192945	   11.1406	0.000173139	   11.1406	   4.32849	
   11.1712	0.000158145	   11.1805	0.00018443	    11.154	0.000200841	   11.1686	0.000181139	   11.1686	   4.52846	
   11.1987	0.000166095	   11.2078	0.000192661	   11.1815	0.000208784	    11.196	0.00018918	    11.196	    4.7295	
   11.2257	0.000173946	   11.2346	0.000200798	   11.2085	0.00021664	   11.2229	0.000197128	   11.2229	    4.9282	
   11.2522	0.000181714	   11.2609	0.000208963	   11.2349	0.000224547	   11.2494	0.000205075	   11.2494	   5.12687	
   11.2782	 0.0001896	   11.2869	0.000217135	   11.2608	0.000232393	   11.2753	0.000213043	   11.2753	   5.32607	
   11.3038	0.000197387	   11.3127	0.000225224	   11.2863	0.000240169	   11.3009	0.000220927	   11.3009	   5.52317	
   11.3291	0.000205136	   11.3381	0.000233325	   11.3115	0.000247969	   11.3262	0.00022881	   11.3262	   5.72025	
   11.3541	0.000212872	   11.3632	0.00024142	   11.3364	0.000255805	   11.3512	0.000236699	   11.3512	   5.91747	
   11.3787	0.000220646	   11.3879	0.000249452	    11.361	0.000263552	   11.3758	0.00024455	   11.3758	   6.11375	
   11.4029	0.000228261	   11.4121	0.000257479	   11.3852	0.000271317	   11.4001	0.000252352	   11.4001	   6.30881	
   11.4265	0.000235987	   11.4359	0.000265499	    11.409	0.000279129	   11.4238	0.000260205	   11.4238	   6.50514	
   11.4496	0.000243643	   11.4591	0.000273477	   11.4324	0.00028688	    11.447	  0.000268	    11.447	       6.7	
   11.4722	0.000251129	   11.4817	0.000281406	   11.4553	0.000294608	   11.4698	0.000275714	   11.4698	   6.89285	
   11.4943	0.000258698	   11.5038	0.000289325	   11.4777	0.000302321	   11.4919	0.000283448	   11.4919	    7.0862	
   11.5159	0.000266219	   11.5253	0.00029727	   11.4995	0.000310006	   11.5136	0.000291165	   11.5136	   7.27912	
   11.5369	0.000273602	   11.5462	0.00030516	   11.5208	0.000317663	   11.5347	0.000298808	   11.5347	   7.47021	
   11.5574	0.000281019	   11.5668	0.000313066	   11.5415	0.000325311	   11.5552	0.000306465	   11.5552	   7.66164	
   11.5774	0.000288452	   11.5869	0.000320909	   11.5617	0.000332944	   11.5753	0.000314102	   11.5753	   7.85255	
    11.597	0.000295701	   11.6066	0.000328696	   11.5814	0.000340527	    11.595	0.000321641	    11.595	   8.04104	
   11.6163	0.000302963	   11.6259	0.00033643	   11.6005	0.000348072	   11.6143	0.000329155	   11.6143	   8.22887	
   11.6352	0.00031025	    11.645	0.000344103	   11.6192	0.000355612	   11.6331	0.000336655	   11.6331	   8.41638	
   11.6537	0.000317403	   11.6638	0.00035177	   11.6375	0.000363095	   11.6517	0.000344089	   11.6517	   8.60223	
    11.672	0.000324588	   11.6821	0.000359439	   11.6554	0.000370538	   11.6698	0.000351522	   11.6698	   8.78804	
   11.6898	0.000331809	   11.7001	0.00036699	    11.673	0.000377968	   11.6876	0.000358922	   11.6876	   8.97306	
   11.7073	0.000338906	   11.7178	0.000374551	   11.6902	0.000385346	   11.7051	0.000366268	   11.7051	   9.15669	
   11.7245	0.000345962	    11.735	0.000382114	   11.7072	0.000392673	   11.7222	0.000373583	   11.7222	   9.33958	
   11.7414	0.000353112	   11.7519	0.00038958	   11.7238	0.000399958	    11.739	0.000380883	    11.739	   9.52208	
   11.7578	0.000360217	   11.7683	0.000397028	   11.7401	0.000407204	   11.7554	0.00038815	   11.7554	   9.70374	
   11.7738	0.000367269	   11.7842	0.000404479	   11.7561	0.000414426	   11.7714	0.000395391	   11.7714	   9.88479	
   11.7895	0.000374325	   11.7997	0.000411837	   11.7717	0.000421632	   11.7869	0.000402598	   11.7869	   10.0649	
   11.8046	0.000381345	   11.8146	0.00041925	   11.7868	0.00042879	    11.802	0.000409795	    11.802	   10.2449	
   11.8194	0.000388277	   11.8292	0.000426679	   11.8016	0.000435962	   11.8167	0.000416973	   11.8167	   10.4243	
   11.8336	0.000395261	   11.8432	0.000433871	   11.8159	0.00044307	   11.8309	0.000424067	   11.8309	   10.6017	
   11.8474	0.000402215	   11.8567	0.000441144	   11.8298	0.00045019	   11.8446	0.000431183	   11.8446	   10.7796	
   11.8606	0.000409126	   11.8696	0.000448505	   11.8432	0.00045734	   11.8578	0.000438323	   11.8578	   10.9581	
   11.8735	0.000416116	   11.8821	0.000455626	    11.856	0.000464343	   11.8705	0.000445362	   11.8705	    11.134	
   11.8859	0.000423108	   11.8939	0.000462796	   11.8681	0.000471384	   11.8827	0.000452429	   11.8827	   11.3107	
   11.8978	0.00043002	   11.9053	0.000470033	   11.8798	0.000478497	   11.8943	0.000459517	   11.8943	   11.4879	
   11.9092	0.000436948	   11.9161	0.000477063	   11.8911	0.000485493	   11.9055	0.000466501	   11.9055	   11.6625	
     11.92	0.000443899	   11.9265	0.000484147	   11.9019	0.000492509	   11.9161	0.000473518	   11.9161	    11.838	
   11.9303	0.000450784	   11.9363	0.000491346	   11.9122	0.00049956	   11.9263	0.000480563	   11.9263	   12.0141	
   11.9401	0.000457689	   11.9456	0.000498298	   11.9221	0.000506502	   11.9359	0.000487496	   11.9359	   12.1874	
   11.9494	0.000464566	   11.9544	0.000505224	   11.9315	0.000513414	   11.9451	0.000494401	   11.9451	     12.36	
   11.9582	0.00047144	   11.9627	0.000512288	   11.9405	0.000520358	   11.9538	0.000501362	   11.9538	    12.534	
   11.9666	0.000478324	   11.9706	0.000519197	   11.9491	0.000527199	   11.9621	0.00050824	   11.9621	    12.706	
   11.9745	0.000485195	    11.978	0.000526056	   11.9572	0.000534054	   11.9699	0.000515102	   11.9699	   12.8775	
   11.9819	0.000492049	   11.9849	0.000532997	   11.9648	0.000540873	   11.9772	0.000521973	   11.9772	   13.0493	
   11.9889	0.000498894	   11.9914	0.000539803	   11.9721	0.000547622	   11.9841	0.000528773	   11.9841	   13.2193	
   11.9954	0.000505732	   11.9975	0.000546567	   11.9789	0.000554372	   11.9906	0.000535557	   11.9906	   13.3889	
   12.0015	0.000512551	   12.0032	0.00055341	   11.9853	0.000561089	   11.9967	0.00054235	   11.9967	   13.5588	
   12.0073	0.00051936	   12.0084	0.000560151	   11.9913	0.000567756	   12.0023	0.000549089	   12.0023	   13.7272	
   12.0124	0.000526161	   12.0133	0.000566832	   11.9968	0.000574409	   12.0075	0.000555801	   12.0075	    13.895	
   12.0172	0.000532945	   12.0179	0.000573574	   12.0018	0.000581041	   12.0123	0.00056252	   12.0123	    14.063	
   12.0216	0.000539702	   12.0219	0.000580238	   12.0064	0.000587621	   12.0166	0.000569187	   12.0166	   14.2297	
   12.0253	0.000546445	   12.0255	0.000586888	   12.0104	0.000594186	   12.0204	0.00057584	   12.0204	    14.396	
   12.0284	0.000553176	   12.0285	0.00059358	   12.0138	0.000600692	   12.0236	0.000582483	   12.0236	   14.5621	
    12.031	0.00055987	   12.0311	0.000600088	   12.0167	0.000607224	   12.0263	0.000589061	   12.0263	   14.7265	
    12.033	0.000566561	   12.0334	0.000606591	   12.0189	0.000613687	   12.0284	0.000595613	   12.0284	   14.8903	
   12.0344	0.00057321	    12.035	0.000613188	   12.0205	0.000620086	     12.03	0.000602161	     12.03	    15.054	
   12.0351	0.000579846	    12.036	0.000619642	   12.0214	0.000626484	   12.0309	0.000608658	   12.0309	   15.2164	
   12.0352	0.000586467	   12.0366	0.000626034	   12.0218	0.000632861	   12.0312	0.000615121	   12.0312	    15.378	
   12.0347	0.000593039	   12.0365	0.000632557	   12.0216	0.000639229	   12.0309	0.000621608	   12.0309	   15.5402	
   12.0335	0.000599646	   12.0359	0.000638958	   12.0209	0.000645535	   12.0301	0.000628046	   12.0301	   15.7012	
   12.0319	0.000606232	   12.0348	0.000645264	   12.0198	0.000651817	   12.0288	0.000634438	   12.0288	   15.8609	
   12.0297	0.000612795	    12.033	0.000651681	   12.0181	0.00065805	   12.0269	0.000640842	   12.0269	    16.021	
    12.027	0.000619393	   12.0308	0.000657998	    12.016	0.00066421	   12.0246	 0.0006472	   12.0246	     16.18	
    12.024	0.000625955	    12.028	0.000664222	   12.0134	0.00067036	   12.0218	0.000653512	   12.0218	   16.3378	
   12.0206	0.000632499	   12.0249	0.000670526	   12.0104	0.000676506	   12.0186	0.000659844	   12.0186	   16.4961	
   12.0169	0.000639092	   12.0213	0.000676712	   12.0071	0.000682547	   12.0151	0.000666117	   12.0151	   16.6529	
   12.0127	0.000645669	   12.0175	0.000682874	   12.0033	0.000688619	   12.0112	0.000672387	   12.0112	   16.8097	
    12.008	0.000652196	   12.0133	0.000689035	    11.999	0.000694669	   12.0068	0.000678634	   12.0068	   16.9658	
   12.0028	0.000658746	   12.0088	0.000695102	   11.9942	 0.0007006	   12.0019	0.000684816	   12.0019	   17.1204	
   11.9971	0.000665324	   12.0038	0.000701146	   11.9887	0.00070657	   11.9965	0.000691013	   11.9965	   17.2753	
   11.9906	0.00067184	   11.9983	0.000707168	   11.9827	0.000712469	   11.9905	0.000697159	   11.9905	    17.429	
   11.9837	0.000678371	   11.9923	0.000713115	   11.9759	0.000718318	    11.984	0.000703268	    11.984	   17.5817	
   11.9763	0.000684928	   11.9858	0.000719033	   11.9687	0.000724164	   11.9769	0.000709375	   11.9769	   17.7344	
   11.9684	0.000691421	   11.9786	0.00072493	    11.961	0.000729964	   11.9693	0.000715438	   11.9693	    17.886	
     11.96	0.000697944	   11.9709	0.000730773	   11.9529	0.000735724	   11.9613	0.00072148	   11.9613	    18.037	
   11.9512	0.000704428	   11.9628	0.000736586	   11.9444	0.000741439	   11.9528	0.000727484	   11.9528	   18.1871	
    11.942	0.000710877	   11.9542	0.000742386	   11.9355	0.000747099	   11.9439	0.000733454	   11.9439	   18.3363	
   11.9324	0.000717351	   11.9453	0.000748152	   11.9263	0.000752709	   11.9347	0.000739404	   11.9347	   18.4851	
   11.9223	0.000723778	   11.9361	0.000753878	   11.9167	0.00075834	    11.925	0.000745332	    11.925	   18.6333	
   11.9116	0.000730195	   11.9263	0.000759598	   11.9064	0.000763932	   11.9148	0.000751242	   11.9148	    18.781	
   11.9003	0.000736576	    11.916	0.000765298	   11.8955	0.000769423	   11.9039	0.000757099	   11.9039	   18.9275	
   11.8884	0.000742975	    11.905	0.000770966	   11.8841	0.000774947	   11.8925	0.000762963	   11.8925	   19.0741	
   11.8762	0.00074935	   11.8935	0.000776601	   11.8722	0.00078042	   11.8806	0.00076879	   11.8806	   19.2198	
   11.8635	0.000755643	   11.8814	0.000782223	   11.8599	0.000785816	   11.8683	0.000774561	   11.8683	    19.364	
   11.8506	0.000761937	   11.8689	0.000787836	   11.8472	0.000791234	   11.8555	0.000780336	   11.8555	   19.5084	
   11.8373	0.000768206	    11.856	0.000793418	   11.8341	0.000796622	   11.8425	0.000786082	   11.8425	   19.6521	
   11.8238	0.000774399	   11.8429	0.000798967	   11.8207	0.000801949	   11.8291	0.000791772	   11.8291	   19.7943	
   11.8098	0.000780585	   11.8292	 0.0008045	   11.8067	0.000807275	   11.8152	0.000797454	   11.8152	   19.9363	
   11.7952	0.000786746	    11.815	0.000810022	   11.7921	0.000812583	   11.8008	0.000803117	   11.8008	   20.0779	
     11.78	0.000792849	   11.8003	0.000815522	   11.7769	0.000817825	   11.7857	0.000808732	   11.7857	   20.2183	
   11.7645	0.000798891	    11.785	0.000820933	   11.7613	0.00082304	   11.7703	0.000814288	   11.7703	   20.3572	
   11.7486	0.000804969	   11.7693	0.000826443	   11.7454	0.000828231	   11.7544	0.000819881	   11.7544	    20.497	
   11.7324	0.000810955	   11.7532	0.00083187	   11.7292	0.000833434	   11.7382	0.000825419	   11.7382	   20.6355	
   11.7158	0.000816881	   11.7367	0.00083729	   11.7125	0.000838543	   11.7217	0.000830905	   11.7217	   20.7726	
   11.6988	0.000822803	   11.7199	0.000842737	   11.6954	0.000843674	   11.7047	0.000836405	   11.7047	   20.9101	
   11.6811	0.000828655	   11.7024	0.000848103	   11.6776	0.00084882	    11.687	0.000841859	    11.687	   21.0465	
    11.663	0.000834448	   11.6844	0.000853468	   11.6593	0.000853874	   11.6689	0.000847264	   11.6689	   21.1816	
   11.6444	0.000840248	   11.6658	0.000858847	   11.6406	0.000858929	   11.6503	0.000852675	   11.6503	   21.3169	
   11.6255	0.000845974	   11.6468	0.000864175	   11.6216	0.000864025	   11.6313	0.000858058	   11.6313	   21.4515	
   11.6063	0.000851657	   11.6275	0.000869495	   11.6022	0.000869008	    11.612	0.000863387	    11.612	   21.5847	
   11.5868	0.000857365	   11.6078	0.000874831	   11.5824	0.000874035	   11.5923	0.000868744	   11.5923	   21.7186	
   11.5668	0.000862872	   11.5877	0.000880118	    11.562	0.00087912	   11.5722	0.000874037	   11.5722	   21.8509	
   11.5461	0.000868379	    11.567	0.000885395	   11.5411	0.000884028	   11.5514	0.000879267	   11.5514	   21.9817	
   11.5251	0.00087392	   11.5458	0.000890674	     11.52	0.000889079	   11.5303	0.000884558	   11.5303	    22.114	
   11.5036	0.000879284	   11.5242	0.000895912	   11.4983	0.000894055	   11.5087	0.00088975	   11.5087	   22.2438	
   11.4818	0.000884621	   11.5025	0.000901171	   11.4762	0.000898843	   11.4868	0.000894878	   11.4868	    22.372	
   11.4595	0.000889955	     11.48	0.000906359	   11.4537	0.000903779	   11.4644	0.000900031	   11.4644	   22.5008	
   11.4366	0.000895198	   11.4571	0.000911495	   11.4306	0.000908615	   11.4414	0.000905102	   11.4414	   22.6276	
   11.4131	0.000900273	   11.4339	0.000916693	   11.4071	0.000913303	    11.418	0.00091009	    11.418	   22.7523	
   11.3893	0.000905456	   11.4101	0.000921812	   11.3832	0.000918076	   11.3942	0.000915114	   11.3942	   22.8779	
   11.3652	0.000910491	   11.3859	0.00092692	   11.3589	0.000922767	     11.37	0.000920059	     11.37	   23.0015	
   11.3407	0.000915408	   11.3614	0.000932033	   11.3342	0.000927326	   11.3454	0.000924922	   11.3454	   23.1231	
   11.3156	0.00092039	   11.3363	0.000937071	   11.3088	0.000931937	   11.3202	0.000929799	   11.3202	    23.245	
   11.2899	0.000925265	   11.3106	0.000942149	    11.283	0.000936487	   11.2945	0.000934634	   11.2945	   23.3658	
   11.2639	0.000930019	   11.2844	0.000947152	   11.2567	0.000940933	   11.2683	0.000939368	   11.2683	   23.4842	
   11.2374	0.000934812	   11.2578	0.000952103	   11.2302	0.000945389	   11.2418	0.000944102	   11.2418	   23.6025	
   11.2106	0.000939554	   11.2308	0.000957125	   11.2033	0.000949812	   11.2149	0.00094883	   11.2149	   23.7208	
   11.1832	0.000944184	   11.2033	0.000962093	   11.1758	0.000954207	   11.1874	0.000953494	   11.1874	   23.8374	
   11.1553	0.000948806	   11.1752	0.000966965	   11.1477	0.000958466	   11.1594	0.000958079	   11.1594	    23.952	
    11.127	0.000953382	   11.1467	0.000971868	   11.1193	0.000962808	    11.131	0.000962686	    11.131	   24.0672	
   11.0984	0.000957851	   11.1178	0.000976763	   11.0906	0.000967086	   11.1023	0.000967233	   11.1023	   24.1808	
   11.0694	0.000962312	   11.0886	0.000981568	   11.0616	0.000971271	   11.0732	0.000971717	   11.0732	   24.2929	
   11.0398	0.000966731	    11.059	0.00098642	    11.032	0.000975478	   11.0436	0.00097621	   11.0436	   24.4052	
   11.0097	0.000971046	   11.0288	0.000991201	   11.0019	0.000979723	   11.0135	0.000980656	   11.0135	   24.5164	
   10.9793	0.000975295	   10.9983	0.000995951	   10.9715	0.000983913	    10.983	0.000985053	    10.983	   24.6263	
   10.9485	0.000979573	   10.9674	0.00100072	   10.9408	0.00098805	   10.9522	0.000989446	   10.9522	   24.7362	
   10.9172	0.000983744	   10.9361	0.00100547	   10.9095	0.000992186	   10.9209	0.000993799	   10.9209	    24.845	
   10.8853	0.000987875	   10.9043	0.00101012	   10.8777	0.000996308	   10.8891	 0.0009981	   10.8891	   24.9525	
   10.8531	0.000992039	    10.872	0.00101482	   10.8455	0.00100041	   10.8568	0.00100242	   10.8568	   25.0606	
   10.8203	0.000996027	   10.8392	0.00101947	   10.8127	 0.0010045	   10.8241	0.00100667	   10.8241	   25.1667	
   10.7871	0.000999923	    10.806	0.00102407	   10.7796	0.00100851	   10.7909	0.00101084	   10.7909	   25.2709	
   10.7535	0.00100389	   10.7725	0.00102872	   10.7462	0.00101256	   10.7574	0.00101506	   10.7574	   25.3764	
   10.7195	0.00100773	   10.7384	0.00103326	   10.7123	0.00101663	   10.7234	0.00101921	   10.7234	   25.4802	
   10.6852	 0.0010114	   10.7041	0.00103773	   10.6779	0.00102059	    10.689	0.00102324	    10.689	    25.581	
   10.6506	0.00101526	   10.6693	0.00104219	    10.643	0.00102456	   10.6543	0.00102734	   10.6543	   25.6834	
   10.6154	0.00101905	    10.634	0.00104665	   10.6076	0.00102856	    10.619	0.00103142	    10.619	   25.7855	
   10.5798	0.00102262	   10.5983	0.00105107	   10.5719	0.00103247	   10.5833	0.00103539	   10.5833	   25.8847	
   10.5439	0.00102634	   10.5622	0.00105543	   10.5358	0.00103638	   10.5473	0.00103938	   10.5473	   25.9845	
   10.5076	0.00102999	   10.5259	0.00105981	   10.4995	0.00104034	    10.511	0.00104338	    10.511	   26.0845	
   10.4708	0.00103345	   10.4891	0.00106415	   10.4626	0.00104419	   10.4742	0.00104726	   10.4742	   26.1816	
   10.4335	0.00103699	    10.452	 0.0010684	   10.4253	0.00104801	   10.4369	0.00105114	   10.4369	   26.2784	
    10.396	 0.0010405	   10.4144	0.00107268	   10.3878	0.00105186	   10.3994	0.00105501	   10.3994	   26.3753	
   10.3581	0.00104391	   10.3765	0.00107692	   10.3499	0.00105564	   10.3615	0.00105882	   10.3615	   26.4706	
   10.3197	0.00104735	   10.3381	0.00108109	   10.3114	0.00105942	   10.3231	0.00106262	   10.3231	   26.5655	
   10.2808	0.00105077	   10.2993	0.00108527	   10.2725	0.00106312	   10.2842	0.00106639	   10.2842	   26.6597	
   10.2415	0.00105411	     10.26	0.00108942	   10.2334	0.00106677	    10.245	 0.0010701	    10.245	   26.7526	
   10.2019	0.00105748	   10.2205	0.00109351	   10.1939	0.00107046	   10.2055	0.00107382	   10.2055	   26.8454	
   10.1618	0.00106085	   10.1805	0.00109759	   10.1539	0.00107408	   10.1654	0.00107751	   10.1654	   26.9377	
   10.1212	0.00106405	     10.14	0.00110167	   10.1135	0.00107765	   10.1249	0.00108112	   10.1249	    27.028	
   10.0804	0.00106736	   10.0992	0.00110563	   10.0728	0.00108125	   10.0841	0.00108475	   10.0841	   27.1187	
   10.0395	0.00107066	    10.058	0.00110958	   10.0316	0.00108476	    10.043	0.00108833	    10.043	   27.2083	
   9.99779	0.00107387	   10.0164	0.00111351	   9.98985	0.00108822	   10.0013	0.00109187	   10.0013	   27.2967	
    9.9558	0.00107703	   9.97425	0.00111731	   9.94782	0.00109175	   9.95929	0.00109537	   9.95929	   27.3841	
   9.91338	0.00108031	    9.9319	0.00112116	   9.90549	0.00109514	   9.91692	0.00109887	   9.91692	   27.4718	
   9.87048	0.00108346	   9.88916	0.00112499	   9.86262	0.00109848	   9.87408	0.00110231	   9.87408	   27.5578	
   9.82715	0.00108655	   9.84588	0.00112858	   9.81933	0.00110187	   9.83079	0.00110567	   9.83079	   27.6417	
   9.78358	0.00108972	   9.80228	0.00113232	    9.7758	0.00110511	   9.78722	0.00110905	   9.78722	   27.7263	
    9.7397	0.00109274	   9.75831	0.00113598	   9.73188	0.00110831	    9.7433	0.00111234	    9.7433	   27.8086	
   9.69528	0.00109574	   9.71385	0.00113949	   9.68745	0.00111155	   9.69886	 0.0011156	   9.69886	   27.8899	
   9.65052	0.00109879	     9.669	0.00114307	   9.64271	0.00111468	   9.65408	0.00111885	   9.65408	   27.9712	
   9.60547	0.00110174	    9.6239	0.00114657	   9.59768	0.00111775	   9.60902	0.00112202	   9.60902	   28.0506	
      9.56	0.00110467	   9.57827	0.00114993	   9.55208	0.00112085	   9.56345	0.00112515	   9.56345	   28.1287	
   9.51412	0.00110758	   9.53217	0.00115335	   9.50611	0.00112385	   9.51747	0.00112826	   9.51747	   28.2065	
     9.468	0.00111041	   9.48569	0.00115666	   9.45989	0.00112678	   9.47119	0.00113128	   9.47119	   28.2821	
   9.42146	0.00111321	   9.43915	0.00115981	   9.41316	0.00112969	   9.42459	0.00113424	   9.42459	   28.3559	
   9.37444	  0.001116	   9.39195	0.00116312	   9.36599	0.00113251	   9.37746	0.00113721	   9.37746	   28.4302	
   9.32715	0.00111869	   9.34441	0.00116631	   9.31855	0.00113536	   9.33003	0.00114012	   9.33003	    28.503	
   9.27948	0.00112134	    9.2965	0.00116936	   9.27071	0.00113811	   9.28223	0.00114294	   9.28223	   28.5734	
   9.23128	0.00112398	   9.24813	0.00117253	   9.22242	0.00114082	   9.23395	0.00114578	   9.23395	   28.6445	
   9.18278	0.00112657	   9.19939	0.00117562	   9.17385	0.00114357	   9.18534	0.00114859	   9.18534	   28.7147	
   9.13398	0.00112912	   9.15044	0.00117856	   9.12501	 0.0011462	   9.13648	0.00115129	   9.13648	   28.7824	
    9.0847	0.00113163	    9.1011	0.00118158	   9.07567	0.00114878	   9.08715	  0.001154	   9.08715	     28.85	
   9.03506	0.00113408	   9.05135	0.00118454	   9.02601	0.00115137	   9.03747	0.00115666	   9.03747	   28.9166	
    8.9852	0.00113653	   9.00135	0.00118735	   8.97609	0.00115388	   8.98755	0.00115925	   8.98755	   28.9813	
   8.93486	0.00113897	     8.951	0.00119023	   8.92608	0.00115635	   8.93731	0.00116185	   8.93731	   29.0462	
   8.88414	0.00114134	   8.90018	  0.001193	   8.87532	0.00115888	   8.88655	0.00116441	   8.88655	   29.1102	
   8.83318	0.00114374	   8.84912	0.00119564	   8.82438	 0.0011612	   8.83556	0.00116686	   8.83556	   29.1715	
   8.78186	0.00114605	    8.7977	0.00119834	   8.77292	0.00116359	   8.78416	0.00116933	   8.78416	   29.2331	
   8.73016	0.00114829	   8.74581	0.00120098	   8.72107	0.00116604	   8.73235	0.00117177	   8.73235	   29.2944	
   8.67815	0.00115053	   8.69365	0.00120343	   8.66904	 0.0011683	   8.68028	0.00117409	   8.68028	   29.3522	
   8.62574	0.00115281	   8.64117	0.00120588	   8.61664	0.00117057	   8.62785	0.00117642	   8.62785	   29.4104	
   8.57297	0.00115499	   8.58819	0.00120826	   8.56385	 0.0011729	     8.575	0.00117872	     8.575	   29.4679	
   8.52001	0.00115717	   8.53497	 0.0012105	   8.51089	0.00117503	   8.52196	 0.0011809	   8.52196	   29.5225	
   8.46668	0.00115941	   8.48143	0.00121271	   8.45754	0.00117723	   8.46855	0.00118312	   8.46855	   29.5779	
   8.41293	0.00116158	   8.42744	0.00121488	    8.4038	0.00117942	   8.41472	 0.0011853	   8.41472	   29.6324	
   8.35896	0.00116373	   8.37319	0.00121698	   8.34989	0.00118147	   8.36068	0.00118739	   8.36068	   29.6848	
   8.30458	0.00116594	   8.31872	0.00121902	    8.2956	0.00118355	    8.3063	 0.0011895	    8.3063	   29.7376	
   8.24979	0.00116809	    8.2638	0.00122096	   8.24091	0.00118562	    8.2515	0.00119156	    8.2515	    29.789	
   8.19477	 0.0011702	   8.20861	0.00122284	   8.18606	0.00118758	   8.19648	0.00119354	   8.19648	   29.8385	
   8.13929	0.00117234	   8.15315	0.00122474	   8.13086	0.00118957	    8.1411	0.00119555	    8.1411	   29.8888	
   8.08343	0.00117448	   8.09732	0.00122653	   8.07527	 0.0011915	   8.08534	0.00119751	   8.08534	   29.9376	
   8.02732	0.00117653	   8.04118	0.00122822	   8.01945	0.00119344	   8.02932	 0.0011994	   8.02932	   29.9849	
   7.97075	0.00117865	    7.9847	0.00122994	   7.96324	0.00119534	    7.9729	0.00120131	    7.9729	   30.0327	
   7.91385	0.00118075	   7.92785	0.00123158	   7.90667	0.00119717	   7.91613	0.00120317	   7.91613	   30.0792	
   7.85677	0.00118277	   7.87077	0.00123314	   7.84988	0.00119899	   7.85914	0.00120497	   7.85914	   30.1242	
   7.79932	 0.0011849	   7.81338	0.00123476	   7.79271	0.00120078	    7.8018	0.00120681	    7.8018	   30.1703	
   7.74156	0.00118698	   7.75561	0.00123624	   7.73521	 0.0012025	   7.74413	0.00120857	   7.74413	   30.2143	
   7.68363	0.00118896	   7.69763	0.00123762	   7.67746	0.00120421	   7.68624	0.00121026	   7.68624	   30.2565	
   7.62524	0.00119104	   7.63933	0.00123909	   7.61933	0.00120588	   7.62797	  0.001212	   7.62797	   30.3001	
    7.5666	0.00119304	   7.58068	0.00124043	   7.56088	0.00120746	   7.56938	0.00121365	   7.56938	   30.3412	
   7.50772	0.00119496	    7.5218	0.00124167	   7.50227	0.00120901	   7.51059	0.00121521	   7.51059	   30.3803	
   7.44842	0.00119691	   7.46251	0.00124296	   7.44333	0.00121059	   7.45142	0.00121682	   7.45142	   30.4205	
   7.38891	0.00119882	   7.40294	0.00124413	   7.38403	0.00121208	   7.39196	0.00121834	   7.39196	   30.4586	
   7.32917	0.00120064	   7.34312	 0.0012452	   7.32443	0.00121351	   7.33224	0.00121978	   7.33224	   30.4946	
   7.26907	0.00120246	   7.28293	 0.0012463	   7.26446	 0.0012149	   7.27215	0.00122122	   7.27215	   30.5305	
   7.20879	0.00120425	   7.22253	0.00124731	   7.20429	0.00121623	   7.21187	 0.0012226	   7.21187	    30.565	
   7.14823	0.00120595	   7.16186	0.00124821	   7.14376	0.00121746	   7.15129	0.00122388	   7.15129	   30.5969	
   7.08735	0.00120765	    7.1008	0.00124912	   7.08289	0.00121871	   7.09035	0.00122516	   7.09035	   30.6289	
    7.0263	0.00120931	   7.03959	0.00124994	   7.02189	 0.0012199	   7.02926	0.00122638	   7.02926	   30.6595	
   6.96481	0.00121087	   6.97798	0.00125066	    6.9605	0.00122101	   6.96776	0.00122751	   6.96776	   30.6878	
   6.90305	0.00121241	   6.91605	0.00125138	   6.89884	0.00122209	   6.90598	0.00122863	   6.90598	   30.7157	
   6.84108	0.00121392	   6.85395	0.00125203	   6.83705	0.00122312	   6.84402	0.00122969	   6.84402	   30.7423	
    6.7787	0.00121532	   6.79152	 0.0012526	   6.77483	0.00122407	   6.78168	0.00123066	   6.78168	   30.7666	
   6.71615	0.00121676	   6.72887	0.00125316	   6.71243	0.00122498	   6.71915	0.00123163	   6.71915	   30.7909	
   6.65331	0.00121811	   6.66596	0.00125366	    6.6497	0.00122586	   6.65632	0.00123254	   6.65632	   30.8135	
   6.59013	0.00121936	   6.60267	0.00125408	   6.58662	0.00122662	   6.59314	0.00123335	   6.59314	   30.8339	
   6.52682	0.00122065	   6.53921	0.00125449	   6.52344	0.00122733	   6.52982	0.00123416	   6.52982	    30.854	
   6.46316	0.00122179	   6.47548	0.00125485	   6.45988	0.00122801	   6.46617	0.00123488	   6.46617	   30.8721	
   6.39925	0.00122287	   6.41145	0.00125515	   6.39606	 0.0012286	   6.40225	0.00123554	   6.40225	   30.8885	
   6.33513	0.00122396	   6.34729	0.00125541	   6.33212	0.00122915	   6.33818	0.00123617	   6.33818	   30.9044	
   6.27066	0.00122498	   6.28274	0.00125566	   6.26783	0.00122963	   6.27374	0.00123675	   6.27374	   30.9188	
   6.20605	0.00122585	   6.21798	0.00125583	   6.20337	0.00123005	   6.20913	0.00123724	   6.20913	   30.9311	
   6.14115	 0.0012267	   6.15302	0.00125595	   6.13862	0.00123042	   6.14426	0.00123769	   6.14426	   30.9423	
   6.07595	0.00122752	    6.0877	0.00125608	   6.07354	0.00123075	   6.07907	0.00123811	   6.07907	   30.9529	
   6.01062	0.00122823	   6.02226	0.00125608	   6.00834	0.00123098	   6.01374	0.00123843	   6.01374	   30.9607	
    5.9449	 0.0012289	    5.9564	0.00125607	   5.94274	0.00123118	   5.94801	0.00123872	   5.94801	   30.9679	
   5.87901	0.00122953	   5.89031	0.00125606	   5.87694	0.00123133	   5.88209	0.00123897	   5.88209	   30.9743	
   5.81291	0.00123007	   5.82412	0.00125601	   5.81098	0.00123142	     5.816	0.00123917	     5.816	   30.9792	
    5.7465	0.00123052	   5.75758	0.00125594	   5.74466	 0.0012315	   5.74958	0.00123932	   5.74958	    30.983	
   5.68003	0.00123099	   5.69092	0.00125579	   5.67823	 0.0012315	   5.68306	0.00123943	   5.68306	   30.9857	
   5.61327	0.00123135	   5.62398	0.00125563	   5.61149	0.00123147	   5.61625	0.00123948	   5.61625	   30.9871	
    5.5463	0.00123161	   5.55679	0.00125544	   5.54452	0.00123141	   5.54921	0.00123949	   5.54921	   30.9872	
   5.47925	0.00123187	   5.48945	0.00125519	   5.47739	0.00123135	   5.48203	0.00123947	   5.48203	   30.9868	
   5.41182	0.00123203	   5.42178	0.00125492	   5.40991	0.00123123	    5.4145	0.00123939	    5.4145	   30.9849	
    5.3443	0.00123208	   5.35397	0.00125461	   5.34225	 0.0012311	   5.34684	0.00123926	   5.34684	   30.9816	
   5.27648	 0.0012321	   5.28596	0.00125424	   5.27442	 0.0012309	   5.27895	0.00123908	   5.27895	    30.977	
   5.20842	0.00123203	   5.21768	0.00125383	   5.20634	0.00123076	   5.21081	0.00123888	   5.21081	   30.9719	
   5.14024	0.00123185	   5.14933	0.00125336	   5.13812	0.00123058	   5.14256	 0.0012386	   5.14256	    30.965	
   5.07176	0.00123168	   5.08062	0.00125284	   5.06963	0.00123031	     5.074	0.00123827	     5.074	   30.9569	
   5.00319	0.00123144	   5.01176	0.00125229	   5.00097	 0.0012301	   5.00531	0.00123794	   5.00531	   30.9486	
    4.9344	0.00123109	   4.94281	0.00125169	   4.93208	0.00122985	   4.93643	0.00123755	   4.93643	   30.9386	
   4.86537	0.00123074	   4.87358	0.00125103	   4.86296	0.00122952	    4.8673	0.00123709	    4.8673	   30.9274	
   4.79632	0.00123036	   4.80431	 0.0012503	   4.79376	0.00122921	   4.79813	0.00123662	   4.79813	   30.9156	
   4.72697	0.00122988	   4.73477	0.00124959	   4.72433	0.00122891	   4.72869	0.00123613	   4.72869	   30.9032	
   4.65751	0.00122935	    4.6653	0.00124885	    4.6548	0.00122853	    4.6592	0.00123558	    4.6592	   30.8895	
   4.58785	0.00122877	   4.59533	  0.001248	    4.5851	0.00122812	   4.58943	0.00123497	   4.58943	   30.8741	
   4.51795	0.00122817	   4.52517	0.00124712	   4.51519	0.00122772	   4.51943	0.00123434	   4.51943	   30.8585	
   4.44816	0.00122744	   4.45484	0.00124623	   4.44523	0.00122725	   4.44941	0.00123364	   4.44941	    30.841	
   4.37804	0.00122666	   4.38422	0.00124521	   4.37495	0.00122673	   4.37907	0.00123287	   4.37907	   30.8217	
   4.30762	0.00122588	    4.3135	 0.0012442	    4.3047	0.00122627	   4.30861	0.00123212	   4.30861	   30.8029	
   4.23706	0.00122504	   4.24264	0.00124319	   4.23414	0.00122569	   4.23795	 0.0012313	   4.23795	   30.7826	
   4.16629	0.00122411	   4.17154	0.00124206	   4.16332	0.00122508	   4.16705	0.00123042	   4.16705	   30.7604	
   4.09537	0.00122314	   4.10038	0.00124091	   4.09237	0.00122454	   4.09604	0.00122953	   4.09604	   30.7383	
   4.02417	 0.0012221	   4.02891	0.00123972	   4.02115	0.00122388	   4.02474	0.00122857	   4.02474	   30.7141	
   3.95289	0.00122099	   3.95736	0.00123842	   3.94986	0.00122318	   3.95337	0.00122753	   3.95337	   30.6883	
    3.8813	0.00121982	   3.88571	0.00123709	   3.87843	0.00122251	   3.88181	0.00122647	   3.88181	   30.6619	
   3.80954	 0.0012186	   3.81385	0.00123575	   3.80694	0.00122174	   3.81011	0.00122536	   3.81011	   30.6341	
   3.73772	0.00121733	   3.74196	0.00123428	   3.73528	0.00122093	   3.73832	0.00122418	   3.73832	   30.6045	
    3.6656	0.00121595	   3.66982	0.00123283	    3.6636	0.00122005	   3.66634	0.00122294	   3.66634	   30.5735	
   3.59348	0.00121454	   3.59764	0.00123132	   3.59179	0.00121913	    3.5943	0.00122166	    3.5943	   30.5416	
   3.52116	0.00121307	   3.52531	0.00122971	    3.5198	0.00121824	   3.52209	0.00122034	   3.52209	   30.5085	
   3.44871	0.00121152	   3.45282	0.00122809	   3.44764	0.00121714	   3.44972	0.00121891	   3.44972	   30.4728	
   3.37623	0.00120992	   3.38029	0.00122642	   3.37534	0.00121611	   3.37729	0.00121749	   3.37729	   30.4371	
    3.3035	0.00120828	   3.30759	0.00122467	   3.30279	 0.0012151	   3.30462	0.00121602	   3.30462	   30.4004	
   3.23077	0.00120655	   3.23487	0.00122288	   3.23022	0.00121386	   3.23195	0.00121443	   3.23195	   30.3608	
   3.15775	0.00120478	   3.16202	0.00122108	   3.15747	0.00121263	   3.15908	0.00121283	   3.15908	   30.3207	
   3.08465	0.00120296	   3.08903	 0.0012192	   3.08461	0.00121138	    3.0861	0.00121118	    3.0861	   30.2794	
   3.01148	0.00120107	   3.01591	0.00121727	   3.01168	0.00120994	   3.01302	0.00120943	   3.01302	   30.2357	
    2.9381	0.00119916	   2.94257	0.00121532	   2.93857	 0.0012085	   2.93975	0.00120766	   2.93975	   30.1915	
   2.86479	0.00119716	   2.86904	0.00121338	   2.86542	0.00120703	   2.86642	0.00120586	   2.86642	   30.1464	
   2.79123	0.00119514	   2.79551	 0.0012114	    2.7921	0.00120539	   2.79294	0.00120398	   2.79294	   30.0994	
    2.7176	 0.0011931	    2.7219	0.00120933	   2.71868	0.00120372	   2.71939	0.00120205	   2.71939	   30.0513	
   2.64386	0.00119097	   2.64815	0.00120725	   2.64523	  0.001202	   2.64575	0.00120007	   2.64575	   30.0018	
   2.57005	0.00118875	   2.57439	0.00120509	   2.57159	0.00120015	   2.57201	  0.001198	   2.57201	   29.9499	
   2.49604	0.00118666	   2.50052	0.00120296	   2.49791	0.00119825	   2.49816	0.00119596	   2.49816	   29.8989	
   2.42203	0.00118446	   2.42641	0.00120077	   2.42379	0.00119633	   2.42408	0.00119385	   2.42408	   29.8463	
   2.34791	 0.0011821	   2.35228	0.00119858	   2.34961	0.00119421	   2.34993	0.00119163	   2.34993	   29.7906	
    2.2736	0.00117979	   2.27807	0.00119632	   2.27538	0.00119208	   2.27568	 0.0011894	   2.27568	   29.7349	
   2.19918	0.00117744	   2.20374	0.00119404	   2.20112	0.00118998	   2.20135	0.00118715	   2.20135	   29.6788	
   2.12463	0.00117498	    2.1294	0.00119172	   2.12666	0.00118775	    2.1269	0.00118482	    2.1269	   29.6204	
   2.04999	0.00117254	   2.05483	0.00118932	   2.05213	0.00118543	   2.05232	0.00118243	   2.05232	   29.5608	
   1.97539	 0.0011701	   1.98027	0.00118686	   1.97758	0.00118307	   1.97775	0.00118001	   1.97775	   29.5002	
   1.90068	0.00116752	   1.90551	0.00118439	   1.90287	0.00118064	   1.90302	0.00117752	   1.90302	   29.4379	
   1.82594	0.00116491	   1.83068	0.00118182	   1.82811	 0.0011781	   1.82824	0.00117494	   1.82824	   29.3736	
   1.75122	0.00116233	   1.75578	0.00117919	   1.75344	 0.0011755	   1.75348	0.00117234	   1.75348	   29.3085	
   1.67635	0.00115961	   1.68073	0.00117657	   1.67862	0.00117289	   1.67856	0.00116969	   1.67856	   29.2422	
   1.60154	0.00115688	   1.60576	0.00117378	   1.60386	0.00117017	   1.60372	0.00116694	   1.60372	   29.1736	
   1.52668	0.00115415	   1.53064	0.00117097	   1.52904	0.00116738	   1.52879	0.00116417	   1.52879	   29.1041	
   1.45181	0.00115133	   1.45551	0.00116814	   1.45422	0.00116448	   1.45384	0.00116132	   1.45384	   29.0329	
   1.37691	0.00114844	   1.38028	0.00116519	   1.37931	0.00116156	   1.37883	0.00115839	   1.37883	   28.9599	
   1.30191	0.00114558	   1.30495	0.00116218	   1.30428	0.00115862	   1.30371	0.00115546	   1.30371	   28.8865	
   1.22696	0.00114264	   1.22971	0.00115914	   1.22925	0.00115556	   1.22864	0.00115245	   1.22864	   28.8112	
   1.15185	0.00113962	   1.15431	0.00115606	   1.15405	0.00115244	    1.1534	0.00114938	    1.1534	   28.7344	
   1.07676	0.00113661	   1.07895	0.00115285	    1.0789	0.00114929	    1.0782	0.00114625	    1.0782	   28.6562	
   1.00146	0.00113352	   1.00342	0.00114955	   1.00362	0.00114602	   1.00283	0.00114303	   1.00283	   28.5758	
  0.926303	0.00113038	  0.927839	0.00114642	  0.928286	0.00114267	  0.927476	0.00113983	  0.927476	   28.4957	
  0.850761	0.00112727	   0.85231	0.00114304	  0.853039	 0.0011393	  0.852036	0.00113654	  0.852036	   28.4134	
  0.775356	 0.0011241	  0.776691	0.00113955	   0.77771	 0.0011358	  0.776586	0.00113315	  0.776586	   28.3288	
  0.700008	0.00112079	  0.701187	0.00113618	  0.702409	0.00113223	  0.701201	0.00112973	  0.701201	   28.2434	
  0.624575	0.00111756	  0.625705	0.00113267	  0.627021	0.00112864	  0.625767	0.00112629	  0.625767	   28.1572	
  0.549155	0.00111426	  0.550139	0.00112895	   0.55157	0.00112498	  0.550288	0.00112273	  0.550288	   28.0683	
  0.473775	0.00111087	  0.474546	0.00112532	  0.476139	0.00112123	   0.47482	0.00111914	   0.47482	   27.9786	
  0.398313	0.00110752	  0.398885	0.00112165	  0.400607	0.00111742	  0.399268	0.00111553	  0.399268	   27.8882	
  0.322948	0.00110409	  0.323358	 0.0011178	  0.325178	0.00111358	  0.323828	0.00111182	  0.323828	   27.7956	
  0.247432	0.00110059	  0.247762	0.00111399	  0.249678	0.00110968	  0.248291	0.00110809	  0.248291	   27.7021	
  0.171974	0.00109706	   0.17218	0.00111013	  0.174212	0.00110563	  0.172789	0.00110427	  0.172789	   27.6069	
 0.0964754	0.00109347	 0.0966383	0.00110613	 0.0988055	0.00110162	 0.0973064	0.00110041	 0.0973064	   27.5102	
 0.0209197	0.00108981	 0.0210154	0.00110218	 0.0233368	0.00109752	 0.0217573	 0.0010965	 0.0217573	   27.4125	
 -0.054518	0.00108615	-0.0545109	0.00109819	-0.0520447	 0.0010933	-0.0536912	0.00109255	-0.0536912	   27.3137	
 -0.130012	0.00108241	 -0.130087	0.00109404	  -0.12751	0.00108909	 -0.129203	0.00108852	 -0.129203	   27.2129	
 -0.205409	 0.0010786	 -0.205609	0.00108991	 -0.202906	 0.0010848	 -0.204641	0.00108444	 -0.204641	   27.1109	
 -0.280852	0.00107481	  -0.28114	0.00108579	 -0.278268	 0.0010804	 -0.280087	0.00108033	 -0.280087	   27.0083	
 -0.356319	0.00107099	 -0.356715	0.00108156	 -0.353686	  0.001076	 -0.355573	0.00107618	 -0.355573	   26.9045	
 -0.431733	 0.0010671	 -0.432178	0.00107732	 -0.428956	0.00107155	 -0.430956	0.00107199	 -0.430956	   26.7997	
 -0.507213	 0.0010632	 -0.507779	0.00107308	  -0.50438	0.00106699	 -0.506457	0.00106776	 -0.506457	   26.6939	
 -0.582585	0.00105925	 -0.583308	0.00106871	 -0.579701	0.00106242	 -0.581865	0.00106346	 -0.581865	   26.5865	
 -0.657997	0.00105523	  -0.65889	0.00106433	 -0.654996	 0.0010578	 -0.657294	0.00105912	 -0.657294	    26.478	
 -0.733396	0.00105122	 -0.734467	0.00105998	 -0.730112	  0.001053	 -0.732659	0.00105473	 -0.732659	   26.3683	
 -0.808709	0.00104712	 -0.809843	0.00105549	 -0.805434	0.00104831	 -0.807995	0.00105031	 -0.807995	   26.2577	
 -0.884083	  0.001043	 -0.885324	0.00105103	 -0.880649	0.00104349	 -0.883352	0.00104584	 -0.883352	   26.1459	
 -0.959621	0.00103886	 -0.960655	0.00104659	 -0.955742	0.00103853	 -0.958673	0.00104133	 -0.958673	   26.0332	
  -1.03505	0.00103461	  -1.03592	  0.001042	  -1.03084	0.00103365	  -1.03394	0.00103675	  -1.03394	   25.9188	
  -1.11033	0.00103033	  -1.11117	0.00103739	  -1.10595	0.00102864	  -1.10915	0.00103212	  -1.10915	   25.8031	
  -1.18569	0.00102603	   -1.1865	 0.0010328	  -1.18097	0.00102352	  -1.18439	0.00102745	  -1.18439	   25.6862	
  -1.26099	0.00102174	  -1.26175	0.00102804	   -1.2561	0.00101852	  -1.25961	0.00102277	  -1.25961	   25.5692	
  -1.33614	 0.0010173	  -1.33695	0.00102334	  -1.33109	0.00101341	  -1.33473	0.00101802	  -1.33473	   25.4504	
  -1.41133	0.00101287	  -1.41218	0.00101868	  -1.40607	0.00100815	  -1.40986	0.00101324	  -1.40986	   25.3309	
  -1.48647	0.00100844	  -1.48729	0.00101384	  -1.48104	0.00100303	  -1.48493	0.00100844	  -1.48493	    25.211	
  -1.56157	0.00100389	  -1.56224	0.00100903	  -1.55579	0.000997794	  -1.55987	0.00100357	  -1.55987	   25.0892	
  -1.63665	0.000999336	  -1.63721	0.00100422	  -1.63062	0.000992409	  -1.63483	0.000998655	  -1.63483	   24.9664	
  -1.71155	0.000994771	  -1.71206	0.000999245	  -1.70532	0.000987119	  -1.70964	0.000993712	  -1.70964	   24.8428	
   -1.7865	0.000990093	  -1.78693	0.00099434	  -1.77995	0.000981717	  -1.78446	0.000988717	  -1.78446	   24.7179	
  -1.86137	0.000985416	  -1.86176	0.000989467	  -1.85455	0.000976293	  -1.85923	0.000983726	  -1.85923	   24.5931	
  -1.93612	0.000980735	  -1.93642	0.000984397	  -1.92899	0.000970882	  -1.93384	0.000978671	  -1.93384	   24.4668	
  -2.01088	0.000975992	  -2.01115	0.000979387	  -2.00349	0.000965417	  -2.00851	0.000973599	  -2.00851	     24.34	
  -2.08543	0.000971132	  -2.08573	0.000974406	  -2.07784	0.000959915	    -2.083	0.000968484	    -2.083	   24.2121	
  -2.15991	0.000966365	  -2.16031	0.000969291	  -2.15218	0.000954413	  -2.15747	0.000963356	  -2.15747	   24.0839	
  -2.23433	0.000961501	  -2.23484	0.000964221	  -2.22648	0.000948869	  -2.23188	0.000958197	  -2.23188	   23.9549	
  -2.30852	0.00095653	  -2.30916	0.000959182	  -2.30056	0.000943289	  -2.30608	0.000953001	  -2.30608	    23.825	
  -2.38278	0.000951631	  -2.38348	0.000954049	  -2.37456	0.000937708	  -2.38027	0.000947796	  -2.38027	   23.6949	
  -2.45685	0.000946659	  -2.45764	0.000948936	  -2.44844	0.000932091	  -2.45431	0.000942562	  -2.45431	   23.5641	
  -2.53091	0.000941608	  -2.53168	0.000943857	  -2.52215	0.000926441	  -2.52825	0.000937302	  -2.52825	   23.4326	
  -2.60493	0.00093658	   -2.6057	0.000938699	  -2.59587	0.000920869	  -2.60217	0.000932049	  -2.60217	   23.3012	
  -2.67869	0.000931491	  -2.67951	0.000933532	  -2.66942	0.000915079	  -2.67588	0.000926701	  -2.67588	   23.1675	
  -2.75249	0.000926329	  -2.75335	0.000928376	  -2.74285	0.000909334	  -2.74956	0.000921347	  -2.74956	   23.0337	
  -2.82613	0.000921173	  -2.82705	0.000923148	  -2.81618	0.000903678	  -2.82312	  0.000916	  -2.82312	      22.9	
  -2.89956	0.000915951	  -2.90061	0.000917896	  -2.88936	0.000897861	  -2.89651	0.000910569	  -2.89651	   22.7642	
  -2.97296	0.000910682	  -2.97415	0.000912655	  -2.96255	0.000892045	  -2.96989	0.000905127	  -2.96989	   22.6282	
  -3.04615	 0.0009054	  -3.04744	0.000907347	  -3.03554	0.000886299	  -3.04305	0.000899682	  -3.04305	   22.4921	
  -3.11928	0.000900051	  -3.12076	0.000902017	  -3.10849	0.00088042	  -3.11617	0.000894163	  -3.11617	   22.3541	
   -3.1923	0.00089459	  -3.19397	0.000896684	  -3.18141	0.000874501	  -3.18923	0.000888592	  -3.18923	   22.2148	
  -3.26506	0.000889151	  -3.26698	0.000891282	  -3.25413	0.00086864	  -3.26206	0.000883024	  -3.26206	   22.0756	
  -3.33782	0.000883696	  -3.34003	0.000885876	  -3.32679	0.000862693	  -3.33488	0.000877422	  -3.33488	   21.9355	
  -3.41037	0.000878124	  -3.41287	0.000880482	  -3.39933	0.000856713	  -3.40752	0.000871773	  -3.40752	   21.7943	
  -3.48275	0.000872569	  -3.48551	0.000875026	  -3.47164	0.000850765	  -3.47997	0.00086612	  -3.47997	    21.653	
  -3.55511	0.000867001	  -3.55809	0.00086954	  -3.54394	0.000844749	  -3.55238	0.00086043	  -3.55238	   21.5108	
  -3.62718	0.000861332	  -3.63041	0.000863996	  -3.61602	0.000838705	  -3.62453	0.000854677	  -3.62453	   21.3669	
  -3.69914	0.000855661	  -3.70266	0.000858489	  -3.68799	0.000832678	  -3.69659	0.000848943	  -3.69659	   21.2236	
  -3.77099	0.000849983	  -3.77479	0.000852932	   -3.7599	0.000826561	  -3.76856	0.000843159	  -3.76856	    21.079	
   -3.8426	0.000844181	  -3.84664	0.000847284	   -3.8316	0.000820501	  -3.84028	0.000837322	  -3.84028	    20.933	
  -3.91422	0.000838321	   -3.9184	0.000841651	  -3.90316	0.000814436	  -3.91193	0.000831469	  -3.91193	   20.7867	
  -3.98565	0.000832496	  -3.98997	0.000835952	  -3.97459	0.000808277	   -3.9834	0.000825575	   -3.9834	   20.6394	
  -4.05689	0.000826584	  -4.06122	0.000830236	  -4.04573	0.000802147	  -4.05461	0.000819656	  -4.05461	   20.4914	
  -4.12811	0.000820632	  -4.13246	0.000824447	  -4.11684	0.000796019	   -4.1258	0.000813699	   -4.1258	   20.3425	
  -4.19905	0.000814662	  -4.20344	 0.0008186	  -4.18774	0.000789812	  -4.19674	0.000807691	  -4.19674	   20.1923	
   -4.2699	0.000808639	  -4.27432	0.000812727	  -4.25847	0.000783607	  -4.26756	0.000801658	  -4.26756	   20.0414	
  -4.34065	0.000802625	   -4.3451	0.000806753	  -4.32915	0.000777408	   -4.3383	0.000795595	   -4.3383	   19.8899	
  -4.41109	0.000796537	  -4.41559	0.000800752	  -4.39956	0.000771165	  -4.40875	0.000789485	  -4.40875	   19.7371	
  -4.48149	0.000790436	  -4.48598	0.000794745	  -4.46978	0.000764852	  -4.47909	0.000783344	  -4.47909	   19.5836	
  -4.55174	0.000784327	  -4.55622	0.000788628	  -4.53993	0.000758585	   -4.5493	0.00077718	   -4.5493	   19.4295	
   -4.6218	0.000778163	  -4.62618	0.000782504	  -4.60976	0.000752275	  -4.61925	0.00077098	  -4.61925	   19.2745	
  -4.69169	0.000771995	   -4.6961	0.000776355	  -4.67942	0.000745817	  -4.68907	0.000764722	  -4.68907	   19.1181	
  -4.76139	0.000765827	  -4.76582	0.000770112	  -4.74894	0.000739453	  -4.75872	0.000758464	  -4.75872	   18.9616	
  -4.83081	0.000759626	  -4.83532	0.000763904	  -4.81819	0.000733015	  -4.82811	0.000752181	  -4.82811	   18.8045	
  -4.90012	0.000753425	  -4.90476	0.000757585	  -4.88726	0.000726448	  -4.89738	0.00074582	  -4.89738	   18.6455	
  -4.96918	0.000747205	  -4.97395	0.000751217	  -4.95615	0.000719983	  -4.96643	0.000739468	  -4.96643	   18.4867	
  -5.03795	0.000740953	  -5.04288	0.000744865	  -5.02469	0.000713379	  -5.03517	0.000733066	  -5.03517	   18.3266	
  -5.10666	0.000734702	  -5.11176	0.000738419	  -5.09319	0.000706696	  -5.10387	0.000726605	  -5.10387	   18.1651	
  -5.17508	0.00072846	  -5.18036	0.000731919	  -5.16149	0.00070007	  -5.17231	0.00072015	  -5.17231	   18.0037	
  -5.24332	0.000722181	  -5.24866	0.000725413	  -5.22945	0.000693336	  -5.24047	0.000713643	  -5.24047	   17.8411	
  -5.31145	0.000715895	  -5.31685	0.000718845	  -5.29737	0.000686514	  -5.30856	0.000707085	  -5.30856	   17.6771	
  -5.37927	0.000709625	  -5.38474	0.000712238	  -5.36506	0.000679737	  -5.37636	0.000700533	  -5.37636	   17.5133	
  -5.44682	0.000703324	  -5.45239	0.000705594	  -5.43237	0.000672873	  -5.44386	0.00069393	  -5.44386	   17.3483	
  -5.51425	0.000697005	  -5.51944	0.000698826	   -5.4996	0.000665891	   -5.5111	0.000687241	   -5.5111	    17.181	
  -5.58137	0.000690636	  -5.58667	0.000692106	  -5.56659	0.000658955	  -5.57821	0.000680566	  -5.57821	   17.0141	
  -5.64816	0.000684295	  -5.65362	0.000685283	  -5.63326	0.000651972	  -5.64501	0.00067385	  -5.64501	   16.8462	
  -5.71483	0.000677973	  -5.72032	0.000678449	   -5.6999	0.000644876	  -5.71168	 0.0006671	  -5.71168	   16.6775	
  -5.78119	0.000671542	  -5.78673	0.000671618	  -5.76628	0.000637801	  -5.77807	0.00066032	  -5.77807	    16.508	
  -5.84728	0.000665171	  -5.85292	0.000664694	   -5.8324	0.000630684	   -5.8442	0.000653516	   -5.8442	   16.3379	
   -5.9132	 0.0006587	    -5.919	0.000657765	  -5.89839	0.000623463	  -5.91019	0.000646643	  -5.91019	   16.1661	
  -5.97883	0.000652194	   -5.9848	0.000650835	  -5.96413	0.000616249	  -5.97592	0.00063976	  -5.97592	    15.994	
  -6.04428	0.000645709	  -6.05039	0.000643819	   -6.0295	0.000609002	  -6.04139	0.000632843	  -6.04139	   15.8211	
   -6.1095	0.000639139	  -6.11586	0.000636802	  -6.09478	0.00060165	  -6.10671	0.000625864	  -6.10671	   15.6466	
  -6.17446	0.000632541	  -6.18104	0.000629808	  -6.15982	0.000594355	  -6.17177	0.000618901	  -6.17177	   15.4725	
  -6.23881	0.000625986	  -6.24588	0.000622753	  -6.22449	0.000587004	  -6.23639	0.000611915	  -6.23639	   15.2979	
  -6.30334	0.000619413	  -6.31057	0.000615654	  -6.28863	0.000579544	  -6.30085	0.00060487	  -6.30085	   15.1218	
  -6.36743	0.000612666	  -6.37497	0.000608544	  -6.35291	0.000572224	   -6.3651	0.000597812	   -6.3651	   14.9453	
  -6.43135	0.000606002	    -6.439	0.000601426	  -6.41679	0.000564759	  -6.42904	0.000590729	  -6.42904	   14.7682	
  -6.49513	0.000599286	  -6.50291	0.000594285	   -6.4805	0.00055726	  -6.49285	0.00058361	  -6.49285	   14.5903	
   -6.5587	0.00059244	  -6.56656	0.000587131	  -6.54402	0.000549782	  -6.55642	0.000576451	  -6.55642	   14.4113	
  -6.62187	0.000585639	  -6.62979	0.00057997	  -6.60717	0.000542229	  -6.61961	0.000569279	  -6.61961	    14.232	
  -6.68491	0.000578802	  -6.69278	0.000572773	  -6.67008	0.000534697	  -6.68259	0.00056209	  -6.68259	   14.0523	
  -6.74771	0.000571857	  -6.75553	0.000565568	  -6.73285	0.000527188	  -6.74536	0.000554871	  -6.74536	   13.8718	
  -6.81012	0.000564921	  -6.81793	0.000558311	  -6.79529	0.00051956	  -6.80778	0.000547597	  -6.80778	   13.6899	
  -6.87229	0.000557985	  -6.88005	0.000551092	  -6.85747	0.000511991	  -6.86993	0.000540356	  -6.86993	   13.5089	
   -6.9343	0.000550893	    -6.942	0.000543821	  -6.91954	0.000504435	  -6.93194	0.00053305	  -6.93194	   13.3262	
  -6.99596	0.000543858	  -7.00364	0.000536552	  -6.98131	0.000496779	  -6.99364	0.00052573	  -6.99364	   13.1432	
  -7.05719	0.00053681	  -7.06517	0.000529248	  -7.04272	0.000489152	  -7.05503	0.000518404	  -7.05503	   12.9601	
  -7.11823	0.000529619	   -7.1263	0.000521873	  -7.10403	0.000481573	  -7.11618	0.000511022	  -7.11618	   12.7755	
  -7.17899	0.000522459	  -7.18697	0.00051457	   -7.1651	0.000473929	  -7.17702	0.000503653	  -7.17702	   12.5913	
   -7.2393	0.000515342	  -7.24742	0.000507276	  -7.22575	0.00046631	  -7.23749	0.000496309	  -7.23749	   12.4077	
  -7.29935	0.000508127	  -7.30768	0.000499859	  -7.28609	0.000458728	  -7.29771	0.000488905	  -7.29771	   12.2226	
  -7.35917	0.000500836	  -7.36755	0.000492465	  -7.34621	0.000451115	  -7.35764	0.000481472	  -7.35764	   12.0368	
   -7.4186	0.000493589	  -7.42709	0.000485097	  -7.40599	0.000443531	  -7.41723	0.000474072	  -7.41723	   11.8518	
  -7.47765	0.000486273	  -7.48627	0.000477624	  -7.46533	0.000435971	  -7.47642	0.000466623	  -7.47642	   11.6656	
  -7.53654	0.000478929	  -7.54533	0.000470156	  -7.52446	0.00042838	  -7.53544	0.000459155	  -7.53544	   11.4789	
  -7.59514	0.000471625	  -7.60409	0.000462719	  -7.58334	0.000420835	  -7.59419	0.000451726	  -7.59419	   11.2932	
  -7.65331	0.000464262	  -7.66241	0.000455201	  -7.64179	0.00041322	   -7.6525	0.000444228	   -7.6525	   11.1057	
  -7.71122	0.000456868	  -7.72041	0.000447696	  -7.69993	0.000405653	  -7.71052	0.000436739	  -7.71052	   10.9185	
  -7.76895	0.000449563	  -7.77819	0.00044016	  -7.75785	0.000398145	  -7.76833	0.000429289	  -7.76833	   10.7322	
  -7.82655	0.000442156	  -7.83566	0.000432656	  -7.81546	0.000390575	  -7.82589	0.000421796	  -7.82589	   10.5449	
  -7.88377	0.00043472	   -7.8928	0.000425057	   -7.8729	0.000383052	  -7.88316	0.000414276	  -7.88316	   10.3569	
  -7.94051	0.000427429	  -7.94974	0.000417428	  -7.92998	0.000375539	  -7.94008	0.000406799	  -7.94008	     10.17	
  -7.99702	0.000420046	  -8.00643	0.000409815	  -7.98653	0.000367971	  -7.99666	0.000399277	  -7.99666	   9.98193	
  -8.05333	0.000412626	  -8.06267	0.00040217	  -8.04282	0.000360378	  -8.05294	0.000391725	  -8.05294	   9.79311	
  -8.10927	0.000405287	   -8.1185	0.000394441	  -8.09888	0.00035287	  -8.10888	0.000384199	  -8.10888	   9.60498	
  -8.16487	0.000397886	  -8.17413	0.000386723	  -8.15458	0.000345328	  -8.16453	0.000376646	  -8.16453	   9.41615	
  -8.22019	0.000390481	  -8.22948	0.000379006	  -8.20998	0.000337753	  -8.21988	0.00036908	  -8.21988	     9.227	
   -8.2751	0.000383141	  -8.28438	0.000371199	    -8.265	0.000330241	  -8.27483	0.000361527	  -8.27483	   9.03817	
  -8.32966	0.000375758	  -8.33905	0.000363399	  -8.31953	0.000322708	  -8.32941	0.000353955	  -8.32941	   8.84888	
  -8.38399	0.000368347	  -8.39347	0.000355507	  -8.37385	0.000315183	  -8.38377	0.000346346	  -8.38377	   8.65865	
  -8.43801	0.000360979	  -8.44757	0.000347634	   -8.4279	0.000307662	  -8.43783	0.000338758	  -8.43783	   8.46896	
  -8.49159	0.000353538	  -8.50125	0.000339743	  -8.48156	0.000300091	  -8.49147	0.000331124	  -8.49147	    8.2781	
  -8.54483	0.000346078	  -8.55466	0.000331842	  -8.53479	0.000292522	  -8.54476	0.00032348	  -8.54476	   8.08701	
  -8.59788	0.00033871	  -8.60774	0.000324005	  -8.58777	0.000284977	   -8.5978	0.000315898	   -8.5978	   7.89744	
  -8.65063	0.00033127	  -8.66035	0.000316018	  -8.64051	0.000277391	   -8.6505	0.000308226	   -8.6505	   7.70566	
  -8.70291	0.000323793	  -8.71286	0.00030813	  -8.69283	0.000269798	  -8.70287	0.000300574	  -8.70287	   7.51434	
  -8.75477	0.00031637	  -8.76485	0.000300203	  -8.74462	0.000262225	  -8.75475	0.000292933	  -8.75475	   7.32332	
  -8.80647	0.000308951	  -8.81665	0.000292235	  -8.79617	0.000254598	  -8.80643	0.000285261	  -8.80643	   7.13153	
  -8.85789	0.000301453	  -8.86815	0.000284295	  -8.84749	0.000246986	  -8.85784	0.000277578	  -8.85784	   6.93945	
  -8.90881	0.000293981	  -8.91924	0.000276349	  -8.89843	0.00023937	  -8.90883	 0.0002699	  -8.90883	   6.74749	
  -8.95966	0.000286603	  -8.96989	0.000268396	  -8.94891	0.00023169	  -8.95949	0.00026223	  -8.95949	   6.55574	
  -9.01003	0.000279038	  -9.02028	0.000260463	  -8.99901	0.000224028	  -9.00977	0.00025451	  -9.00977	   6.36274	
  -9.06014	0.000271557	  -9.07038	0.000252572	  -9.04887	0.000216422	   -9.0598	0.00024685	   -9.0598	   6.17126	
  -9.10985	0.00026419	  -9.12008	0.000244592	   -9.0984	0.000208765	  -9.10944	0.000239182	  -9.10944	   5.97956	
  -9.15912	0.000256667	  -9.16932	0.000236706	  -9.14746	0.000201037	  -9.15863	0.00023147	  -9.15863	   5.78675	
   -9.2079	0.000249182	  -9.21819	0.00022876	  -9.19598	0.000193401	  -9.20736	0.000223781	  -9.20736	   5.59452	
  -9.25645	0.000241761	  -9.26689	0.000220835	  -9.24427	0.000185682	  -9.25587	0.000216093	  -9.25587	   5.40231	
  -9.30468	0.000234231	  -9.31525	0.000213003	  -9.29234	0.000177918	  -9.30409	0.000208384	  -9.30409	    5.2096	
  -9.35246	0.000226709	  -9.36313	0.00020509	  -9.34001	0.000170282	  -9.35187	0.000200694	  -9.35187	   5.01734	
  -9.39973	0.000219282	  -9.41049	0.000197185	  -9.38716	0.000162584	  -9.39913	0.000193017	  -9.39913	   4.82542	
  -9.44668	0.000211766	  -9.45753	0.000189351	   -9.4339	0.000154821	  -9.44603	0.000185313	  -9.44603	   4.63282	
  -9.49334	0.000204213	  -9.50433	0.00018151	  -9.48049	0.000147157	  -9.49272	0.000177627	  -9.49272	   4.44067	
  -9.53965	0.000196747	  -9.55077	0.00017362	  -9.52679	0.000139444	  -9.53907	0.000169937	  -9.53907	   4.24843	
  -9.58548	0.000189278	  -9.59677	0.000165815	  -9.57268	0.000131685	  -9.58498	0.000162259	  -9.58498	   4.05649	
  -9.63078	0.000181754	  -9.64221	0.000158043	  -9.61806	0.000124002	  -9.63035	 0.0001546	  -9.63035	   3.86499	
  -9.67571	0.000174229	  -9.68731	0.000150226	  -9.66298	0.000116284	  -9.67533	0.000146913	  -9.67533	   3.67281	
  -9.72037	0.000166717	  -9.73208	0.000142431	   -9.7077	0.00010852	  -9.72005	0.000139223	  -9.72005	   3.48057	
   -9.7647	0.000159196	  -9.77641	0.000134695	  -9.75213	0.000100813	  -9.76441	0.000131568	  -9.76441	    3.2892	
  -9.80856	0.000151624	  -9.82051	0.000126962	  -9.79615	9.30717e-05	  -9.80841	0.000123886	  -9.80841	   3.09715	
  -9.85194	0.000144069	  -9.86411	0.000119108	  -9.83963	8.52557e-05	  -9.85189	0.000116144	  -9.85189	    2.9036	
  -9.89497	0.000136497	  -9.90717	0.000111353	    -9.883	7.75895e-05	  -9.89505	0.00010848	  -9.89505	   2.71199	
  -9.93781	0.000128864	  -9.94991	0.000103717	  -9.92588	6.98028e-05	  -9.93786	0.000100795	  -9.93786	   2.51987	
  -9.98032	0.000121229	  -9.99233	9.59742e-05	  -9.96852	6.19829e-05	  -9.98039	9.30622e-05	  -9.98039	   2.32655	
  -10.0224	0.000113623	  -10.0344	8.82887e-05	  -10.0108	5.42962e-05	  -10.0225	8.54025e-05	  -10.0225	   2.13506	
  -10.0641	0.000105956	  -10.0759	8.06848e-05	  -10.0525	4.64628e-05	  -10.0642	7.77013e-05	  -10.0642	   1.94253	
  -10.1054	9.8236e-05	  -10.1169	7.29827e-05	  -10.0937	3.86179e-05	  -10.1054	6.99456e-05	  -10.1054	   1.74864	
  -10.1462	9.06043e-05	  -10.1577	6.53247e-05	  -10.1345	3.09138e-05	  -10.1461	6.2281e-05	  -10.1461	   1.55702	
  -10.1866	8.29496e-05	  -10.1982	5.77177e-05	   -10.175	2.31306e-05	  -10.1866	5.45993e-05	  -10.1866	   1.36498	
  -10.2266	7.5233e-05	  -10.2384	5.00936e-05	  -10.2153	1.53247e-05	  -10.2267	4.68838e-05	  -10.2267	   1.17209	
  -10.2662	6.75441e-05	  -10.2781	4.24084e-05	  -10.2551	7.62503e-06	  -10.2665	3.91925e-05	  -10.2665	  0.979813	
  -10.3053	5.98096e-05	  -10.3172	3.47365e-05	  -10.2944	-1.34553e-07	  -10.3056	3.14705e-05	  -10.3056	  0.786763	
  -10.3439	5.20844e-05	  -10.3559	2.71163e-05	  -10.3332	-7.90374e-06	  -10.3443	2.37657e-05	  -10.3443	  0.594142	
  -10.3822	4.42979e-05	  -10.3944	1.94361e-05	  -10.3714	-1.56008e-05	  -10.3827	1.60444e-05	  -10.3827	   0.40111	
  -10.4202	3.65918e-05	  -10.4326	1.17524e-05	  -10.4094	-2.33465e-05	  -10.4207	8.33254e-06	  -10.4207	  0.208314	
   -10.458	2.88825e-05	  -10.4705	4.11165e-06	   -10.447	-3.10983e-05	  -10.4585	6.31965e-07	  -10.4585	 0.0157991	
  -10.4953	2.10509e-05	  -10.5079	-3.56085e-06	  -10.4844	-3.87866e-05	  -10.4958	-7.09886e-06	  -10.4958	 -0.177471	
  -10.5321	1.33275e-05	  -10.5448	-1.12604e-05	  -10.5212	-4.65125e-05	  -10.5327	-1.48152e-05	  -10.5327	 -0.370379	
  -10.5683	5.58895e-06	   -10.581	-1.89327e-05	  -10.5575	-5.42632e-05	  -10.5689	-2.25356e-05	  -10.5689	 -0.563391	
  -10.6039	-2.261e-06	  -10.6168	-2.66294e-05	  -10.5932	-6.19143e-05	  -10.6047	-3.02682e-05	  -10.6047	 -0.756706	
  -10.6392	-1.00126e-05	  -10.6524	-3.43532e-05	  -10.6285	-6.96414e-05	    -10.64	-3.80024e-05	    -10.64	  -0.95006	
  -10.6742	-1.77831e-05	  -10.6876	-4.20605e-05	  -10.6634	-7.73826e-05	  -10.6751	-4.57421e-05	  -10.6751	  -1.14355	
   -10.709	-2.56858e-05	  -10.7225	-4.97779e-05	   -10.698	-8.50603e-05	  -10.7098	-5.3508e-05	  -10.7098	   -1.3377	
  -10.7433	-3.34992e-05	   -10.757	-5.74999e-05	  -10.7322	-9.27665e-05	  -10.7442	-6.12552e-05	  -10.7442	  -1.53138	
  -10.7771	-4.12967e-05	   -10.791	-6.52258e-05	  -10.7661	-0.000100526	   -10.778	-6.9016e-05	   -10.778	   -1.7254	
  -10.8103	-4.92324e-05	  -10.8243	-7.29957e-05	  -10.7995	-0.000108225	  -10.8114	-7.68176e-05	  -10.8114	  -1.92044	
   -10.843	-5.71301e-05	   -10.857	-8.07782e-05	  -10.8325	-0.000115952	  -10.8442	-8.46202e-05	  -10.8442	   -2.1155	
  -10.8753	-6.49798e-05	  -10.8893	-8.85469e-05	  -10.8649	-0.000123657	  -10.8765	-9.23947e-05	  -10.8765	  -2.30987	
  -10.9072	-7.29764e-05	  -10.9213	-9.63541e-05	   -10.897	-0.000131318	  -10.9085	-0.000100216	  -10.9085	   -2.5054	
  -10.9388	-8.09507e-05	   -10.953	-0.000104169	  -10.9286	-0.000139019	  -10.9401	-0.000108046	  -10.9401	  -2.70115	
  -10.9701	-8.8855e-05	  -10.9844	-0.000112002	  -10.9599	-0.000146732	  -10.9715	-0.000115863	  -10.9715	  -2.89657	
   -11.001	-9.6901e-05	  -11.0154	-0.000119796	  -10.9907	-0.000154405	  -11.0024	-0.000123701	  -11.0024	  -3.09252	
  -11.0314	-0.000104943	  -11.0459	-0.000127596	  -11.0212	-0.000162108	  -11.0328	-0.000131549	  -11.0328	  -3.28873	
  -11.0614	-0.000112926	  -11.0758	-0.000135461	  -11.0511	-0.000169835	  -11.0627	-0.000139407	  -11.0627	  -3.48518	
  -11.0907	-0.000121008	   -11.105	-0.000143238	  -11.0805	-0.000177555	  -11.0921	-0.000147267	  -11.0921	  -3.68167	
  -11.1195	-0.000129106	  -11.1338	-0.000151015	  -11.1093	-0.000185286	  -11.1209	-0.000155135	  -11.1209	  -3.87839	
  -11.1477	-0.000137144	  -11.1622	-0.000158852	  -11.1374	-0.000193045	  -11.1491	-0.000163014	  -11.1491	  -4.07534	
  -11.1756	-0.000145262	  -11.1902	-0.000166617	  -11.1651	-0.000200764	   -11.177	-0.000170881	   -11.177	  -4.27203	
  -11.2032	-0.000153418	  -11.2179	-0.000174392	  -11.1925	-0.000208485	  -11.2045	-0.000178765	  -11.2045	  -4.46912	
  -11.2306	-0.00016142	  -11.2452	-0.000182212	  -11.2195	-0.000216275	  -11.2318	-0.000186635	  -11.2318	  -4.66589	
  -11.2576	-0.000169465	  -11.2722	-0.000189979	  -11.2463	-0.000224006	  -11.2587	-0.000194483	  -11.2587	  -4.86208	
  -11.2842	-0.000177608	  -11.2987	-0.000197754	  -11.2727	-0.000231732	  -11.2852	-0.000202365	  -11.2852	  -5.05912	
  -11.3103	-0.000185638	  -11.3248	-0.000205546	  -11.2987	-0.000239552	  -11.3113	-0.000210245	  -11.3113	  -5.25613	
  -11.3359	-0.000193737	  -11.3503	-0.000213355	  -11.3243	-0.000247272	  -11.3368	-0.000218121	  -11.3368	  -5.45303	
   -11.361	-0.000201843	  -11.3753	-0.00022115	  -11.3494	-0.000254929	  -11.3619	-0.000225974	  -11.3619	  -5.64935	
  -11.3854	-0.000209879	  -11.3997	-0.000228915	  -11.3739	-0.000262746	  -11.3863	-0.000233847	  -11.3863	  -5.84617	
  -11.4093	-0.000217937	  -11.4236	-0.000236733	  -11.3978	-0.000270475	  -11.4102	-0.000241715	  -11.4102	  -6.04287	
  -11.4326	-0.000225993	   -11.447	-0.000244473	  -11.4211	-0.000278111	  -11.4336	-0.000249526	  -11.4336	  -6.23814	
  -11.4555	-0.000233989	  -11.4699	-0.000252238	  -11.4439	-0.000285814	  -11.4564	-0.000257347	  -11.4564	  -6.43368	
   -11.478	-0.000241991	  -11.4925	-0.00026004	  -11.4662	-0.000293455	  -11.4789	-0.000265162	  -11.4789	  -6.62905	
  -11.5001	-0.000249989	  -11.5148	-0.000267786	   -11.488	-0.000301049	   -11.501	-0.000272941	   -11.501	  -6.82353	
  -11.5219	-0.000257921	  -11.5367	-0.000275543	  -11.5094	-0.000308685	  -11.5227	-0.000280716	  -11.5227	  -7.01791	
  -11.5434	-0.000265881	  -11.5583	-0.00028333	  -11.5304	-0.000316214	   -11.544	-0.000288475	   -11.544	  -7.21187	
  -11.5645	-0.000273796	  -11.5796	-0.000291093	  -11.5512	-0.000323758	  -11.5651	-0.000296216	  -11.5651	  -7.40539	
  -11.5853	-0.000281641	  -11.6005	-0.000298854	  -11.5716	-0.0003313	  -11.5858	-0.000303932	  -11.5858	  -7.59829	
  -11.6057	-0.000289475	  -11.6209	-0.000306621	  -11.5917	-0.00033875	  -11.6061	-0.000311615	  -11.6061	  -7.79038	
  -11.6256	-0.000297265	  -11.6409	-0.000314402	  -11.6114	-0.000346244	   -11.626	-0.000319304	   -11.626	  -7.98259	
  -11.6451	-0.000304992	  -11.6603	-0.000322185	  -11.6308	-0.000353734	  -11.6454	-0.00032697	  -11.6454	  -8.17425	
  -11.6641	-0.000312697	  -11.6792	-0.000329922	  -11.6497	-0.000361117	  -11.6643	-0.000334579	  -11.6643	  -8.36447	
  -11.6825	-0.000320369	  -11.6976	-0.000337694	  -11.6682	-0.000368515	  -11.6828	-0.000342193	  -11.6828	  -8.55481	
  -11.7004	-0.000327988	  -11.7154	-0.000345498	  -11.6862	-0.000375907	  -11.7007	-0.000349798	  -11.7007	  -8.74494	
  -11.7177	-0.000335546	  -11.7326	-0.000353266	  -11.7037	-0.000383226	   -11.718	-0.000357346	   -11.718	  -8.93364	
  -11.7345	-0.000343141	  -11.7492	-0.00036114	  -11.7206	-0.000390513	  -11.7348	-0.000364932	  -11.7348	  -9.12329	
  -11.7506	-0.000350563	  -11.7654	-0.000368902	   -11.737	-0.000397786	   -11.751	-0.000372417	   -11.751	  -9.31042	
  -11.7662	-0.000358029	  -11.7811	-0.000376685	  -11.7529	-0.000405022	  -11.7667	-0.000379912	  -11.7667	   -9.4978	
  -11.7812	-0.000365533	  -11.7964	-0.000384549	  -11.7682	-0.000412229	  -11.7819	-0.000387437	  -11.7819	  -9.68592	
  -11.7956	-0.000372881	   -11.811	-0.000392322	  -11.7829	-0.000419417	  -11.7965	-0.000394873	  -11.7965	  -9.87184	
  -11.8095	-0.000380218	  -11.8251	-0.00040007	   -11.797	-0.000426528	  -11.8105	-0.000402272	  -11.8105	  -10.0568	
  -11.8228	-0.000387619	  -11.8385	-0.000407894	  -11.8106	-0.000433663	   -11.824	-0.000409726	   -11.824	  -10.2431	
  -11.8356	-0.000394922	  -11.8512	-0.000415667	  -11.8237	-0.000440821	  -11.8368	-0.000417137	  -11.8368	  -10.4284	
  -11.8479	-0.000402185	  -11.8635	-0.000423421	  -11.8362	-0.000447893	  -11.8492	-0.000424499	  -11.8492	  -10.6125	
  -11.8597	-0.000409506	  -11.8753	-0.00043123	  -11.8481	-0.000454944	   -11.861	-0.000431893	   -11.861	  -10.7973	
   -11.871	-0.00041674	  -11.8864	-0.00043897	  -11.8594	-0.000462019	  -11.8723	-0.000439243	  -11.8723	  -10.9811	
  -11.8817	-0.000423943	  -11.8972	-0.000446671	  -11.8702	-0.000469025	   -11.883	-0.000446546	   -11.883	  -11.1637	
   -11.892	-0.000431185	  -11.9074	-0.000454432	  -11.8805	-0.000475999	  -11.8933	-0.000453872	  -11.8933	  -11.3468	
  -11.9018	-0.000438376	   -11.917	-0.000462142	  -11.8903	-0.000482986	   -11.903	-0.000461168	   -11.903	  -11.5292	
   -11.911	-0.000445536	  -11.9262	-0.000469805	  -11.8997	-0.000489918	  -11.9123	-0.00046842	  -11.9123	  -11.7105	
  -11.9197	-0.000452712	  -11.9348	-0.000477515	  -11.9085	-0.000496785	   -11.921	-0.000475671	   -11.921	  -11.8918	
  -11.9279	-0.00045984	   -11.943	-0.000485175	  -11.9169	-0.000503676	  -11.9292	-0.000482897	  -11.9292	  -12.0724	
  -11.9355	-0.000466972	  -11.9506	-0.000492779	  -11.9247	-0.000510539	  -11.9369	-0.000490097	  -11.9369	  -12.2524	
  -11.9425	-0.000474089	  -11.9577	-0.000500414	   -11.932	-0.00051732	  -11.9441	-0.000497275	  -11.9441	  -12.4319	
  -11.9494	-0.000481197	  -11.9643	-0.000508012	  -11.9389	-0.000524174	  -11.9508	-0.000504461	  -11.9508	  -12.6115	
  -11.9559	-0.000488283	  -11.9704	-0.000515565	  -11.9456	-0.00053094	  -11.9573	-0.000511596	  -11.9573	  -12.7899	
   -11.962	-0.000495334	   -11.976	-0.000523135	  -11.9518	-0.000537592	  -11.9633	-0.000518687	  -11.9633	  -12.9672	
  -11.9677	-0.000502375	  -11.9811	-0.000530678	  -11.9576	-0.000544334	  -11.9688	-0.000525796	  -11.9688	  -13.1449	
  -11.9729	-0.000509377	  -11.9859	-0.000538167	   -11.963	-0.00055102	  -11.9739	-0.000532855	  -11.9739	  -13.3214	
  -11.9777	-0.000516371	  -11.9904	-0.000545669	  -11.9679	-0.000557671	  -11.9787	-0.000539904	  -11.9787	  -13.4976	
   -11.982	-0.000523346	  -11.9947	-0.000553235	  -11.9724	-0.00056434	   -11.983	-0.000546974	   -11.983	  -13.6743	
  -11.9859	-0.000530229	  -11.9984	-0.00056061	  -11.9766	-0.000570942	   -11.987	-0.000553927	   -11.987	  -13.8482	
  -11.9894	-0.000537138	  -12.0018	-0.000568007	  -11.9803	-0.00057746	  -11.9905	-0.000560868	  -11.9905	  -14.0217	
  -11.9925	-0.000544087	  -12.0049	-0.000575424	  -11.9837	-0.000584045	  -11.9937	-0.000567852	  -11.9937	  -14.1963	
  -11.9953	-0.000550885	  -12.0077	-0.000582688	  -11.9868	-0.000590563	  -11.9966	-0.000574712	  -11.9966	  -14.3678	
  -11.9977	-0.000557704	  -12.0101	-0.000589951	  -11.9895	-0.000597018	  -11.9991	-0.000581558	  -11.9991	  -14.5389	
  -11.9998	-0.000564556	  -12.0121	-0.000597217	  -11.9919	-0.000603556	  -12.0013	-0.000588443	  -12.0013	  -14.7111	
  -12.0016	-0.000571284	  -12.0138	-0.000604376	   -11.994	-0.000609993	  -12.0032	-0.000595218	  -12.0032	  -14.8804	
  -12.0031	-0.000578014	  -12.0153	-0.00061151	  -11.9959	-0.000616398	  -12.0047	-0.000601974	  -12.0047	  -15.0493	
  -12.0043	-0.00058477	  -12.0164	-0.000618608	  -11.9974	-0.00062287	   -12.006	-0.000608749	   -12.006	  -15.2187	
  -12.0053	-0.000591432	  -12.0173	-0.000625647	  -11.9985	-0.000629265	   -12.007	-0.000615448	   -12.007	  -15.3862	
   -12.006	-0.000598092	  -12.0179	-0.000632572	  -11.9992	-0.000635587	  -12.0077	-0.000622083	  -12.0077	  -15.5521	
  -12.0063	-0.00060477	  -12.0181	-0.000639476	  -11.9993	-0.000641998	  -12.0079	-0.000628748	  -12.0079	  -15.7187	
   -12.006	-0.000611368	  -12.0177	-0.000646354	   -11.999	-0.000648342	  -12.0076	-0.000635355	  -12.0076	  -15.8839	
  -12.0053	-0.000617953	  -12.0169	-0.000653157	  -11.9979	-0.000654651	  -12.0067	-0.00064192	  -12.0067	   -16.048	
  -12.0039	-0.00062455	  -12.0155	-0.000659886	  -11.9962	-0.000661002	  -12.0052	-0.000648479	  -12.0052	   -16.212	
  -12.0018	-0.000631088	  -12.0135	-0.000666579	  -11.9939	-0.00066733	  -12.0031	-0.000654999	  -12.0031	   -16.375	
  -11.9991	-0.000637535	  -12.0109	-0.000673121	  -11.9911	-0.000673615	  -12.0003	-0.000661424	  -12.0003	  -16.5356	
  -11.9959	-0.000644024	  -12.0077	-0.000679709	  -11.9877	-0.000679985	  -11.9971	-0.000667906	  -11.9971	  -16.6976	
  -11.9923	-0.000650516	  -12.0039	-0.000686229	  -11.9841	-0.000686313	  -11.9935	-0.000674353	  -11.9935	  -16.8588	
  -11.9884	-0.000656837	  -11.9998	-0.000692617	  -11.9799	-0.000692628	  -11.9893	-0.000680694	  -11.9893	  -17.0173	
  -11.9838	-0.000663197	  -11.9952	-0.000699025	  -11.9752	-0.000698978	  -11.9848	-0.000687067	  -11.9848	  -17.1767	
   -11.979	-0.000669598	  -11.9903	-0.000705384	    -11.97	-0.000705257	  -11.9798	-0.000693413	  -11.9798	  -17.3353	
  -11.9737	-0.000675904	   -11.985	-0.000711633	  -11.9644	-0.00071155	  -11.9744	-0.000699696	  -11.9744	  -17.4924	
  -11.9679	-0.000682207	  -11.9793	-0.000717864	  -11.9584	-0.000717871	  -11.9685	-0.000705981	  -11.9685	  -17.6495	
  -11.9616	-0.000688596	  -11.9731	-0.00072409	  -11.9519	-0.000724162	  -11.9622	-0.000712282	  -11.9622	  -17.8071	
  -11.9548	-0.000694873	  -11.9663	-0.000730225	  -11.9449	-0.000730492	  -11.9553	-0.00071853	  -11.9553	  -17.9632	
  -11.9473	-0.000701143	  -11.9592	-0.000736287	  -11.9374	-0.000736801	   -11.948	-0.000724744	   -11.948	  -18.1186	
  -11.9393	-0.000707488	  -11.9514	-0.000742509	  -11.9294	-0.000743046	    -11.94	-0.000731015	    -11.94	  -18.2754	
  -11.9307	-0.000713723	   -11.943	-0.000748485	  -11.9209	-0.000749323	  -11.9315	-0.000737177	  -11.9315	  -18.4294	
  -11.9216	-0.000719967	  -11.9342	-0.000754437	  -11.9119	-0.000755597	  -11.9226	-0.000743334	  -11.9226	  -18.5834	
  -11.9122	-0.00072628	  -11.9249	-0.000760509	  -11.9027	-0.000761827	  -11.9132	-0.000749539	  -11.9132	  -18.7385	
  -11.9024	-0.000732513	  -11.9152	-0.000766389	   -11.893	-0.000768084	  -11.9036	-0.000755662	  -11.9036	  -18.8916	
  -11.8923	-0.000738709	  -11.9052	-0.000772282	   -11.883	-0.000774329	  -11.8935	-0.000761773	  -11.8935	  -19.0443	
  -11.8818	-0.000744947	  -11.8949	-0.000778334	  -11.8724	-0.000780535	   -11.883	-0.000767939	   -11.883	  -19.1985	
  -11.8707	-0.000751149	   -11.884	-0.000784224	  -11.8613	-0.000786713	   -11.872	-0.000774029	   -11.872	  -19.3507	
   -11.859	-0.000757301	  -11.8725	-0.000790077	  -11.8496	-0.000792889	  -11.8603	-0.000780089	  -11.8603	  -19.5022	
  -11.8467	-0.000763489	  -11.8603	-0.000796048	  -11.8373	-0.000799063	  -11.8481	-0.0007862	  -11.8481	   -19.655	
  -11.8338	-0.000769625	  -11.8476	-0.000801904	  -11.8246	-0.000805147	  -11.8353	-0.000792225	  -11.8353	  -19.8056	
  -11.8208	-0.000775649	  -11.8345	-0.000807757	  -11.8115	-0.000811209	  -11.8223	-0.000798205	  -11.8223	  -19.9551	
  -11.8073	-0.000781855	   -11.821	-0.000813686	  -11.7981	-0.000817274	  -11.8088	-0.000804272	  -11.8088	  -20.1068	
  -11.7935	-0.000787878	  -11.8072	-0.000819639	  -11.7844	-0.000823263	   -11.795	-0.00081026	   -11.795	  -20.2565	
  -11.7792	-0.000793849	   -11.793	-0.000825498	  -11.7702	-0.000829223	  -11.7808	-0.00081619	  -11.7808	  -20.4047	
  -11.7645	-0.000799934	  -11.7783	-0.000831343	  -11.7554	-0.000835159	  -11.7661	-0.000822146	  -11.7661	  -20.5536	
  -11.7492	-0.000805921	  -11.7629	-0.000837236	  -11.7401	-0.000841017	  -11.7507	-0.000828058	  -11.7507	  -20.7014	
  -11.7333	-0.000811888	  -11.7469	-0.000843062	  -11.7242	-0.000846855	  -11.7348	-0.000833935	  -11.7348	  -20.8484	
   -11.717	-0.000817823	  -11.7305	-0.000848842	   -11.708	-0.000852606	  -11.7185	-0.000839757	  -11.7185	  -20.9939	
  -11.7004	-0.000823781	  -11.7137	-0.000854688	  -11.6913	-0.000858328	  -11.7018	-0.000845599	  -11.7018	    -21.14	
  -11.6834	-0.000829724	  -11.6965	-0.000860474	  -11.6742	-0.000864005	  -11.6847	-0.000851401	  -11.6847	   -21.285	
  -11.6659	-0.000835537	  -11.6789	-0.000866227	  -11.6567	-0.000869602	  -11.6672	-0.000857122	  -11.6672	   -21.428	
  -11.6478	-0.000841345	  -11.6606	-0.000871976	  -11.6386	-0.000875155	   -11.649	-0.000862825	   -11.649	  -21.5706	
   -11.629	-0.000847188	  -11.6418	-0.000877649	  -11.6201	-0.000880668	  -11.6303	-0.000868502	  -11.6303	  -21.7125	
  -11.6098	-0.000852928	  -11.6225	-0.000883359	  -11.6011	-0.000886119	  -11.6111	-0.000874135	  -11.6111	  -21.8534	
  -11.5901	-0.000858616	  -11.6028	-0.000889042	  -11.5817	-0.000891517	  -11.5916	-0.000879725	  -11.5916	  -21.9931	
  -11.5702	-0.000864351	  -11.5828	-0.000894584	  -11.5619	-0.000896881	  -11.5716	-0.000885272	  -11.5716	  -22.1318	
  -11.5498	-0.000869996	  -11.5623	-0.00090014	  -11.5417	-0.000902151	  -11.5513	-0.000890762	  -11.5513	  -22.2691	
  -11.5288	-0.000875553	  -11.5412	-0.000905721	  -11.5208	-0.000907397	  -11.5303	-0.000896224	  -11.5303	  -22.4056	
  -11.5072	-0.000881115	  -11.5196	-0.000911198	  -11.4997	-0.000912608	  -11.5088	-0.00090164	  -11.5088	   -22.541	
  -11.4851	-0.000886589	  -11.4975	-0.000916691	  -11.4781	-0.000917759	  -11.4869	-0.000907013	  -11.4869	  -22.6753	
  -11.4627	-0.000892021	   -11.475	-0.000922186	  -11.4561	-0.000922827	  -11.4646	-0.000912345	  -11.4646	  -22.8086	
    -11.44	-0.00089746	  -11.4521	-0.000927546	  -11.4336	-0.000927818	  -11.4419	-0.000917608	  -11.4419	  -22.9402	
  -11.4168	-0.000902815	  -11.4288	-0.00093295	  -11.4105	-0.000932803	  -11.4187	-0.000922856	  -11.4187	  -23.0714	
   -11.393	-0.000908126	  -11.4049	-0.000938344	  -11.3869	-0.000937698	   -11.395	-0.000928056	   -11.395	  -23.2014	
  -11.3688	-0.000913436	  -11.3804	-0.000943636	  -11.3628	-0.000942534	  -11.3707	-0.000933202	  -11.3707	    -23.33	
  -11.3441	-0.000918627	  -11.3556	-0.000948957	  -11.3383	-0.00094734	   -11.346	-0.000938308	   -11.346	  -23.4577	
   -11.319	-0.000923823	  -11.3304	-0.000954271	  -11.3135	-0.000952056	   -11.321	-0.000943383	   -11.321	  -23.5846	
  -11.2933	-0.000929042	  -11.3049	-0.000959478	  -11.2881	-0.000956719	  -11.2954	-0.000948413	  -11.2954	  -23.7103	
  -11.2671	-0.000934066	  -11.2788	-0.000964702	  -11.2621	-0.00096136	  -11.2693	-0.000953376	  -11.2693	  -23.8344	
  -11.2404	-0.000939019	  -11.2522	-0.000969951	  -11.2357	-0.000965952	  -11.2427	-0.000958307	  -11.2427	  -23.9577	
  -11.2133	-0.000944044	  -11.2251	-0.000975132	  -11.2088	-0.000970472	  -11.2157	-0.000963216	  -11.2157	  -24.0804	
  -11.1858	-0.000948897	  -11.1978	-0.000980299	  -11.1816	-0.000974975	  -11.1884	-0.000968057	  -11.1884	  -24.2014	
  -11.1579	-0.000953718	  -11.1701	-0.000985462	  -11.1539	-0.000979414	  -11.1606	-0.000972865	  -11.1606	  -24.3216	
  -11.1294	-0.00095855	  -11.1418	-0.000990555	  -11.1256	-0.00098376	  -11.1323	-0.000977622	  -11.1323	  -24.4405	
  -11.1004	-0.000963248	   -11.113	-0.000995623	  -11.0969	-0.000988092	  -11.1034	-0.000982321	  -11.1034	   -24.558	
  -11.0711	-0.000967928	  -11.0838	-0.00100068	  -11.0678	-0.000992374	  -11.0742	-0.000986995	  -11.0742	  -24.6749	
  -11.0414	-0.000972618	  -11.0544	-0.00100569	  -11.0381	-0.000996624	  -11.0446	-0.000991644	  -11.0446	  -24.7911	
  -11.0113	-0.00097719	  -11.0244	-0.00101067	  -11.0078	-0.0010008	  -11.0145	-0.00099622	  -11.0145	  -24.9055	
  -10.9806	-0.000981697	  -10.9939	-0.00101567	   -10.977	-0.00100495	  -10.9838	-0.00100077	  -10.9838	  -25.0193	
  -10.9495	-0.000986231	  -10.9629	-0.00102055	  -10.9458	-0.00100907	  -10.9527	-0.00100528	  -10.9527	  -25.1321	
  -10.9181	-0.000990592	  -10.9316	-0.00102548	  -10.9142	-0.00101313	  -10.9213	-0.00100974	  -10.9213	  -25.2434	
  -10.8863	-0.000994903	     -10.9	-0.00103033	  -10.8822	-0.00101714	  -10.8895	-0.00101413	  -10.8895	  -25.3532	
   -10.854	-0.000999248	  -10.8678	-0.00103511	  -10.8498	-0.00102117	  -10.8572	-0.00101851	  -10.8572	  -25.4627	
  -10.8212	-0.00100344	  -10.8351	-0.00103993	   -10.817	-0.00102511	  -10.8244	-0.00102283	  -10.8244	  -25.5707	
   -10.788	-0.00100759	  -10.8021	-0.00104464	  -10.7837	-0.00102894	  -10.7913	-0.00102706	  -10.7913	  -25.6764	
  -10.7545	-0.00101177	  -10.7687	-0.00104933	    -10.75	-0.00103286	  -10.7577	-0.00103132	  -10.7577	  -25.7829	
  -10.7204	-0.00101583	  -10.7348	-0.00105402	  -10.7158	-0.00103676	  -10.7236	-0.00103554	  -10.7236	  -25.8884	
  -10.6858	-0.00101984	  -10.7003	-0.00105857	  -10.6811	-0.00104056	  -10.6891	-0.00103966	  -10.6891	  -25.9915	
  -10.6509	-0.00102387	  -10.6654	-0.00106309	  -10.6461	-0.0010444	  -10.6541	-0.00104379	  -10.6541	  -26.0947	
  -10.6156	-0.00102779	  -10.6302	-0.00106763	  -10.6107	-0.00104822	  -10.6189	-0.00104788	  -10.6189	   -26.197	
  -10.5799	-0.00103165	  -10.5946	 -0.001072	  -10.5749	-0.00105193	  -10.5832	-0.00105186	  -10.5832	  -26.2965	
  -10.5436	-0.00103551	  -10.5585	-0.00107635	  -10.5387	-0.00105573	  -10.5469	-0.00105586	  -10.5469	  -26.3966	
   -10.507	-0.00103926	  -10.5219	-0.0010807	  -10.5021	-0.00105943	  -10.5104	-0.0010598	  -10.5104	  -26.4949	
  -10.4701	-0.00104292	  -10.4851	-0.00108494	  -10.4652	-0.00106309	  -10.4735	-0.00106365	  -10.4735	  -26.5912	
  -10.4327	-0.00104659	  -10.4478	-0.00108913	  -10.4277	-0.00106682	  -10.4361	-0.00106752	  -10.4361	  -26.6879	
  -10.3949	-0.00105026	    -10.41	-0.00109332	  -10.3898	-0.00107046	  -10.3982	-0.00107135	  -10.3982	  -26.7836	
  -10.3566	-0.00105375	  -10.3718	-0.0010974	  -10.3515	-0.00107403	    -10.36	-0.00107506	    -10.36	  -26.8765	
   -10.318	-0.00105723	  -10.3334	-0.00110145	  -10.3129	-0.00107763	  -10.3214	-0.00107877	  -10.3214	  -26.9693	
   -10.279	-0.0010607	  -10.2946	-0.00110542	  -10.2737	-0.00108118	  -10.2824	-0.00108244	  -10.2824	  -27.0609	
  -10.2394	-0.00106404	  -10.2552	-0.00110937	  -10.2341	-0.00108464	  -10.2429	-0.00108602	  -10.2429	  -27.1504	
  -10.1996	-0.00106735	  -10.2155	-0.00111326	  -10.1941	-0.00108812	  -10.2031	-0.00108958	  -10.2031	  -27.2394	
  -10.1594	-0.00107067	  -10.1755	-0.00111707	  -10.1539	-0.00109158	  -10.1629	-0.00109311	  -10.1629	  -27.3277	
  -10.1187	-0.0010739	  -10.1351	-0.00112085	  -10.1131	-0.00109495	  -10.1223	-0.00109657	  -10.1223	  -27.4142	
  -10.0776	-0.00107706	  -10.0942	-0.00112456	  -10.0719	-0.00109834	  -10.0812	-0.00109999	  -10.0812	  -27.4997	
  -10.0362	-0.00108024	  -10.0529	-0.00112826	  -10.0305	-0.00110166	  -10.0399	-0.00110339	  -10.0399	  -27.5846	
  -9.99446	-0.00108335	  -10.0114	-0.00113188	  -9.98871	-0.00110492	  -9.99819	-0.00110671	  -9.99819	  -27.6678	
   -9.9522	-0.00108637	  -9.96937	-0.0011354	  -9.94645	-0.00110819	  -9.95601	-0.00110999	  -9.95601	  -27.7496	
  -9.90957	-0.00108939	  -9.92693	-0.0011389	  -9.90386	-0.00111136	  -9.91345	-0.00111322	  -9.91345	  -27.8304	
  -9.86669	-0.00109233	  -9.88417	-0.00114235	  -9.86095	-0.00111447	   -9.8706	-0.00111638	   -9.8706	  -27.9096	
  -9.82333	-0.00109526	  -9.84105	-0.00114571	  -9.81761	-0.00111759	  -9.82733	-0.00111952	  -9.82733	  -27.9879	
  -9.77952	-0.00109815	  -9.79743	-0.00114904	  -9.77384	-0.00112056	  -9.78359	-0.00112259	  -9.78359	  -28.0646	
  -9.73541	-0.00110097	  -9.75348	-0.0011523	  -9.72977	-0.00112353	  -9.73955	-0.0011256	  -9.73955	    -28.14	
  -9.69094	-0.00110379	  -9.70918	-0.00115545	  -9.68529	-0.00112645	  -9.69514	-0.00112856	  -9.69514	   -28.214	
  -9.64594	-0.00110658	  -9.66434	-0.00115859	  -9.64029	-0.00112928	  -9.65019	-0.00113148	  -9.65019	   -28.287	
  -9.60059	-0.00110935	  -9.61886	-0.00116165	  -9.59498	-0.0011321	  -9.60481	-0.00113437	  -9.60481	  -28.3593	
  -9.55494	-0.00111206	  -9.57317	-0.00116464	  -9.54939	-0.0011349	  -9.55917	-0.0011372	  -9.55917	    -28.43	
  -9.50884	-0.00111478	  -9.52707	-0.00116766	  -9.50325	-0.00113759	  -9.51305	-0.00114001	  -9.51305	  -28.5002	
  -9.46232	-0.00111756	  -9.48055	-0.00117053	  -9.45674	-0.0011402	  -9.46654	-0.00114276	  -9.46654	  -28.5691	
  -9.41556	-0.00112025	  -9.43374	-0.00117337	  -9.40996	-0.00114283	  -9.41975	-0.00114548	  -9.41975	  -28.6371	
  -9.36846	-0.00112294	  -9.38665	-0.00117622	  -9.36274	-0.00114537	  -9.37261	-0.00114818	  -9.37261	  -28.7044	
  -9.32087	-0.00112569	  -9.33908	-0.00117894	  -9.31507	-0.00114781	  -9.32501	-0.00115081	  -9.32501	  -28.7703	
  -9.27301	-0.0011284	   -9.2912	-0.00118162	  -9.26717	-0.00115026	  -9.27713	-0.00115342	  -9.27713	  -28.8356	
  -9.22493	-0.00113108	  -9.24307	-0.00118428	    -9.219	-0.00115262	    -9.229	 -0.001156	    -9.229	  -28.8999	
  -9.17643	-0.00113381	  -9.19446	-0.00118684	  -9.17032	-0.00115488	  -9.18041	-0.00115851	  -9.18041	  -28.9627	
  -9.12759	-0.0011365	  -9.14548	-0.00118938	  -9.12136	-0.00115713	  -9.13148	 -0.001161	  -9.13148	  -29.0251	
  -9.07859	-0.00113917	  -9.09626	-0.00119192	  -9.07224	-0.00115933	  -9.08236	-0.00116347	  -9.08236	  -29.0868	
  -9.02911	-0.00114187	   -9.0466	-0.00119436	  -9.02263	-0.00116143	  -9.03278	-0.00116588	  -9.03278	  -29.1471	
  -8.97925	-0.00114454	  -8.99652	-0.00119675	  -8.97268	-0.00116351	  -8.98282	-0.00116827	  -8.98282	  -29.2067	
  -8.92908	-0.00114718	  -8.94621	-0.00119917	  -8.92256	-0.00116557	  -8.93262	-0.00117064	  -8.93262	   -29.266	
  -8.87851	-0.00114986	  -8.89539	-0.00120149	  -8.87199	-0.00116754	  -8.88196	-0.00117296	  -8.88196	  -29.3241	
  -8.82752	-0.00115251	  -8.84418	-0.00120378	  -8.82105	-0.00116946	  -8.83092	-0.00117525	  -8.83092	  -29.3813	
   -8.7763	-0.00115513	  -8.79273	-0.00120606	  -8.76983	-0.00117135	  -8.77962	-0.00117751	  -8.77962	  -29.4378	
  -8.72469	-0.00115777	  -8.74085	-0.00120827	  -8.71821	-0.00117316	  -8.72792	-0.00117973	  -8.72792	  -29.4933	
  -8.67267	-0.00116036	  -8.68855	-0.00121045	  -8.66621	-0.00117492	  -8.67581	-0.00118191	  -8.67581	  -29.5477	
  -8.62041	-0.00116298	    -8.636	-0.0012126	  -8.61402	-0.00117665	  -8.62348	-0.00118408	  -8.62348	   -29.602	
  -8.56781	-0.00116557	  -8.58312	-0.00121471	  -8.56142	-0.00117833	  -8.57079	-0.00118621	  -8.57079	  -29.6551	
  -8.51481	-0.00116811	  -8.52981	-0.00121676	  -8.50843	-0.00117993	  -8.51768	-0.00118827	  -8.51768	  -29.7067	
  -8.46158	-0.00117068	  -8.47618	-0.00121878	  -8.45523	-0.0011815	  -8.46433	-0.00119032	  -8.46433	   -29.758	
  -8.40795	-0.00117322	  -8.42217	-0.00122075	  -8.40165	-0.00118305	  -8.41059	-0.00119234	  -8.41059	  -29.8085	
   -8.3539	-0.00117571	  -8.36788	-0.00122261	  -8.34758	-0.00118447	  -8.35645	-0.00119426	  -8.35645	  -29.8566	
  -8.29929	-0.00117808	  -8.31335	-0.00122447	  -8.29313	-0.00118596	  -8.30193	-0.00119617	  -8.30193	  -29.9043	
   -8.2446	-0.0011805	   -8.2584	-0.00122639	  -8.23853	-0.00118737	  -8.24718	-0.00119809	  -8.24718	  -29.9522	
   -8.1896	-0.00118298	  -8.20312	-0.00122813	  -8.18354	-0.00118871	  -8.19209	-0.00119994	  -8.19209	  -29.9984	
  -8.13422	-0.00118531	  -8.14756	-0.00122988	  -8.12822	-0.00119009	  -8.13667	-0.00120176	  -8.13667	   -30.044	
  -8.07847	-0.00118763	  -8.09164	-0.00123165	  -8.07256	-0.00119146	  -8.08089	-0.00120358	  -8.08089	  -30.0895	
  -8.02234	-0.00118998	  -8.03537	-0.00123321	  -8.01656	-0.00119275	  -8.02476	-0.00120531	  -8.02476	  -30.1328	
  -7.96597	-0.00119214	   -7.9789	-0.00123481	  -7.96039	-0.00119402	  -7.96842	-0.00120699	  -7.96842	  -30.1747	
  -7.90927	-0.00119427	  -7.92204	-0.00123639	  -7.90384	-0.00119525	  -7.91172	-0.00120863	  -7.91172	  -30.2158	
  -7.85221	-0.0011964	  -7.86485	-0.00123783	  -7.84695	-0.00119651	  -7.85467	-0.00121025	  -7.85467	  -30.2561	
  -7.79497	-0.00119838	  -7.80748	-0.00123921	  -7.78992	-0.00119773	  -7.79746	-0.00121177	  -7.79746	  -30.2943	
  -7.73743	-0.00120033	  -7.74974	-0.00124063	  -7.73246	-0.00119887	  -7.73988	-0.00121328	  -7.73988	   -30.332	
  -7.67956	-0.00120227	  -7.69167	-0.00124192	  -7.67468	-0.00120007	  -7.68197	-0.00121475	  -7.68197	  -30.3688	
  -7.62144	-0.00120407	  -7.63339	-0.00124316	  -7.61668	-0.00120123	  -7.62384	-0.00121616	  -7.62384	  -30.4039	
  -7.56291	-0.00120585	   -7.5747	-0.00124432	  -7.55828	-0.0012023	   -7.5653	-0.00121749	   -7.5653	  -30.4373	
   -7.5041	-0.00120759	  -7.51575	-0.00124554	  -7.49963	-0.00120345	  -7.50649	-0.00121886	  -7.50649	  -30.4715	
  -7.44515	-0.00120921	  -7.45659	-0.00124664	  -7.44078	-0.0012046	  -7.44751	-0.00122015	  -7.44751	  -30.5038	
  -7.38583	-0.00121079	  -7.39704	-0.00124768	  -7.38148	-0.00120567	  -7.38812	-0.00122138	  -7.38812	  -30.5345	
  -7.32628	-0.00121236	  -7.33727	-0.00124877	  -7.32198	-0.00120681	  -7.32851	-0.00122264	  -7.32851	  -30.5661	
  -7.26643	-0.00121381	  -7.27731	-0.00124973	  -7.26211	-0.00120794	  -7.26862	-0.00122383	  -7.26862	  -30.5957	
  -7.20617	-0.00121519	  -7.21701	-0.00125061	  -7.20186	-0.00120901	  -7.20835	-0.00122494	  -7.20835	  -30.6235	
   -7.1457	-0.00121659	  -7.15654	-0.00125157	  -7.14143	-0.00121013	  -7.14789	-0.00122609	  -7.14789	  -30.6523	
  -7.08487	-0.00121785	  -7.09569	-0.00125239	  -7.08062	-0.00121125	  -7.08706	-0.00122716	  -7.08706	  -30.6791	
  -7.02376	-0.00121909	  -7.03451	-0.00125321	  -7.01951	-0.00121232	  -7.02593	-0.00122821	  -7.02593	  -30.7052	
  -6.96236	-0.0012203	  -6.97327	-0.00125397	  -6.95821	-0.00121342	  -6.96461	-0.00122923	  -6.96461	  -30.7308	
  -6.90068	-0.00122136	  -6.91155	-0.00125467	  -6.89653	-0.0012145	  -6.90292	-0.00123018	  -6.90292	  -30.7544	
  -6.83874	-0.00122239	  -6.84957	-0.00125538	  -6.83476	-0.00121559	  -6.84102	-0.00123112	  -6.84102	   -30.778	
  -6.77678	-0.00122345	  -6.78734	-0.00125596	  -6.77267	-0.00121671	  -6.77893	-0.00123204	  -6.77893	  -30.8009	
  -6.71443	-0.00122431	   -6.7247	-0.00125651	  -6.71021	-0.00121772	  -6.71645	-0.00123285	  -6.71645	  -30.8212	
  -6.65172	-0.00122508	  -6.66189	-0.00125705	  -6.64749	-0.00121871	   -6.6537	-0.00123361	   -6.6537	  -30.8403	
  -6.58875	-0.0012259	  -6.59882	-0.00125763	  -6.58462	-0.00121971	  -6.59073	-0.00123442	  -6.59073	  -30.8604	
  -6.52559	-0.0012266	  -6.53541	-0.00125808	  -6.52145	-0.00122066	  -6.52748	-0.00123511	  -6.52748	  -30.8778	
  -6.46213	-0.0012272	  -6.47181	-0.0012585	  -6.45807	-0.00122166	    -6.464	-0.00123579	    -6.464	  -30.8947	
  -6.39838	-0.00122785	  -6.40787	-0.00125895	  -6.39432	-0.00122261	  -6.40019	-0.00123647	  -6.40019	  -30.9118	
  -6.33441	-0.00122838	  -6.34369	-0.00125923	  -6.33034	-0.00122344	  -6.33615	-0.00123702	  -6.33615	  -30.9254	
   -6.2702	-0.00122885	  -6.27935	-0.00125946	  -6.26605	-0.00122431	  -6.27187	-0.00123754	  -6.27187	  -30.9385	
  -6.20564	-0.00122934	  -6.21462	-0.00125971	  -6.20141	-0.00122524	  -6.20722	-0.0012381	  -6.20722	  -30.9525	
  -6.14092	-0.00122976	  -6.14973	-0.00125984	  -6.13665	-0.00122602	  -6.14243	-0.00123854	  -6.14243	  -30.9635	
  -6.07593	-0.00123008	  -6.08452	-0.00126001	  -6.07154	-0.00122681	  -6.07733	-0.00123897	  -6.07733	  -30.9742	
  -6.01064	-0.00123044	  -6.01903	-0.00126012	  -6.00616	-0.00122765	  -6.01194	-0.0012394	  -6.01194	   -30.985	
  -5.94523	-0.00123074	  -5.95345	-0.00126007	  -5.94065	-0.00122835	  -5.94644	-0.00123972	  -5.94644	  -30.9929	
  -5.87946	-0.00123092	  -5.88755	-0.00126004	  -5.87479	 -0.001229	   -5.8806	-0.00123999	   -5.8806	  -30.9997	
  -5.81349	-0.00123119	  -5.82146	-0.00125998	  -5.80878	-0.00122966	  -5.81458	-0.00124027	  -5.81458	  -31.0069	
  -5.74734	-0.00123135	  -5.75519	-0.00125983	  -5.74256	-0.00123021	  -5.74836	-0.00124046	  -5.74836	  -31.0116	
  -5.68086	-0.00123142	  -5.68864	-0.0012597	  -5.67603	-0.00123071	  -5.68185	-0.00124061	  -5.68185	  -31.0153	
  -5.61421	-0.00123153	  -5.62196	-0.00125951	  -5.60942	-0.00123121	   -5.6152	-0.00124075	   -5.6152	  -31.0187	
   -5.5471	-0.00123163	  -5.55506	-0.00125923	  -5.54255	-0.0012316	  -5.54824	-0.00124082	  -5.54824	  -31.0205	
  -5.48013	-0.00123151	  -5.48791	-0.00125894	   -5.4755	-0.00123193	  -5.48118	-0.0012408	  -5.48118	  -31.0199	
   -5.4128	-0.00123151	  -5.42051	-0.00125857	  -5.40829	-0.00123224	  -5.41386	-0.00124077	  -5.41386	  -31.0194	
  -5.34519	-0.00123147	  -5.35283	-0.00125819	  -5.34079	-0.00123246	  -5.34627	-0.00124071	  -5.34627	  -31.0177	
  -5.27746	-0.0012312	  -5.28494	-0.00125777	   -5.2732	-0.00123261	  -5.27853	-0.00124053	  -5.27853	  -31.0132	
  -5.20943	-0.00123108	  -5.21692	-0.00125725	  -5.20542	-0.00123275	  -5.21059	-0.00124036	  -5.21059	   -31.009	
  -5.14118	-0.00123087	  -5.14874	-0.00125669	  -5.13743	-0.00123281	  -5.14245	-0.00124012	  -5.14245	  -31.0031	
  -5.07279	-0.00123046	  -5.08042	-0.00125607	  -5.06933	-0.00123282	  -5.07418	-0.00123978	  -5.07418	  -30.9946	
  -5.00409	-0.00123014	  -5.01176	-0.00125537	  -5.00092	-0.00123273	  -5.00559	-0.00123942	  -5.00559	  -30.9854	
   -4.9353	-0.00122975	   -4.9429	-0.00125467	   -4.9324	-0.00123261	  -4.93687	-0.00123901	  -4.93687	  -30.9753	
  -4.86629	-0.00122922	  -4.87372	-0.0012539	   -4.8636	-0.0012324	  -4.86787	-0.00123851	  -4.86787	  -30.9627	
  -4.79705	-0.00122874	  -4.80434	-0.00125297	  -4.79459	-0.00123216	  -4.79866	-0.00123796	  -4.79866	  -30.9489	
  -4.72777	-0.0012282	  -4.73485	-0.00125211	  -4.72549	-0.00123186	  -4.72937	-0.00123739	  -4.72937	  -30.9348	
   -4.6582	-0.00122749	  -4.66504	-0.0012512	  -4.65611	-0.00123145	  -4.65978	-0.00123671	  -4.65978	  -30.9178	
  -4.58854	-0.00122679	  -4.59516	-0.00125012	  -4.58662	-0.00123101	  -4.59011	-0.00123597	  -4.59011	  -30.8993	
  -4.51857	-0.00122604	  -4.52505	-0.00124908	  -4.51693	-0.00123054	  -4.52018	-0.00123522	  -4.52018	  -30.8805	
  -4.44839	-0.00122514	  -4.45474	-0.00124802	  -4.44685	-0.00122992	  -4.44999	-0.00123436	  -4.44999	   -30.859	
   -4.3781	-0.00122421	  -4.38425	-0.00124685	  -4.37677	-0.00122925	  -4.37971	-0.00123344	  -4.37971	   -30.836	
  -4.30752	-0.00122327	   -4.3135	-0.00124569	  -4.30642	-0.00122866	  -4.30915	-0.00123254	  -4.30915	  -30.8135	
  -4.23685	-0.00122221	  -4.24271	-0.00124451	  -4.23601	-0.00122783	  -4.23853	-0.00123152	  -4.23853	  -30.7879	
  -4.16595	-0.0012211	  -4.17172	-0.00124325	  -4.16532	-0.00122701	  -4.16766	-0.00123045	  -4.16766	  -30.7613	
  -4.09486	-0.00121993	  -4.10056	-0.00124197	  -4.09443	-0.00122622	  -4.09662	-0.00122937	  -4.09662	  -30.7342	
  -4.02371	-0.00121868	  -4.02933	-0.00124067	  -4.02342	-0.00122519	  -4.02549	-0.00122818	  -4.02549	  -30.7045	
  -3.95233	-0.00121731	  -3.95783	-0.0012393	  -3.95215	-0.00122421	   -3.9541	-0.00122694	   -3.9541	  -30.6735	
  -3.88076	 -0.001216	  -3.88629	-0.00123795	  -3.88085	-0.00122323	  -3.88263	-0.00122572	  -3.88263	  -30.6431	
  -3.80895	-0.00121464	  -3.81448	-0.00123657	   -3.8093	-0.00122208	  -3.81091	-0.00122443	  -3.81091	  -30.6108	
  -3.73699	-0.0012131	  -3.74264	-0.00123513	   -3.7376	-0.00122093	  -3.73908	-0.00122306	  -3.73908	  -30.5764	
  -3.66487	-0.00121167	  -3.67062	-0.00123371	  -3.66577	-0.00121977	  -3.66709	-0.00122172	  -3.66709	   -30.543	
  -3.59254	-0.00121026	  -3.59852	-0.00123234	  -3.59367	-0.00121847	  -3.59491	-0.00122036	  -3.59491	  -30.5089	
  -3.52008	-0.00120874	  -3.52623	-0.00123082	  -3.52151	-0.00121713	  -3.52261	-0.0012189	  -3.52261	  -30.4724	
  -3.44749	-0.00120723	  -3.45371	-0.00122929	  -3.44923	-0.00121576	  -3.45015	-0.00121743	  -3.45015	  -30.4357	
  -3.37483	-0.00120569	  -3.38111	-0.00122783	  -3.37684	-0.00121433	  -3.37759	-0.00121595	  -3.37759	  -30.3988	
  -3.30203	-0.00120407	  -3.30836	-0.00122623	  -3.30424	-0.00121279	  -3.30487	-0.00121436	  -3.30487	  -30.3591	
  -3.22902	-0.00120246	  -3.23542	-0.00122459	  -3.23147	-0.00121122	  -3.23197	-0.00121276	  -3.23197	  -30.3189	
  -3.15601	-0.00120081	  -3.16246	 -0.001223	  -3.15868	-0.00120965	  -3.15905	-0.00121116	  -3.15905	  -30.2789	
  -3.08284	-0.00119914	  -3.08929	-0.00122135	  -3.08568	-0.00120796	  -3.08594	-0.00120948	  -3.08594	  -30.2371	
   -3.0096	-0.00119747	  -3.01608	-0.00121959	  -3.01262	-0.00120622	  -3.01277	-0.00120776	  -3.01277	   -30.194	
  -2.93627	-0.00119577	  -2.94275	-0.00121786	  -2.93941	-0.00120446	  -2.93948	-0.00120603	  -2.93948	  -30.1507	
  -2.86277	-0.00119403	  -2.86926	-0.00121607	  -2.86602	-0.00120258	  -2.86601	-0.00120423	  -2.86601	  -30.1057	
  -2.78932	-0.00119235	   -2.7958	-0.00121419	  -2.79261	-0.00120067	  -2.79258	-0.0012024	  -2.79258	    -30.06	
  -2.71569	-0.00119059	  -2.72208	-0.00121232	  -2.71896	-0.00119878	  -2.71891	-0.00120056	  -2.71891	  -30.0141	
  -2.64206	-0.00118883	  -2.64837	-0.00121041	  -2.64531	-0.00119669	  -2.64525	-0.00119864	  -2.64525	  -29.9661	
  -2.56825	-0.00118709	  -2.57452	-0.00120841	  -2.57157	-0.00119461	  -2.57145	-0.0011967	  -2.57145	  -29.9176	
  -2.49432	-0.00118529	  -2.50057	-0.00120641	  -2.49766	-0.00119247	  -2.49751	-0.00119472	  -2.49751	  -29.8681	
   -2.4204	-0.00118347	  -2.42655	-0.00120436	  -2.42365	-0.00119019	  -2.42353	-0.00119267	  -2.42353	  -29.8168	
  -2.34626	-0.00118165	  -2.35233	-0.00120222	  -2.34947	-0.00118792	  -2.34936	-0.0011906	  -2.34936	  -29.7649	
  -2.27215	-0.00117977	  -2.27818	-0.00120008	  -2.27525	-0.00118565	  -2.27519	-0.0011885	  -2.27519	  -29.7125	
  -2.19789	-0.00117784	  -2.20383	-0.00119788	  -2.20089	-0.00118324	  -2.20087	-0.00118632	  -2.20087	  -29.6579	
  -2.12356	-0.00117593	  -2.12943	-0.00119559	  -2.12647	-0.00118075	  -2.12648	-0.00118409	  -2.12648	  -29.6022	
  -2.04921	-0.00117397	  -2.05495	-0.0011933	  -2.05197	-0.00117829	  -2.05204	-0.00118185	  -2.05204	  -29.5463	
  -1.97468	-0.00117195	   -1.9803	-0.00119094	  -1.97733	-0.00117569	  -1.97744	-0.00117953	  -1.97744	  -29.4882	
  -1.90017	-0.00116989	  -1.90564	-0.00118848	  -1.90273	-0.00117303	  -1.90285	-0.00117713	  -1.90285	  -29.4283	
  -1.82549	-0.00116779	  -1.83075	-0.00118611	  -1.82792	-0.00117037	  -1.82806	-0.00117476	  -1.82806	  -29.3689	
   -1.7508	-0.00116564	  -1.75586	-0.00118356	  -1.75312	-0.0011676	  -1.75326	-0.00117227	  -1.75326	  -29.3066	
