# User: ACHyster
# File name: C:/ACHYSTER/ACHyster SENS/SHAMS/CoFe2O4-1gl-water-60 Glycerol-Sens-08-03-2023/CoFe2O4-1gl-water-60 Glycerol- 10_100F- 24 kAm -Sens-08-03-20230005#1.txt
# Saved at: mi. mar. 8 13:24:56 2023
# Hyster Loop (3 iterations). Intensity: 24.0 kA/m; Tuned frequency: 59.9 kHz
# Units x axis: (kA/m)
# Units y axis: "Repeats y" & "Average y" (10^(-3)Am^2); "Mass avg y" (Am^2/kg)
# Magnetic mass: 4e-05 g
# Parameter      	Repeat   1	Repeat   2	Repeat   3	Average   	Sigma     
# H_C (kA/m)     	      17.7	      17.7	      17.3	      17.6	       0.2
# M_R (Am^2/kg)  	      15.8	      15.8	      16.8	      16.1	       0.5
# M_max (Am^2/kg)	      13.5	      14.1	      15.6	      14.4	       0.9
# Area (mJ/kg)   	    1411.7	    1417.6	    1501.2	    1443.5	      40.9
# SAR (W/g)      	      84.6	      84.9	      89.9	      86.5	       2.4
#Repeat 1 x	Repeat 1 y	Repeat 2 x	Repeat 2 y	Repeat 3 x	Repeat 3 y	Average x 	Average y 	Mass avg x 	Mass avg y 
  -3.52396	-0.000689482	  -3.53752	-0.000691265	  -3.52291	-0.00073543	  -3.52813	-0.000705393	  -3.52813	  -17.6348	
   -3.3734	-0.000687562	  -3.38574	-0.000688988	  -3.37184	-0.000733015	  -3.37699	-0.000703188	  -3.37699	  -17.5797	
  -3.22202	-0.000685716	   -3.2326	-0.000686636	  -3.22076	-0.000730551	  -3.22513	-0.000700968	  -3.22513	  -17.5242	
  -3.07087	-0.000683884	  -3.07865	-0.00068421	  -3.06922	-0.000728066	  -3.07292	-0.00069872	  -3.07292	   -17.468	
  -2.91957	-0.000681964	  -2.92495	-0.000681724	  -2.91715	-0.000725583	  -2.92056	-0.000696424	  -2.92056	  -17.4106	
  -2.76823	-0.000679893	  -2.77002	-0.000679199	  -2.76549	-0.000723117	  -2.76792	-0.00069407	  -2.76792	  -17.3517	
  -2.61738	-0.000677632	  -2.61604	-0.000676632	  -2.61354	-0.00072066	  -2.61565	-0.000691642	  -2.61565	   -17.291	
  -2.46668	-0.000675222	  -2.46306	-0.000674102	  -2.46143	-0.000718185	  -2.46372	-0.00068917	  -2.46372	  -17.2292	
  -2.31545	-0.000672736	  -2.30955	-0.000671593	  -2.30928	-0.000715661	  -2.31143	-0.000686664	  -2.31143	  -17.1666	
    -2.164	-0.000670266	  -2.15739	-0.000669135	  -2.15604	-0.000713081	  -2.15914	-0.000684161	  -2.15914	   -17.104	
   -2.0127	-0.000667883	  -2.00408	-0.000666713	   -2.0027	-0.000710424	  -2.00649	-0.000681673	  -2.00649	  -17.0418	
  -1.86125	-0.000665614	  -1.85218	-0.000664283	  -1.84938	-0.000707735	  -1.85427	-0.000679211	  -1.85427	  -16.9803	
  -1.71017	-0.000663417	  -1.69934	-0.000661789	  -1.69621	-0.000705005	  -1.70191	-0.000676737	  -1.70191	  -16.9184	
  -1.55993	-0.000661224	  -1.54732	-0.00065922	   -1.5429	-0.000702228	  -1.55005	-0.000674224	  -1.55005	  -16.8556	
   -1.4094	-0.000658927	  -1.39498	-0.000656534	  -1.38957	-0.000699397	  -1.39798	-0.00067162	  -1.39798	  -16.7905	
  -1.25909	-0.000656485	  -1.24248	-0.000653743	  -1.23674	-0.000696478	   -1.2461	-0.000668902	   -1.2461	  -16.7226	
   -1.1091	-0.000653873	  -1.09072	-0.000650882	  -1.08448	-0.000693485	  -1.09477	-0.00066608	  -1.09477	   -16.652	
 -0.959129	-0.000651129	 -0.938187	-0.000648024	  -0.93287	-0.000690448	 -0.943396	-0.0006632	 -0.943396	    -16.58	
 -0.808488	-0.000648325	 -0.786633	-0.000645221	 -0.781174	-0.000687385	 -0.792098	-0.00066031	 -0.792098	  -16.5078	
 -0.657735	-0.000645554	 -0.634522	-0.000642544	 -0.629127	-0.000684335	 -0.640461	-0.000657478	 -0.640461	  -16.4369	
 -0.506911	-0.00064286	 -0.482008	-0.000639958	 -0.477184	-0.000681323	 -0.488701	-0.000654714	 -0.488701	  -16.3678	
 -0.355817	-0.000640253	 -0.329633	-0.000637396	 -0.324743	-0.000678325	 -0.336731	-0.000651992	 -0.336731	  -16.2998	
 -0.204978	-0.000637683	 -0.176721	-0.000634781	 -0.172353	-0.000675313	 -0.184684	-0.000649259	 -0.184684	  -16.2315	
-0.0540935	-0.000635077	-0.0242151	-0.000632033	-0.0205175	-0.000672235	 -0.032942	-0.000646448	 -0.032942	  -16.1612	
 0.0967266	-0.000632358	  0.128979	-0.000629105	  0.131872	-0.000669049	  0.119193	-0.000643504	  0.119193	  -16.0876	
  0.247767	-0.000629483	  0.281903	-0.000626028	  0.283483	-0.000665751	  0.271051	-0.000640421	  0.271051	  -16.0105	
  0.398665	-0.000626453	  0.434932	-0.000622864	  0.435123	-0.000662366	  0.422907	-0.000637228	  0.422907	  -15.9307	
  0.549559	-0.000623319	  0.588256	-0.000619701	  0.586207	-0.000658937	  0.574674	-0.000633986	  0.574674	  -15.8496	
  0.699947	-0.000620152	  0.741729	-0.000616603	  0.737064	-0.000655515	  0.726247	-0.000630757	  0.726247	  -15.7689	
   0.85015	-0.000617022	  0.895221	-0.00061359	  0.887601	-0.000652119	  0.877658	-0.000627577	  0.877658	  -15.6894	
   1.00047	-0.000613964	   1.04861	-0.000610628	   1.03852	-0.000648738	    1.0292	-0.000624443	    1.0292	  -15.6111	
    1.1504	-0.000610966	   1.20219	-0.000607646	    1.1889	-0.000645343	    1.1805	-0.000621318	    1.1805	   -15.533	
   1.30041	-0.000607979	    1.3562	-0.000604565	   1.33953	-0.000641893	   1.33205	-0.000618146	   1.33205	  -15.4536	
   1.45062	-0.000604934	   1.50933	-0.000601335	   1.48982	-0.000638378	   1.48326	-0.000614882	   1.48326	  -15.3721	
   1.60091	-0.000601771	    1.6619	-0.000597961	   1.63968	-0.000634808	   1.63416	-0.000611513	   1.63416	  -15.2878	
   1.75155	-0.00059846	   1.81426	-0.000594484	   1.78943	-0.000631196	   1.78508	-0.000608047	   1.78508	  -15.2012	
   1.90162	-0.000595018	   1.96668	-0.000590987	   1.93859	-0.000627569	   1.93563	-0.000604525	   1.93563	  -15.1131	
   2.05177	-0.0005915	   2.11928	-0.000587545	   2.08843	-0.000623928	    2.0865	-0.000600991	    2.0865	  -15.0248	
   2.20157	-0.000587957	    2.2721	-0.000584182	   2.23824	-0.000620259	    2.2373	-0.000597466	    2.2373	  -14.9367	
   2.35173	-0.00058449	   2.42459	-0.000580874	    2.3887	-0.000616535	   2.38834	-0.000593966	   2.38834	  -14.8492	
   2.50171	-0.000581072	   2.57707	-0.00057755	   2.53887	-0.000612754	   2.53922	-0.000590459	   2.53922	  -14.7615	
   2.65221	-0.000577719	   2.72943	-0.000574126	   2.68905	-0.000608899	   2.69023	-0.000586914	   2.69023	  -14.6729	
   2.80228	-0.000574326	   2.88155	-0.000570551	   2.83913	 -0.000605	   2.84099	-0.000583292	   2.84099	  -14.5823	
   2.95258	-0.000570836	   3.03334	-0.000566818	   2.98901	-0.000601062	   2.99164	-0.000579572	   2.99164	  -14.4893	
   3.10265	-0.000567177	   3.18511	-0.000562953	   3.13822	-0.000597109	   3.14199	-0.000575746	   3.14199	  -14.3937	
   3.25201	-0.000563367	   3.33675	-0.000559035	   3.28749	-0.000593103	   3.29208	-0.000571835	   3.29208	  -14.2959	
    3.4014	-0.00055943	   3.48854	-0.000555147	    3.4363	-0.000589081	   3.44208	-0.000567886	   3.44208	  -14.1971	
   3.54993	-0.000555486	   3.64076	-0.000551336	   3.58578	-0.000584996	   3.59216	-0.000563939	   3.59216	  -14.0985	
   3.69914	-0.000551604	   3.79285	-0.000547626	   3.73459	-0.000580895	   3.74219	-0.000560041	   3.74219	   -14.001	
   3.84784	-0.000547842	   3.94504	-0.000543953	   3.88314	-0.000576729	   3.89201	-0.000556175	   3.89201	  -13.9044	
     3.997	-0.000544171	   4.09649	-0.000540253	   4.03207	-0.000572498	   4.04185	-0.000552307	   4.04185	  -13.8077	
   4.14529	-0.00054053	   4.24715	-0.00053644	   4.18124	-0.000568167	   4.19123	-0.000548379	   4.19123	  -13.7095	
   4.29426	-0.00053681	   4.39737	-0.000532469	   4.33052	-0.000563761	   4.34072	-0.000544347	   4.34072	  -13.6087	
   4.44217	-0.000532942	   4.54747	-0.000528344	   4.47942	-0.000559297	   4.48969	-0.000540194	   4.48969	  -13.5049	
   4.59019	-0.000528885	   4.69696	-0.000524164	   4.62863	-0.000554849	   4.63859	-0.000535966	   4.63859	  -13.3991	
   4.73797	-0.000524688	   4.84625	-0.000519995	   4.77772	-0.000550433	   4.78731	-0.000531706	   4.78731	  -13.2926	
   4.88488	-0.000520421	   4.99517	-0.00051589	   4.92691	-0.00054609	   4.93566	-0.000527467	   4.93566	  -13.1867	
   5.03208	-0.000516189	   5.14406	-0.000511846	   5.07569	-0.000541771	   5.08394	-0.000523269	   5.08394	  -13.0817	
   5.17943	-0.000512053	   5.29279	-0.000507796	   5.22439	-0.000537423	    5.2322	-0.000519091	    5.2322	  -12.9773	
   5.32645	-0.00050805	   5.44168	-0.000503672	    5.3725	-0.000532971	   5.38021	-0.000514897	   5.38021	  -12.8724	
   5.47367	-0.000504153	   5.59014	-0.000499428	   5.52125	-0.000528384	   5.52835	-0.000510655	   5.52835	  -12.7664	
   5.62037	-0.000500288	   5.73778	-0.000495034	   5.66999	-0.000523655	   5.67605	-0.000506326	   5.67605	  -12.6581	
   5.76728	-0.000496325	   5.88576	-0.000490531	   5.81864	-0.000518848	   5.82389	-0.000501901	   5.82389	  -12.5475	
   5.91428	-0.000492206	   6.03316	-0.000486004	    5.9667	-0.000514018	   5.97138	-0.00049741	   5.97138	  -12.4352	
   6.06166	-0.000487879	   6.18032	-0.000481519	   6.11451	-0.000509232	   6.11883	-0.000492876	   6.11883	  -12.3219	
   6.20889	-0.000483387	   6.32756	-0.000477123	   6.26278	-0.000504512	   6.26641	-0.000488341	   6.26641	  -12.2085	
   6.35589	-0.000478825	   6.47437	-0.000472813	    6.4112	-0.000499844	   6.41382	-0.000483828	   6.41382	  -12.0957	
   6.50259	-0.000474289	   6.62031	-0.000468528	   6.55905	-0.000495167	   6.56065	-0.000479328	   6.56065	  -11.9832	
   6.64969	-0.000469843	   6.76574	-0.000464194	   6.70704	-0.000490418	   6.70749	-0.000474818	   6.70749	  -11.8705	
   6.79707	-0.000465536	   6.91101	-0.000459737	   6.85469	-0.000485543	   6.85426	-0.000470272	   6.85426	  -11.7568	
   6.94342	-0.000461319	   7.05564	-0.000455115	    7.0023	-0.00048053	   7.00045	-0.000465655	   7.00045	  -11.6414	
   7.08952	-0.000457123	       7.2	-0.00045035	   7.14938	-0.000475409	    7.1463	-0.000460961	    7.1463	   -11.524	
   7.23507	-0.000452858	   7.34439	-0.000445509	   7.29723	-0.000470237	   7.29223	-0.000456202	   7.29223	   -11.405	
   7.38063	-0.00044845	   7.48796	-0.000440675	   7.44433	-0.000465075	   7.43764	-0.0004514	   7.43764	   -11.285	
   7.52534	-0.000443866	   7.63146	-0.000435911	   7.59105	-0.000459961	   7.58262	-0.000446579	   7.58262	  -11.1645	
   7.67035	-0.000439138	   7.77481	-0.000431235	   7.73732	-0.000454901	   7.72749	-0.000441758	   7.72749	   -11.044	
   7.81515	-0.000434346	   7.91754	-0.000426623	   7.88308	-0.000449862	   7.87193	-0.000436944	   7.87193	  -10.9236	
   7.95968	-0.000429569	   8.05964	-0.000422008	   8.02868	-0.000444788	     8.016	-0.000432121	     8.016	   -10.803	
   8.10369	-0.000424872	   8.20224	-0.000417314	   8.17379	-0.000439625	   8.15991	-0.00042727	   8.15991	  -10.6818	
   8.24771	-0.000420248	   8.34483	-0.000412493	   8.31822	-0.000434344	   8.30359	-0.000422362	   8.30359	   -10.559	
   8.39125	-0.00041566	   8.48733	-0.00040754	    8.4627	-0.000428945	   8.44709	-0.000417382	   8.44709	  -10.4345	
   8.53544	-0.00041103	   8.62927	-0.000402494	   8.60715	-0.000423468	   8.59062	-0.00041233	   8.59062	  -10.3083	
   8.67974	-0.000406288	   8.77062	-0.000397425	   8.75108	-0.000417962	   8.73381	-0.000407225	   8.73381	  -10.1806	
   8.82305	-0.000401407	   8.91173	-0.000392395	   8.89478	-0.000412476	   8.87652	-0.000402093	   8.87652	  -10.0523	
   8.96558	-0.00039641	   9.05216	-0.000387484	   9.03824	-0.00040703	   9.01866	-0.000396975	   9.01866	  -9.92437	
   9.10772	-0.000391344	   9.19227	-0.000382654	   9.18141	-0.000401615	   9.16047	-0.000391871	   9.16047	  -9.79678	
   9.24941	-0.000386283	   9.33203	-0.000377865	   9.32343	-0.000396187	   9.30162	-0.000386778	   9.30162	  -9.66946	
   9.39022	-0.000381278	   9.47177	-0.000372986	   9.46432	-0.000390698	    9.4421	-0.000381654	    9.4421	  -9.54135	
   9.53053	-0.000376348	   9.61064	-0.000367931	   9.60488	-0.000385106	   9.58202	-0.000376461	   9.58202	  -9.41154	
   9.67047	-0.00037146	    9.7492	-0.000362642	   9.74546	-0.000379399	   9.72171	-0.000371167	   9.72171	  -9.27917	
   9.81024	-0.000366542	   9.88763	-0.000357169	   9.88519	-0.00037359	   9.86102	-0.000365767	   9.86102	  -9.14418	
   9.94937	-0.000361526	   10.0263	-0.000351593	   10.0241	-0.000367721	    9.9999	-0.00036028	    9.9999	    -9.007	
   10.0882	-0.000356393	   10.1639	-0.000346049	   10.1625	-0.000361853	   10.1382	-0.000354765	   10.1382	  -8.86912	
   10.2264	-0.000351158	   10.3012	-0.000340649	   10.3012	-0.00035603	   10.2763	-0.000349279	   10.2763	  -8.73198	
   10.3643	-0.000345897	   10.4382	-0.00033544	   10.4389	-0.000350327	   10.4138	-0.000343888	   10.4138	   -8.5972	
   10.5017	-0.000340672	   10.5745	-0.000330377	    10.576	-0.000344702	   10.5507	-0.000338584	   10.5507	   -8.4646	
   10.6387	-0.000335518	   10.7101	-0.000325351	   10.7129	-0.000339081	   10.6872	-0.000333317	   10.6872	  -8.33292	
   10.7757	-0.000330431	    10.845	-0.000320229	   10.8492	-0.000333374	   10.8233	-0.000328012	   10.8233	  -8.20029	
   10.9123	-0.000325391	   10.9791	-0.000314909	   10.9852	-0.000327518	   10.9588	-0.000322606	   10.9588	  -8.06514	
   11.0483	-0.000320322	   11.1132	-0.000309358	   11.1205	-0.000321483	    11.094	-0.000317054	    11.094	  -7.92636	
   11.1838	-0.000315167	   11.2466	-0.000303633	   11.2551	-0.000315328	   11.2285	-0.000311376	   11.2285	  -7.78439	
   11.3181	-0.000309888	   11.3801	-0.000297837	   11.3895	-0.000309117	   11.3626	-0.000305614	   11.3626	  -7.64035	
   11.4524	-0.000304471	   11.5134	-0.000292103	   11.5231	-0.000302954	   11.4963	-0.000299843	   11.4963	  -7.49607	
   11.5862	-0.000298972	   11.6471	-0.000286525	   11.6557	-0.000296916	   11.6296	-0.000294138	   11.6296	  -7.35344	
   11.7197	-0.000293424	   11.7806	-0.000281122	   11.7879	-0.000291006	   11.7627	-0.000288517	   11.7627	  -7.21294	
   11.8523	-0.00028792	   11.9139	-0.000275844	   11.9195	-0.000285191	   11.8952	-0.000282985	   11.8952	  -7.07462	
   11.9843	-0.000282504	   12.0469	-0.00027064	    12.051	-0.000279385	   12.0274	-0.00027751	   12.0274	  -6.93775	
   12.1161	-0.000277184	   12.1792	-0.000265363	   12.1814	-0.000273491	   12.1589	-0.000272013	   12.1589	  -6.80032	
   12.2477	-0.000271905	   12.3117	-0.000259911	   12.3115	-0.000267438	   12.2903	-0.000266418	   12.2903	  -6.66045	
   12.3787	-0.000266606	   12.4434	-0.000254242	   12.4409	-0.000261228	    12.421	-0.000260692	    12.421	   -6.5173	
   12.5094	-0.000261203	   12.5753	-0.000248364	     12.57	-0.000254905	   12.5516	-0.000254824	   12.5516	  -6.37061	
   12.6391	-0.000255669	   12.7075	-0.000242391	   12.6984	-0.00024856	   12.6817	-0.000248874	   12.6817	  -6.22184	
    12.768	-0.000250002	   12.8394	-0.000236467	   12.8267	-0.000242274	   12.8114	-0.000242914	   12.8114	  -6.07285	
   12.8968	-0.000244266	   12.9709	-0.000230693	   12.9542	-0.00023609	   12.9406	-0.000237016	   12.9406	  -5.92541	
   13.0246	-0.000238528	   13.1014	-0.000225135	   13.0815	  -0.00023	   13.0692	-0.000231221	   13.0692	  -5.78053	
   13.1522	-0.000232864	   13.2316	-0.000219777	   13.2077	-0.000223953	   13.1971	-0.000225531	   13.1971	  -5.63828	
   13.2788	-0.000227305	   13.3613	-0.000214496	   13.3329	-0.000217832	   13.3243	-0.000219878	   13.3243	  -5.49694	
   13.4049	-0.000221844	   13.4901	-0.000209159	   13.4571	-0.000211637	   13.4507	-0.000214213	   13.4507	  -5.35533	
   13.5302	-0.000216417	   13.6181	-0.000203634	   13.5809	-0.000205308	   13.5764	-0.000208453	   13.5764	  -5.21133	
   13.6551	-0.000210952	   13.7454	-0.000197882	   13.7045	-0.000198941	   13.7017	-0.000202592	   13.7017	   -5.0648	
   13.7791	-0.000205387	   13.8719	-0.000191942	   13.8285	-0.000192604	   13.8265	-0.000196644	   13.8265	  -4.91611	
    13.903	-0.000199699	   13.9969	-0.000185936	   13.9523	-0.000186369	   13.9507	-0.000190668	   13.9507	   -4.7667	
   14.0262	-0.000193913	   14.1209	-0.000179979	   14.0771	-0.000180244	   14.0747	-0.000184712	   14.0747	   -4.6178	
    14.149	-0.000188094	   14.2439	-0.000174173	   14.2005	-0.000174216	   14.1978	-0.000178828	   14.1978	  -4.47069	
   14.2706	-0.000182311	    14.367	-0.000168536	   14.3238	-0.000168167	   14.3205	-0.000173005	   14.3205	  -4.32512	
   14.3916	-0.000176616	   14.4895	-0.000163017	   14.4462	-0.000162027	   14.4424	-0.00016722	   14.4424	   -4.1805	
    14.512	-0.000171013	   14.6115	-0.000157511	   14.5657	-0.000155705	    14.563	-0.00016141	    14.563	  -4.03524	
   14.6321	-0.000165472	   14.7327	-0.000151913	   14.6861	-0.000149221	   14.6836	-0.000155535	   14.6836	  -3.88838	
   14.7513	-0.000159934	   14.8527	-0.000146143	   14.8034	-0.000142662	   14.8024	-0.00014958	   14.8024	  -3.73949	
     14.87	-0.000154339	   14.9716	-0.000140183	   14.9182	-0.000136138	   14.9199	-0.000143553	   14.9199	  -3.58883	
   14.9883	-0.000148655	   15.0903	-0.00013411	   15.0328	-0.000129763	   15.0371	-0.000137509	   15.0371	  -3.43773	
   15.1065	-0.000142886	   15.2083	-0.000128051	   15.1468	-0.000123583	   15.1539	-0.000131506	   15.1539	  -3.28766	
   15.2244	-0.000137066	   15.3259	-0.000122145	   15.2617	-0.000117573	   15.2707	-0.000125595	   15.2707	  -3.13987	
    15.341	-0.000131249	   15.4433	-0.000116472	   15.3768	-0.000111631	    15.387	-0.000119784	    15.387	   -2.9946	
   15.4569	-0.000125481	   15.5598	-0.000111016	   15.4905	-0.000105626	   15.5024	-0.000114041	   15.5024	  -2.85103	
   15.5717	-0.000119795	   15.6759	-0.000105663	   15.6049	-9.9444e-05	   15.6175	-0.000108301	   15.6175	  -2.70751	
   15.6864	-0.000114185	   15.7912	-0.000100299	   15.7176	-9.30635e-05	   15.7317	-0.000102516	   15.7317	   -2.5629	
   15.8005	-0.000108624	   15.9062	-9.4758e-05	   15.8299	-8.65402e-05	   15.8455	-9.66406e-05	   15.8455	  -2.41602	
   15.9142	-0.000103061	   16.0201	-8.89681e-05	   15.9411	-7.99913e-05	   15.9585	-9.06736e-05	   15.9585	  -2.26684	
   16.0279	-9.74419e-05	   16.1331	-8.29644e-05	   16.0519	-7.35458e-05	    16.071	-8.46507e-05	    16.071	  -2.11627	
   16.1416	-9.17238e-05	   16.2452	-7.68428e-05	   16.1618	-6.72916e-05	   16.1829	-7.86194e-05	   16.1829	  -1.96548	
   16.2542	-8.59113e-05	   16.3569	-7.07571e-05	   16.2709	-6.12324e-05	    16.294	-7.26336e-05	    16.294	  -1.81584	
   16.3662	-8.00409e-05	   16.4678	-6.48447e-05	   16.3792	-5.52936e-05	   16.4044	-6.67264e-05	   16.4044	  -1.66816	
   16.4775	-7.41707e-05	   16.5789	-5.91807e-05	   16.4868	-4.93459e-05	   16.5144	-6.08991e-05	   16.5144	  -1.52248	
    16.588	-6.83593e-05	   16.6894	-5.37331e-05	   16.5938	-4.32768e-05	   16.6237	-5.51231e-05	   16.6237	  -1.37808	
   16.6973	-6.26433e-05	   16.7989	-4.84142e-05	   16.7006	-3.70214e-05	   16.7323	-4.93596e-05	   16.7323	  -1.23399	
   16.8054	-5.70156e-05	   16.9083	-4.30466e-05	   16.8066	-3.05888e-05	   16.8401	-4.35503e-05	   16.8401	  -1.08876	
    16.913	-5.14393e-05	   17.0166	-3.75177e-05	   16.9128	-2.40617e-05	   16.9475	-3.76729e-05	   16.9475	 -0.941822	
   17.0193	-4.58463e-05	   17.1245	-3.17613e-05	   17.0183	-1.75653e-05	    17.054	-3.17243e-05	    17.054	 -0.793107	
   17.1252	-4.01962e-05	   17.2319	-2.5817e-05	   17.1239	-1.1199e-05	   17.1603	-2.57374e-05	   17.1603	 -0.643435	
   17.2313	-3.44513e-05	   17.3383	-1.97802e-05	   17.2293	-5.01327e-06	   17.2663	-1.97483e-05	   17.2663	 -0.493707	
   17.3363	-2.86317e-05	   17.4435	-1.38003e-05	   17.3345	1.02679e-06	   17.3715	-1.38018e-05	   17.3715	 -0.345044	
   17.4417	-2.27697e-05	   17.5484	-7.97823e-06	   17.4389	7.0146e-06	   17.4763	-7.91111e-06	   17.4763	 -0.197778	
   17.5463	-1.69242e-05	   17.6526	-2.36234e-06	   17.5431	1.30717e-05	   17.5807	-2.07163e-06	   17.5807	-0.0517909	
   17.6502	-1.11348e-05	   17.7559	3.08903e-06	   17.6469	1.92803e-05	   17.6843	3.74484e-06	   17.6843	  0.093621	
   17.7538	-5.43264e-06	    17.858	8.48343e-06	   17.7501	2.56626e-05	   17.7873	9.57112e-06	   17.7873	  0.239278	
   17.8565	1.94106e-07	   17.9594	1.39501e-05	   17.8528	3.21693e-05	   17.8896	1.54378e-05	   17.8896	  0.385946	
   17.9574	5.78073e-06	     18.06	1.95768e-05	    17.955	3.86999e-05	   17.9908	2.13525e-05	   17.9908	  0.533812	
   18.0573	1.1376e-05	   18.1594	2.53931e-05	   18.0564	4.51427e-05	    18.091	2.73039e-05	    18.091	  0.682598	
   18.1567	1.70186e-05	   18.2582	3.13452e-05	   18.1576	5.14281e-05	   18.1908	3.32639e-05	   18.1908	  0.831599	
   18.2552	2.27334e-05	    18.356	3.72937e-05	   18.2587	5.75541e-05	     18.29	3.91937e-05	     18.29	  0.979843	
   18.3535	2.85034e-05	   18.4535	4.31275e-05	   18.3592	6.3586e-05	   18.3888	4.50723e-05	   18.3888	   1.12681	
   18.4504	3.42907e-05	     18.55	4.87945e-05	    18.459	6.96235e-05	   18.4865	5.09029e-05	   18.4865	   1.27257	
   18.5473	4.00445e-05	   18.6455	5.43006e-05	   18.5585	7.57631e-05	   18.5838	5.67027e-05	   18.5838	   1.41757	
   18.6424	4.57266e-05	   18.7403	5.97745e-05	    18.657	8.20505e-05	   18.6799	6.25172e-05	   18.6799	   1.56293	
   18.7374	5.13231e-05	   18.8344	6.53268e-05	   18.7547	8.84685e-05	   18.7755	6.83728e-05	   18.7755	   1.70932	
   18.8315	5.68527e-05	   18.9284	7.10331e-05	   18.8509	9.49407e-05	   18.8703	7.42755e-05	   18.8703	   1.85689	
   18.9254	6.23483e-05	   19.0216	 7.689e-05	   18.9466	0.000101373	   18.9646	8.02037e-05	   18.9646	   2.00509	
   19.0179	6.78581e-05	   19.1146	8.28077e-05	   19.0408	0.000107685	   19.0578	8.6117e-05	   19.0578	   2.15292	
   19.1105	7.34176e-05	   19.2071	8.86466e-05	   19.1336	0.000113843	   19.1504	9.1969e-05	   19.1504	   2.29923	
   19.2019	7.90327e-05	    19.299	9.43221e-05	   19.2259	0.000119875	   19.2423	9.77432e-05	   19.2423	   2.44358	
   19.2929	8.46838e-05	   19.3898	9.98102e-05	   19.3176	0.000125861	   19.3334	0.000103452	   19.3334	   2.58629	
   19.3823	9.03322e-05	   19.4797	0.000105186	   19.4083	0.000131888	   19.4235	0.000109135	   19.4235	   2.72839	
   19.4715	9.59323e-05	   19.5686	0.00011059	    19.498	0.000138016	   19.5127	0.000114846	   19.5127	   2.87115	
   19.5599	0.000101457	   19.6569	0.000116134	   19.5875	0.000144257	   19.6014	0.000120616	   19.6014	    3.0154	
   19.6472	0.000106908	   19.7448	0.000121872	   19.6762	0.000150566	   19.6894	0.000126449	   19.6894	   3.16122	
   19.7334	0.000112307	   19.8317	0.000127775	   19.7638	0.000156871	   19.7763	0.000132318	   19.7763	   3.30794	
   19.8181	0.000117694	   19.9181	0.000133739	    19.851	0.000163105	   19.8624	0.000138179	   19.8624	   3.45448	
   19.9019	0.000123105	   20.0038	0.000139603	   19.9366	0.000169209	   19.9474	0.000143972	   19.9474	    3.5993	
   19.9851	0.000128558	   20.0885	0.000145284	   20.0221	0.00017517	   20.0319	0.000149671	   20.0319	   3.74177	
   20.0678	0.00013405	   20.1725	0.00015073	   20.1065	0.000181017	   20.1156	0.000155266	   20.1156	   3.88164	
   20.1492	0.000139552	    20.255	0.000156005	   20.1903	0.000186814	   20.1982	0.00016079	   20.1982	   4.01975	
   20.2298	0.000145029	   20.3363	0.000161238	   20.2737	0.000192639	   20.2799	0.000166302	   20.2799	   4.15755	
   20.3092	0.000150462	   20.4168	0.000166552	   20.3565	0.000198543	   20.3608	0.000171852	   20.3608	   4.29631	
   20.3878	0.000155812	   20.4965	0.000172056	   20.4384	0.000204528	   20.4409	0.000177465	   20.4409	   4.43663	
   20.4654	0.000161117	   20.5753	0.000177762	   20.5188	0.000210564	   20.5198	0.000183148	   20.5198	    4.5787	
   20.5432	0.000166365	   20.6534	0.000183598	   20.5979	0.000216586	   20.5982	0.000188849	   20.5982	   4.72123	
   20.6202	0.000171616	   20.7304	0.000189441	   20.6757	0.000222548	   20.6754	0.000194535	   20.6754	   4.86338	
   20.6967	0.000176919	   20.8067	0.000195153	   20.7523	0.000228422	   20.7519	0.000200165	   20.7519	   5.00411	
    20.772	0.000182316	   20.8822	0.000200659	   20.8279	0.000234201	   20.8274	0.000205725	   20.8274	   5.14312	
   20.8464	0.000187832	   20.9569	0.000205951	   20.9029	0.000239915	   20.9021	0.000211233	   20.9021	   5.28082	
   20.9194	0.000193431	   21.0308	0.000211087	   20.9778	0.000245591	    20.976	0.000216703	    20.976	   5.41758	
   20.9916	0.000199011	   21.1036	0.000216184	   21.0523	0.000251261	   21.0492	0.000222152	   21.0492	    5.5538	
   21.0631	0.000204503	   21.1759	0.000221381	   21.1255	0.000256937	   21.1215	0.000227607	   21.1215	   5.69017	
   21.1346	0.000209823	   21.2472	0.000226725	   21.1973	0.000262616	    21.193	0.000233055	    21.193	   5.82637	
   21.2051	0.000214929	   21.3173	0.000232218	   21.2674	0.000268308	   21.2633	0.000238485	   21.2633	   5.96212	
   21.2744	0.000219873	   21.3865	0.00023777	   21.3366	0.000274016	   21.3325	0.000243886	   21.3325	   6.09715	
   21.3429	0.000224737	   21.4546	0.000243262	   21.4051	0.000279726	   21.4009	0.000249242	   21.4009	   6.23104	
   21.4111	0.00022963	   21.5227	0.000248585	   21.4732	0.000285423	    21.469	0.000254546	    21.469	   6.36365	
   21.4784	0.00023465	   21.5899	0.000253699	   21.5406	0.000291081	   21.5363	0.00025981	   21.5363	   6.49524	
   21.5448	0.000239833	   21.6562	0.000258642	   21.6072	0.000296666	   21.6027	0.000265047	   21.6027	   6.62617	
     21.61	0.000245139	   21.7217	0.000263514	   21.6732	0.000302173	   21.6683	0.000270275	   21.6683	   6.75688	
   21.6742	0.000250482	   21.7868	0.000268431	   21.7388	0.000307603	   21.7333	0.000275505	   21.7333	   6.88763	
   21.7383	0.000255745	   21.8506	0.000273472	   21.8035	0.000312993	   21.7975	0.000280737	   21.7975	   7.01842	
   21.8011	0.000260835	   21.9131	0.000278655	   21.8677	0.000318383	   21.8606	0.000285958	   21.8606	   7.14894	
   21.8633	0.000265748	   21.9752	0.000283923	   21.9302	0.000323816	   21.9229	0.000291162	   21.9229	   7.27906	
   21.9244	0.000270514	   22.0365	0.000289177	   21.9918	0.000329296	   21.9842	0.000296329	   21.9842	   7.40823	
   21.9843	0.000275247	   22.0971	0.000294315	   22.0527	0.000334816	   22.0447	0.000301459	   22.0447	   7.53648	
   22.0433	0.000280027	   22.1566	0.000299277	   22.1128	0.000340326	   22.1043	0.000306543	   22.1043	   7.66358	
    22.102	0.000284929	   22.2148	0.000304059	   22.1719	0.000345799	   22.1629	0.000311596	   22.1629	    7.7899	
   22.1594	0.00028996	   22.2718	0.000308731	   22.2304	0.000351188	   22.2205	0.000316626	   22.2205	   7.91565	
   22.2158	0.000295077	   22.3278	0.000313394	   22.2884	0.000356493	   22.2773	0.000321655	   22.2773	   8.04137	
   22.2712	0.000300188	   22.3826	0.000318139	   22.3459	0.000361722	   22.3332	0.000326683	   22.3332	   8.16708	
   22.3259	0.000305216	   22.4361	0.000323007	   22.4026	0.000366875	   22.3882	0.000331699	   22.3882	   8.29248	
   22.3797	0.000310082	   22.4892	0.000327977	   22.4584	0.000372016	   22.4424	0.000336692	   22.4424	   8.41729	
   22.4329	0.000314802	   22.5407	0.000332978	   22.5133	0.000377144	   22.4956	0.000341642	   22.4956	   8.54104	
   22.4854	0.000319413	   22.5918	0.000337909	   22.5673	0.000382299	   22.5482	0.00034654	   22.5482	   8.66351	
   22.5366	0.000324008	   22.6424	0.000342688	   22.6202	0.000387495	   22.5997	0.000351397	   22.5997	   8.78492	
    22.587	0.00032867	    22.692	0.000347296	   22.6714	0.000392731	   22.6501	0.000356232	   22.6501	   8.90581	
   22.6368	0.000333438	   22.7406	0.000351767	   22.7217	0.000397962	   22.6997	0.000361056	   22.6997	    9.0264	
    22.685	0.000338279	   22.7884	0.000356184	   22.7701	0.000403159	   22.7479	0.000365874	   22.7479	   9.14685	
   22.7326	0.000343134	   22.8349	0.000360635	   22.8176	0.000408254	    22.795	0.000370674	    22.795	   9.26686	
   22.7794	0.000347927	   22.8801	0.000365186	   22.8641	0.000413227	   22.8412	0.000375446	   22.8412	   9.38616	
   22.8257	0.000352599	   22.9248	0.000369839	   22.9095	0.000418072	   22.8867	0.00038017	   22.8867	   9.50424	
   22.8702	0.000357134	   22.9691	0.000374553	   22.9532	0.000422834	   22.9309	0.00038484	   22.9309	     9.621	
    22.914	0.00036155	   23.0123	0.000379259	   22.9961	0.000427577	   22.9742	0.000389462	   22.9742	   9.73656	
    22.957	0.000365915	   23.0547	0.000383882	   23.0385	0.000432363	   23.0167	0.000394053	   23.0167	   9.85133	
   22.9993	0.000370298	   23.0966	0.000388359	   23.0802	0.000437217	   23.0587	0.000398625	   23.0587	   9.96562	
   23.0407	0.000374747	   23.1378	0.000392682	   23.1204	0.000442136	   23.0997	0.000403188	   23.0997	   10.0797	
   23.0815	0.000379282	   23.1784	0.000396878	   23.1599	0.000447073	     23.14	0.000407744	     23.14	   10.1936	
   23.1212	0.000383861	   23.2186	0.000401022	   23.1986	0.000451962	   23.1795	0.000412282	   23.1795	    10.307	
   23.1599	0.000388433	   23.2579	0.000405197	   23.2361	0.000456745	    23.218	0.000416792	    23.218	   10.4198	
   23.1973	0.000392925	   23.2963	0.000409459	   23.2734	0.000461398	   23.2557	0.000421261	   23.2557	   10.5315	
   23.2331	0.000397297	   23.3337	0.000413801	   23.3101	0.000465929	   23.2923	0.000425676	   23.2923	   10.6419	
    23.268	0.000401534	   23.3697	0.000418197	    23.346	0.000470386	   23.3279	0.000430039	   23.3279	    10.751	
   23.3022	0.000405677	   23.4046	0.000422569	   23.3813	0.000474828	   23.3627	0.000434358	   23.3627	    10.859	
   23.3355	0.000409784	   23.4385	0.000426861	   23.4157	0.000479308	   23.3966	0.000438651	   23.3966	   10.9663	
   23.3679	0.000413923	   23.4716	0.000431031	   23.4489	0.000483839	   23.4295	0.000442931	   23.4295	   11.0733	
   23.3993	0.000418126	   23.5041	0.000435084	   23.4816	 0.0004884	   23.4617	0.000447203	   23.4617	   11.1801	
   23.4292	0.000422398	   23.5353	0.000439055	   23.5127	0.000492952	   23.4924	0.000451469	   23.4924	   11.2867	
   23.4585	0.000426695	   23.5657	0.000443011	   23.5429	0.000497445	   23.5224	0.000455717	   23.5224	   11.3929	
   23.4868	0.000430948	   23.5953	0.000446987	   23.5718	0.000501838	   23.5513	0.000459924	   23.5513	   11.4981	
    23.515	0.000435093	   23.6236	0.000451008	   23.6002	0.000506123	   23.5796	0.000464075	   23.5796	   11.6019	
    23.542	0.000439103	   23.6507	0.000455073	    23.628	0.000510319	   23.6069	0.000468165	   23.6069	   11.7041	
   23.5687	0.000442993	   23.6769	0.000459147	   23.6551	0.000514463	   23.6336	0.000472201	   23.6336	    11.805	
   23.5949	0.000446816	   23.7021	0.000463175	   23.6818	0.000518603	   23.6596	0.000476198	   23.6596	   11.9049	
   23.6207	0.000450644	   23.7265	0.000467118	    23.707	0.000522769	   23.6847	0.000480177	   23.6847	   12.0044	
   23.6453	0.000454534	     23.75	0.000470959	   23.7311	0.000526968	   23.7088	0.000484154	   23.7088	   12.1038	
   23.6686	0.000458505	    23.773	0.000474715	   23.7549	0.000531182	   23.7322	0.000488134	   23.7322	   12.2034	
   23.6911	0.000462533	   23.7947	0.000478406	   23.7776	0.00053537	   23.7545	0.000492103	   23.7545	   12.3026	
   23.7128	0.000466557	   23.8154	0.000482107	   23.7997	0.000539491	    23.776	0.000496052	    23.776	   12.4013	
   23.7336	0.000470514	   23.8356	0.000485829	   23.8208	0.000543518	   23.7967	0.000499954	   23.7967	   12.4988	
   23.7536	0.000474356	   23.8544	0.000489619	   23.8408	0.000547456	   23.8163	0.00050381	   23.8163	   12.5953	
   23.7732	0.000478078	   23.8724	0.00049346	   23.8602	0.000551332	   23.8352	0.000507623	   23.8352	   12.6906	
   23.7915	0.000481713	   23.8895	0.000497324	   23.8784	0.000555186	   23.8531	0.000511407	   23.8531	   12.7852	
   23.8086	0.000485315	   23.9054	0.000501155	   23.8956	0.000559058	   23.8698	0.000515176	   23.8698	   12.8794	
   23.8245	0.000488939	   23.9201	0.000504911	   23.9119	0.000562963	   23.8855	0.000518938	   23.8855	   12.9734	
   23.8386	0.000492622	   23.9345	0.000508535	   23.9269	0.000566922	      23.9	0.000522693	      23.9	   13.0673	
    23.852	0.000496362	   23.9485	0.000512046	   23.9413	0.000570871	   23.9139	0.000526426	   23.9139	   13.1607	
   23.8648	0.000500121	   23.9617	0.000515456	   23.9547	0.000574797	   23.9271	0.000530125	   23.9271	   13.2531	
   23.8766	0.000503849	   23.9741	0.000518839	   23.9672	0.000578631	   23.9393	0.000533773	   23.9393	   13.3443	
   23.8871	0.000507498	   23.9859	0.000522248	   23.9784	0.000582361	   23.9504	0.000537369	   23.9504	   13.4342	
   23.8967	0.000511041	   23.9971	0.000525717	    23.988	0.000585962	   23.9606	0.000540907	   23.9606	   13.5227	
   23.9054	0.000514486	   24.0068	0.000529249	   23.9966	0.00058946	   23.9696	0.000544398	   23.9696	     13.61	
   23.9134	0.000517867	   24.0155	0.000532814	   24.0041	0.000592892	   23.9777	0.000547858	   23.9777	   13.6964	
   23.9202	0.000521236	   24.0229	0.000536356	   24.0109	0.000596341	   23.9847	0.000551311	   23.9847	   13.7828	
   23.9247	0.000524636	    24.029	0.000539823	   24.0172	0.000599851	   23.9903	0.00055477	   23.9903	   13.8692	
   23.9287	0.000528088	   24.0343	0.000543174	   24.0222	0.000603459	    23.995	0.00055824	    23.995	    13.956	
   23.9316	0.000531579	   24.0385	0.000546413	   24.0266	0.000607119	   23.9989	0.000561704	   23.9989	   14.0426	
   23.9333	0.000535065	   24.0416	0.000549577	   24.0298	0.000610785	   24.0016	0.000565142	   24.0016	   14.1286	
   23.9343	0.000538493	   24.0438	0.00055273	   24.0315	0.000614378	   24.0032	0.000568534	   24.0032	   14.2133	
   23.9346	0.000541825	   24.0455	0.000555916	   24.0325	0.000617857	   24.0042	0.000571866	   24.0042	   14.2967	
   23.9343	0.000545048	   24.0462	0.000559172	   24.0322	0.000621202	   24.0042	0.000575141	   24.0042	   14.3785	
   23.9331	0.000548184	   24.0458	0.000562484	   24.0307	0.000624442	   24.0032	0.00057837	   24.0032	   14.4593	
   23.9308	0.000551276	   24.0438	0.000565811	   24.0284	0.000627641	    24.001	0.000581576	    24.001	   14.5394	
   23.9281	0.000554375	   24.0408	0.000569097	   24.0248	0.000630853	   23.9979	0.000584775	   23.9979	   14.6194	
   23.9244	0.000557508	   24.0369	0.000572307	   24.0201	0.000634111	   23.9938	0.000587975	   23.9938	   14.6994	
   23.9188	0.000560683	   24.0319	0.000575415	   24.0146	0.000637412	   23.9884	0.00059117	   23.9884	   14.7793	
   23.9128	0.000563874	   24.0261	0.000578429	   24.0084	0.000640727	   23.9824	0.000594343	   23.9824	   14.8586	
   23.9058	0.000567037	    24.019	0.000581371	   24.0013	0.000644001	   23.9754	0.00059747	   23.9754	   14.9367	
   23.8982	0.000570133	   24.0107	0.000584275	   23.9924	0.000647174	   23.9671	0.000600527	   23.9671	   15.0132	
   23.8896	0.000573138	   24.0016	0.000587183	   23.9828	0.000650221	    23.958	0.000603514	    23.958	   15.0878	
   23.8808	0.000576053	   23.9918	0.00059013	    23.972	0.000653167	   23.9482	0.00060645	   23.9482	   15.1613	
   23.8712	0.000578911	   23.9815	0.000593111	   23.9607	0.000656064	   23.9378	0.000609362	   23.9378	   15.2341	
   23.8609	0.000581752	     23.97	0.000596102	   23.9481	0.000658996	   23.9263	0.000612283	   23.9263	   15.3071	
   23.8495	0.000584611	   23.9574	0.000599078	    23.934	0.000662015	   23.9136	0.000615235	   23.9136	   15.3809	
   23.8372	0.000587509	   23.9438	0.000602005	   23.9191	0.000665126	      23.9	0.000618213	      23.9	   15.4553	
   23.8237	0.000590435	   23.9301	0.000604872	   23.9025	0.000668276	   23.8854	0.000621195	   23.8854	   15.5299	
   23.8095	0.000593357	   23.9152	0.000607677	   23.8848	 0.0006714	   23.8698	0.000624145	   23.8698	   15.6036	
   23.7944	0.000596237	   23.8996	0.000610443	   23.8662	0.00067439	   23.8534	0.000627023	   23.8534	   15.6756	
   23.7788	0.000599043	   23.8831	0.000613188	   23.8469	0.000677231	   23.8363	0.000629821	   23.8363	   15.7455	
   23.7623	0.000601767	   23.8663	0.000615936	   23.8274	0.000679914	   23.8186	0.000632539	   23.8186	   15.8135	
   23.7456	0.000604423	   23.8483	0.000618685	   23.8081	0.000682517	   23.8006	0.000635208	   23.8006	   15.8802	
   23.7283	0.000607049	   23.8293	0.000621424	   23.7886	0.000685098	   23.7821	0.000637857	   23.7821	   15.9464	
   23.7102	0.000609682	   23.8091	0.00062414	   23.7692	0.000687745	   23.7628	0.000640522	   23.7628	   16.0131	
   23.6909	0.000612347	   23.7879	0.000626818	   23.7485	0.000690464	   23.7425	0.00064321	   23.7425	   16.0802	
   23.6708	0.000615046	   23.7661	0.000629443	   23.7273	0.000693278	   23.7214	0.000645922	   23.7214	   16.1481	
   23.6498	0.000617756	   23.7436	0.000632022	   23.7049	0.000696117	   23.6994	0.000648632	   23.6994	   16.2158	
   23.6278	0.000620445	     23.72	0.00063457	   23.6813	0.000698928	   23.6764	0.000651314	   23.6764	   16.2829	
   23.6053	0.000623075	   23.6956	0.000637101	   23.6569	0.00070164	   23.6526	0.000653939	   23.6526	   16.3485	
    23.582	0.000625629	   23.6704	0.000639625	   23.6309	0.000704229	   23.6277	0.000656494	   23.6277	   16.4124	
   23.5572	0.000628112	   23.6442	0.000642144	   23.6047	0.000706681	   23.6021	0.000658979	   23.6021	   16.4745	
   23.5312	0.000630546	   23.6165	0.00064465	   23.5769	0.00070905	   23.5749	0.000661415	   23.5749	   16.5354	
   23.5045	0.000632963	   23.5878	0.000647131	   23.5485	0.000711395	   23.5469	0.00066383	   23.5469	   16.5957	
   23.4769	0.000635394	   23.5582	0.000649574	   23.5196	0.00071379	   23.5182	0.000666253	   23.5182	   16.6563	
    23.449	0.00063785	   23.5277	0.000651971	   23.4903	0.000716258	    23.489	0.000668693	    23.489	   16.7173	
   23.4205	0.000640324	   23.4963	0.000654325	   23.4604	0.000718794	   23.4591	0.000671148	   23.4591	   16.7787	
   23.3911	0.000642793	   23.4638	0.000656646	   23.4293	0.000721337	   23.4281	0.000673592	   23.4281	   16.8398	
   23.3601	0.00064523	   23.4306	0.000658945	   23.3969	0.000723824	   23.3959	0.000675999	   23.3959	      16.9	
   23.3283	0.000647607	   23.3962	0.000661234	   23.3633	0.000726196	   23.3626	0.000678346	   23.3626	   16.9586	
    23.295	0.000649916	    23.361	0.00066352	   23.3291	0.000728444	   23.3284	0.000680627	   23.3284	   17.0157	
   23.2608	0.000652164	   23.3251	0.000665799	   23.2937	0.000730588	   23.2932	0.00068285	   23.2932	   17.0713	
   23.2249	0.000654375	   23.2883	0.000668061	   23.2576	0.000732693	   23.2569	0.000685043	   23.2569	   17.1261	
   23.1881	0.000656572	   23.2504	0.000670288	    23.221	0.000734819	   23.2198	0.000687226	   23.2198	   17.1807	
   23.1507	0.000658779	   23.2119	0.000672465	   23.1837	0.000737014	   23.1821	0.000689419	   23.1821	   17.2355	
   23.1125	0.000660954	   23.1727	0.000674593	   23.1455	0.000739279	   23.1436	0.000691609	   23.1436	   17.2902	
   23.0733	0.000663124	   23.1317	0.000676676	   23.1066	0.000741582	   23.1039	0.000693794	   23.1039	   17.3448	
   23.0333	0.000665286	   23.0898	0.000678729	   23.0665	0.000743859	   23.0632	0.000695958	   23.0632	   17.3989	
   22.9927	0.000667456	    23.047	0.000680768	   23.0256	0.000746054	   23.0218	0.000698093	   23.0218	   17.4523	
   22.9509	0.00066963	   23.0037	0.000682807	   22.9839	0.000748131	   22.9795	0.000700189	   22.9795	   17.5047	
   22.9084	0.000671797	   22.9594	0.000684845	   22.9408	0.000750094	   22.9362	0.000702245	   22.9362	   17.5561	
    22.864	0.00067393	   22.9146	0.000686875	   22.8969	0.00075198	   22.8918	0.000704262	   22.8918	   17.6065	
   22.8187	0.000676027	    22.869	0.00068888	   22.8512	0.000753857	   22.8463	0.000706255	   22.8463	   17.6564	
    22.772	0.000678051	   22.8225	0.000690842	   22.8048	0.000755772	   22.7998	0.000708222	   22.7998	   17.7055	
   22.7246	0.000679992	   22.7748	0.000692754	   22.7576	0.000757763	   22.7523	0.00071017	   22.7523	   17.7543	
   22.6764	0.00068186	   22.7267	0.000694619	   22.7092	0.000759839	   22.7041	0.000712106	   22.7041	   17.8026	
   22.6275	0.00068368	   22.6776	0.000696447	   22.6597	0.00076193	   22.6549	0.000714019	   22.6549	   17.8505	
   22.5777	0.000685488	   22.6273	0.000698255	   22.6096	0.000763996	   22.6049	0.000715913	   22.6049	   17.8978	
   22.5273	0.000687318	    22.576	0.000700052	   22.5589	0.000765953	   22.5541	0.000717774	   22.5541	   17.9444	
   22.4765	0.000689169	   22.5241	0.000701827	   22.5073	0.000767768	   22.5026	0.000719588	   22.5026	   17.9897	
   22.4255	0.000691025	   22.4716	0.000703617	   22.4551	0.000769443	   22.4508	0.000721362	   22.4508	    18.034	
   22.3732	0.000692873	   22.4186	0.000705401	   22.4025	0.000771033	   22.3981	0.000723102	   22.3981	   18.0776	
   22.3203	0.000694677	   22.3648	0.000707206	   22.3486	0.000772611	   22.3446	0.000724832	   22.3446	   18.1208	
   22.2663	0.000696438	   22.3105	0.000709009	    22.294	0.00077427	   22.2902	0.000726572	   22.2902	   18.1643	
   22.2107	0.000698165	    22.255	0.000710834	   22.2381	0.00077604	   22.2346	0.000728346	   22.2346	   18.2087	
   22.1546	0.000699881	   22.1987	0.000712645	   22.1814	0.000777912	   22.1782	0.000730146	   22.1782	   18.2537	
   22.0975	0.000701614	   22.1417	0.000714416	   22.1239	0.000779815	    22.121	0.000731949	    22.121	   18.2987	
    22.039	0.000703364	   22.0835	0.000716082	   22.0657	0.000781659	   22.0627	0.000733702	   22.0627	   18.3425	
   21.9792	0.000705102	   22.0244	 0.0007176	   22.0069	0.000783366	   22.0035	0.000735356	   22.0035	   18.3839	
   21.9189	0.000706797	   21.9652	0.000718982	   21.9471	0.000784904	   21.9437	0.000736894	   21.9437	   18.4224	
   21.8579	0.000708413	    21.906	0.000720254	   21.8872	0.000786291	   21.8837	0.000738319	   21.8837	    18.458	
   21.7956	0.000709944	    21.847	0.000721492	   21.8262	0.000787602	   21.8229	0.000739679	   21.8229	    18.492	
   21.7328	0.00071142	   21.7864	0.000722813	    21.765	0.000788925	   21.7614	0.000741053	   21.7614	   18.5263	
   21.6691	0.00071288	    21.727	0.00072428	   21.7033	0.000790331	   21.6998	0.000742497	   21.6998	   18.5624	
   21.6046	0.000714371	   21.6633	0.000725909	   21.6417	0.000791835	   21.6365	0.000744038	   21.6365	    18.601	
   21.5396	0.000715897	   21.5983	0.000727671	   21.5785	0.000793409	   21.5721	0.000745659	   21.5721	   18.6415	
   21.4739	0.000717446	   21.5322	0.000729433	   21.5136	0.000794977	   21.5066	0.000747285	   21.5066	   18.6821	
   21.4083	0.000718983	   21.4615	0.000731078	   21.4478	0.000796458	   21.4392	0.00074884	   21.4392	    18.721	
   21.3415	0.000720477	   21.3904	0.000732507	    21.381	0.000797797	    21.371	0.00075026	    21.371	   18.7565	
   21.2741	0.000721884	   21.3171	0.000733682	   21.3131	0.000798989	   21.3015	0.000751518	   21.3015	    18.788	
    21.206	0.000723218	   21.2436	0.000734681	   21.2445	0.000800081	   21.2314	0.00075266	   21.2314	   18.8165	
   21.1366	0.000724482	   21.1702	0.000735624	   21.1745	0.000801149	   21.1604	0.000753752	   21.1604	   18.8438	
   21.0663	0.000725727	   21.0963	0.000736645	    21.104	0.000802263	   21.0889	0.000754879	   21.0889	    18.872	
   20.9955	0.00072698	   21.0226	0.000737837	   21.0324	0.000803459	   21.0168	0.000756092	   21.0168	   18.9023	
   20.9233	0.000728286	   20.9483	0.000739217	   20.9598	0.000804729	   20.9438	0.000757411	   20.9438	   18.9353	
   20.8509	0.000729626	   20.8727	0.000740699	   20.8861	0.00080603	   20.8699	0.000758785	   20.8699	   18.9696	
   20.7775	0.000731003	   20.7959	0.000742159	   20.8118	0.000807297	   20.7951	0.000760153	   20.7951	   19.0038	
   20.7032	0.000732366	    20.719	0.000743484	    20.737	0.000808482	   20.7197	0.000761444	   20.7197	   19.0361	
   20.6283	0.000733689	   20.6406	0.000744597	   20.6616	0.000809564	   20.6435	0.000762617	   20.6435	   19.0654	
   20.5526	0.000734933	   20.5611	0.000745502	   20.5857	0.000810561	   20.5665	0.000763666	   20.5665	   19.0916	
   20.4764	0.000736098	   20.4809	0.000746279	   20.5089	0.000811513	   20.4887	0.00076463	   20.4887	   19.1158	
   20.3996	0.000737201	   20.3995	0.000747046	   20.4319	0.000812473	   20.4103	0.000765573	   20.4103	   19.1393	
   20.3226	0.00073829	   20.3177	0.000747908	   20.3538	0.000813463	   20.3314	0.000766554	   20.3314	   19.1638	
   20.2449	0.000739392	   20.2358	0.000748915	   20.2747	0.000814506	   20.2518	0.000767605	   20.2518	   19.1901	
   20.1661	0.000740536	   20.1533	0.000750053	    20.194	0.000815576	   20.1711	0.000768722	   20.1711	    19.218	
   20.0868	0.000741719	   20.0706	0.000751242	    20.113	0.000816635	   20.0901	0.000769866	   20.0901	   19.2466	
   20.0068	0.000742912	   19.9873	0.000752376	   20.0314	0.000817622	   20.0085	0.00077097	   20.0085	   19.2742	
   19.9255	0.00074407	   19.9041	0.000753363	   19.9489	0.000818508	   19.9262	0.00077198	   19.9262	   19.2995	
   19.8436	0.000745163	   19.8199	0.00075417	   19.8659	0.000819279	   19.8431	0.000772871	   19.8431	   19.3218	
   19.7609	0.000746172	    19.735	0.00075483	   19.7814	0.000819978	   19.7591	0.00077366	   19.7591	   19.3415	
   19.6772	0.000747106	   19.6496	0.000755424	   19.6963	0.000820658	   19.6744	0.000774396	   19.6744	   19.3599	
   19.5923	0.000747997	   19.5634	0.000756058	   19.6101	0.000821381	   19.5886	0.000775145	   19.5886	   19.3786	
   19.5064	0.000748891	   19.4768	0.000756814	   19.5233	0.000822182	   19.5022	0.000775962	   19.5022	   19.3991	
   19.4188	0.000749817	   19.3898	0.00075771	   19.4357	0.000823041	   19.4148	0.000776856	   19.4148	   19.4214	
   19.3305	0.000750788	   19.3027	0.000758703	   19.3477	0.000823912	    19.327	0.000777801	    19.327	    19.445	
   19.2411	0.000751782	   19.2143	0.000759703	   19.2592	0.000824717	   19.2382	0.000778734	   19.2382	   19.4684	
   19.1512	0.00075276	   19.1252	0.000760614	   19.1699	0.000825413	   19.1487	0.000779596	   19.1487	   19.4899	
   19.0605	0.000753678	   19.0359	0.000761366	   19.0796	0.000825982	   19.0587	0.000780342	   19.0587	   19.5086	
   18.9694	0.00075451	   18.9459	0.000761959	   18.9892	0.000826464	   18.9682	0.000780978	   18.9682	   19.5244	
   18.8773	0.000755261	   18.8551	0.000762449	   18.8982	0.000826898	   18.8769	0.000781536	   18.8769	   19.5384	
   18.7847	0.000755957	   18.7632	0.00076293	   18.8061	0.00082735	   18.7847	0.000782079	   18.7847	    19.552	
   18.6907	0.000756634	   18.6701	0.000763487	    18.713	0.000827858	   18.6913	0.00078266	   18.6913	   19.5665	
   18.5965	0.000757329	   18.5763	0.000764169	   18.6191	0.000828392	   18.5973	0.000783297	   18.5973	   19.5824	
   18.5016	0.000758064	   18.4819	0.000764964	   18.5244	0.000828952	   18.5027	0.000783993	   18.5027	   19.5998	
    18.406	0.000758829	   18.3876	0.000765802	   18.4291	0.000829468	   18.4075	 0.0007847	   18.4075	   19.6175	
   18.3102	0.000759595	   18.2931	0.000766591	   18.3329	0.000829921	   18.3121	0.000785369	   18.3121	   19.6342	
   18.2141	0.000760328	   18.1976	0.000767259	   18.2365	0.000830306	   18.2161	0.000785964	   18.2161	   19.6491	
   18.1168	0.000760997	   18.1017	0.000767778	   18.1393	0.000830647	   18.1192	0.000786474	   18.1192	   19.6619	
   18.0188	0.000761594	   18.0051	0.000768172	   18.0413	0.000830976	   18.0217	0.000786914	   18.0217	   19.6729	
     17.92	0.000762133	   17.9076	0.000768516	   17.9422	0.000831337	   17.9233	0.000787329	   17.9233	   19.6832	
   17.8202	0.000762643	   17.8095	0.000768891	   17.8427	0.000831722	   17.8241	0.000787752	   17.8241	   19.6938	
   17.7196	0.000763153	   17.7097	0.000769355	   17.7432	0.000832131	   17.7242	0.000788213	   17.7242	   19.7053	
   17.6187	0.000763683	   17.6093	0.000769917	   17.6433	0.000832512	   17.6238	0.000788704	   17.6238	   19.7176	
    17.517	0.000764233	   17.5083	0.000770542	   17.5421	0.00083284	   17.5225	0.000789205	   17.5225	   19.7301	
   17.4151	0.000764786	   17.4064	0.000771158	   17.4405	0.000833066	   17.4207	0.00078967	   17.4207	   19.7417	
   17.3125	0.000765316	   17.3045	0.000771686	   17.3379	0.000833207	   17.3183	0.00079007	   17.3183	   19.7517	
   17.2096	0.000765798	   17.2016	0.000772083	   17.2349	0.000833273	   17.2153	0.000790385	   17.2153	   19.7596	
   17.1063	0.000766218	   17.0981	0.000772351	    17.131	0.00083333	   17.1118	0.000790633	   17.1118	   19.7658	
   17.0018	0.000766584	   16.9941	0.000772534	   17.0259	0.000833429	   17.0073	0.000790849	   17.0073	   19.7712	
   16.8962	0.000766915	   16.8899	 0.0007727	   16.9198	0.000833625	   16.9019	0.00079108	   16.9019	    19.777	
   16.7901	0.00076724	   16.7844	0.000772918	   16.8134	0.000833913	    16.796	0.000791357	    16.796	   19.7839	
   16.6833	0.000767581	   16.6784	0.000773216	   16.7059	0.000834273	   16.6892	0.00079169	   16.6892	   19.7922	
   16.5755	0.000767945	   16.5719	0.000773585	    16.597	0.000834627	   16.5815	0.000792052	   16.5815	   19.8013	
    16.467	0.000768323	   16.4645	0.000773974	   16.4876	0.000834911	    16.473	0.000792403	    16.473	   19.8101	
   16.3579	0.000768696	   16.3566	0.000774314	   16.3767	0.000835078	   16.3638	0.000792696	   16.3638	   19.8174	
   16.2483	0.000769033	   16.2487	0.000774553	   16.2654	0.00083513	   16.2541	0.000792905	   16.2541	   19.8226	
   16.1376	0.000769314	     16.14	0.00077467	   16.1534	0.000835095	   16.1437	0.000793026	   16.1437	   19.8257	
   16.0259	0.000769532	   16.0304	0.000774685	   16.0407	0.000835043	   16.0323	0.000793087	   16.0323	   19.8272	
   15.9139	0.000769702	   15.9197	0.000774652	   15.9275	0.000835035	   15.9204	0.00079313	   15.9204	   19.8282	
    15.801	0.000769843	   15.8086	0.00077463	   15.8144	0.000835111	    15.808	0.000793195	    15.808	   19.8299	
   15.6873	0.00076998	    15.696	0.000774662	   15.7009	0.000835271	   15.6947	0.000793304	   15.6947	   19.8326	
   15.5734	0.000770131	   15.5827	0.000774763	    15.587	0.000835475	    15.581	0.000793456	    15.581	   19.8364	
   15.4587	0.000770295	   15.4692	0.000774905	   15.4724	0.000835655	   15.4668	0.000793619	   15.4668	   19.8405	
   15.3426	0.00077046	   15.3555	0.000775045	   15.3576	0.000835758	   15.3519	0.000793755	   15.3519	   19.8439	
   15.2259	0.000770603	   15.2408	0.000775136	    15.242	0.000835757	   15.2363	0.000793832	   15.2363	   19.8458	
   15.1084	0.000770702	   15.1252	0.000775142	   15.1255	0.000835665	   15.1197	0.000793836	   15.1197	   19.8459	
   14.9912	0.000770744	   15.0092	0.000775055	   15.0088	0.00083553	   15.0031	0.000793776	   15.0031	   19.8444	
   14.8739	0.00077073	   14.8928	0.000774892	   14.8912	0.000835404	   14.8859	0.000793675	   14.8859	   19.8419	
   14.7557	0.000770675	   14.7755	0.000774685	   14.7732	0.000835328	   14.7681	0.000793563	   14.7681	   19.8391	
   14.6367	0.000770606	   14.6575	0.000774478	   14.6549	0.000835314	   14.6497	0.000793466	   14.6497	   19.8367	
   14.5174	0.00077054	   14.5384	0.000774304	   14.5353	0.000835337	   14.5304	0.000793394	   14.5304	   19.8348	
   14.3971	0.000770488	   14.4192	0.000774166	   14.4159	0.000835352	   14.4107	0.000793335	   14.4107	   19.8334	
   14.2762	0.00077044	   14.2998	0.00077407	   14.2957	0.000835307	   14.2906	0.000793272	   14.2906	   19.8318	
   14.1544	0.000770375	   14.1802	0.000773962	    14.175	0.000835162	   14.1699	0.000793166	   14.1699	   19.8292	
   14.0322	0.00077027	   14.0601	0.000773816	   14.0532	0.00083491	   14.0485	0.000792999	   14.0485	    19.825	
   13.9092	0.000770112	   13.9392	0.000773592	   13.9311	0.000834576	   13.9265	0.00079276	   13.9265	    19.819	
   13.7859	0.000769901	   13.8179	0.00077329	   13.8088	0.000834214	   13.8042	0.000792468	   13.8042	   19.8117	
   13.6619	0.000769648	   13.6962	0.000772927	   13.6862	0.000833881	   13.6815	0.000792152	   13.6815	   19.8038	
   13.5382	0.000769375	   13.5739	0.000772548	   13.5636	0.000833615	   13.5586	0.000791846	   13.5586	   19.7961	
   13.4147	0.000769099	   13.4509	0.000772174	   13.4405	0.000833421	   13.4354	0.000791565	   13.4354	   19.7891	
   13.2907	0.00076883	   13.3273	0.000771829	   13.3168	0.000833269	   13.3116	0.000791309	   13.3116	   19.7827	
   13.1661	0.00076856	   13.2033	0.000771499	   13.1932	0.000833099	   13.1875	0.000791053	   13.1875	   19.7763	
   13.0411	0.000768272	   13.0784	0.000771164	   13.0686	0.00083285	   13.0627	0.000790762	   13.0627	    19.769	
   12.9156	0.000767948	   12.9529	0.000770793	   12.9436	0.000832477	   12.9374	0.000790406	   12.9374	   19.7602	
   12.7899	0.000767577	   12.8271	0.000770371	   12.8173	0.000831991	   12.8114	0.00078998	   12.8114	   19.7495	
   12.6636	0.000767156	   12.7005	0.000769886	   12.6908	0.000831421	    12.685	0.000789487	    12.685	   19.7372	
   12.5376	0.000766695	   12.5735	0.000769353	   12.5633	0.000830834	   12.5581	0.000788961	   12.5581	    19.724	
   12.4105	0.000766214	   12.4456	0.000768788	   12.4348	0.000830273	   12.4303	0.000788425	   12.4303	   19.7106	
   12.2829	0.000765727	   12.3174	0.000768214	   12.3064	0.00082977	   12.3023	0.000787904	   12.3023	   19.6976	
    12.155	0.000765242	   12.1886	0.000767644	   12.1779	0.000829305	   12.1738	0.000787397	   12.1738	   19.6849	
   12.0267	0.000764758	   12.0596	0.000767088	   12.0487	0.000828854	    12.045	 0.0007869	    12.045	   19.6725	
   11.8975	0.000764261	   11.9301	0.000766532	   11.9186	0.000828365	   11.9154	0.000786386	   11.9154	   19.6597	
   11.7674	0.000763735	   11.8002	0.000765964	    11.788	0.000827803	   11.7852	0.000785834	   11.7852	   19.6459	
   11.6368	0.000763169	   11.6695	0.000765363	   11.6566	0.000827147	   11.6543	0.000785226	   11.6543	   19.6307	
   11.5059	0.000762557	   11.5386	0.000764719	   11.5244	0.000826407	    11.523	0.000784561	    11.523	    19.614	
   11.3747	0.000761876	   11.4075	0.000764028	   11.3924	0.000825613	   11.3915	0.000783839	   11.3915	    19.596	
   11.2434	0.000761175	   11.2755	0.000763301	   11.2604	0.000824806	   11.2597	0.000783094	   11.2597	   19.5773	
   11.1115	0.000760478	   11.1434	0.000762555	   11.1278	0.000824018	   11.1276	0.00078235	   11.1276	   19.5588	
   10.9792	0.000759838	    11.011	0.000761806	   10.9952	0.000823263	   10.9952	0.000781635	   10.9952	   19.5409	
   10.8465	0.000759249	   10.8779	0.000761062	   10.8615	0.000822524	    10.862	0.000780945	    10.862	   19.5236	
   10.7131	0.000758688	   10.7447	0.000760324	   10.7275	0.000821769	   10.7284	0.00078026	   10.7284	   19.5065	
   10.5796	0.000758103	   10.6102	0.000759579	   10.5925	0.000820958	   10.5941	0.000779547	   10.5941	   19.4887	
   10.4456	0.000757458	   10.4745	0.000758808	    10.457	0.000820062	   10.4591	0.000778776	   10.4591	   19.4694	
   10.3113	0.000756685	   10.3387	0.000757992	   10.3204	0.000819072	   10.3234	0.000777917	   10.3234	   19.4479	
   10.1765	0.000755785	   10.2027	0.000757127	   10.1832	0.000818007	   10.1875	0.000776973	   10.1875	   19.4243	
    10.042	0.00075478	   10.0672	0.000756215	   10.0459	0.000816903	   10.0517	0.000775966	   10.0517	   19.3991	
   9.90757	0.000753727	   9.93037	0.00075527	   9.90871	0.000815794	   9.91555	0.000774931	   9.91555	   19.3733	
   9.77261	0.000752693	   9.79334	0.000754309	   9.77117	0.000814706	   9.77904	0.000773903	   9.77904	   19.3476	
   9.63726	0.000751726	    9.6556	0.000753352	   9.63318	0.000813644	   9.64201	0.000772907	   9.64201	   19.3227	
   9.50155	0.000750826	   9.51821	 0.0007524	   9.49507	0.00081259	   9.50494	0.000771939	   9.50494	   19.2985	
   9.36554	0.000749969	   9.38004	0.000751442	   9.35692	0.000811505	    9.3675	0.000770972	    9.3675	   19.2743	
   9.22895	0.000749094	   9.24122	0.000750486	   9.21841	0.00081036	   9.22952	0.00076998	   9.22952	   19.2495	
   9.09187	0.000748139	   9.10147	0.000749483	   9.07924	0.000809133	   9.09086	0.000768919	   9.09086	    19.223	
   8.95442	0.000747074	   8.96095	0.000748445	   8.93994	0.000807826	   8.95177	0.000767782	   8.95177	   19.1945	
   8.81638	 0.0007459	   8.82059	0.000747326	   8.79964	0.000806456	    8.8122	0.000766561	    8.8122	    19.164	
   8.67777	0.000744653	   8.68083	0.00074613	   8.65944	0.000805055	   8.67268	0.00076528	   8.67268	    19.132	
   8.53951	0.00074339	   8.54053	0.000744854	   8.51902	0.000803649	   8.53302	0.000763964	   8.53302	   19.0991	
   8.40045	0.000742151	   8.40019	0.000743518	   8.37846	0.000802253	   8.39303	0.00076264	   8.39303	    19.066	
   8.26113	0.000740961	    8.2595	0.000742157	   8.23787	0.000800862	   8.25283	0.000761327	   8.25283	   19.0332	
   8.12116	0.00073981	   8.11912	0.000740831	   8.09714	0.000799463	   8.11247	0.000760035	   8.11247	   19.0009	
   7.98114	0.000738667	   7.97854	0.000739551	   7.95576	0.000798028	   7.97181	0.000758749	   7.97181	   18.9687	
   7.83999	0.000737495	   7.83747	0.000738323	   7.81384	0.000796536	   7.83043	0.000757451	   7.83043	   18.9363	
   7.69903	0.000736269	   7.69602	0.000737112	   7.67191	0.000794976	   7.68899	0.000756119	   7.68899	    18.903	
   7.55716	0.000734939	    7.5547	0.000735867	   7.53005	0.00079336	    7.5473	0.000754722	    7.5473	    18.868	
   7.41492	0.000733539	   7.41357	0.000734537	   7.38833	0.000791701	   7.40561	0.000753259	   7.40561	   18.8315	
   7.27132	0.000732047	   7.27246	0.000733105	   7.24627	0.000790023	   7.26335	0.000751725	   7.26335	   18.7931	
   7.12728	0.000730546	    7.1309	0.000731566	   7.10335	0.000788341	   7.12051	0.000750151	   7.12051	   18.7538	
   6.98291	0.000729084	     6.989	0.000729965	   6.96012	0.000786658	   6.97734	0.000748569	   6.97734	   18.7142	
   6.83794	0.000727708	   6.84647	0.000728351	   6.81748	0.000784966	   6.83396	0.000747009	   6.83396	   18.6752	
   6.69251	0.000726396	   6.70386	0.00072676	   6.67466	0.000783246	   6.69034	0.000745467	   6.69034	   18.6367	
   6.54674	0.000725129	   6.56084	0.000725213	   6.53178	0.000781487	   6.54645	0.000743943	   6.54645	   18.5986	
   6.40123	0.000723803	   6.41738	0.000723697	   6.38869	0.000779674	   6.40243	0.000742391	   6.40243	   18.5598	
   6.25518	0.000722371	   6.27336	0.000722171	   6.24494	0.000777809	   6.25783	0.000740784	   6.25783	   18.5196	
   6.10835	0.000720798	   6.12893	0.000720597	   6.10066	0.000775896	   6.11265	0.000739097	   6.11265	   18.4774	
   5.96128	0.000719091	   5.98381	0.00071894	   5.95599	0.000773956	   5.96702	0.000737329	   5.96702	   18.4332	
   5.81448	0.000717311	   5.83854	0.000717187	   5.81105	0.000771997	   5.82136	0.000735498	   5.82136	   18.3875	
   5.66725	0.000715527	   5.69322	0.000715363	   5.66556	0.000770026	   5.67534	0.000733638	   5.67534	    18.341	
   5.51987	0.000713787	   5.54772	0.000713504	   5.51981	0.000768047	   5.52913	0.000731779	   5.52913	   18.2945	
    5.3719	0.000712117	   5.40081	0.000711653	   5.37376	0.000766048	   5.38216	0.000729939	   5.38216	   18.2485	
    5.2235	0.000710503	   5.25308	0.000709837	   5.22714	0.000764017	   5.23458	0.000728119	   5.23458	    18.203	
    5.0752	0.000708896	   5.10472	0.000708051	   5.08088	0.000761936	   5.08693	0.000726294	   5.08693	   18.1574	
   4.92707	0.000707256	   4.95626	0.000706259	   4.93387	0.000759786	   4.93907	0.000724434	   4.93907	   18.1108	
   4.77844	0.00070552	   4.80742	0.000704427	   4.78665	0.000757572	   4.79083	0.000722507	   4.79083	   18.0627	
   4.62959	0.000703675	   4.65786	0.000702534	   4.63879	0.000755307	   4.64208	0.000720505	   4.64208	   18.0126	
   4.48051	0.000701735	   4.50823	0.000700586	   4.49099	0.000753023	   4.49324	0.000718448	   4.49324	   17.9612	
    4.3313	0.000699757	   4.35823	0.000698602	   4.34217	0.000750744	    4.3439	0.000716368	    4.3439	   17.9092	
   4.18169	0.000697777	   4.20723	0.000696611	   4.19369	0.00074848	   4.19421	0.000714289	   4.19421	   17.8572	
   4.03143	0.000695845	   4.05503	0.000694628	   4.04446	0.000746215	   4.04364	0.000712229	   4.04364	   17.8057	
   3.88139	0.000693951	   3.90269	0.000692652	   3.89534	0.000743925	   3.89314	0.000710176	   3.89314	   17.7544	
   3.73094	0.00069207	   3.74948	0.000690634	   3.74612	0.000741563	   3.74218	0.000708089	   3.74218	   17.7022	
   3.58023	0.000690149	   3.59638	0.000688576	    3.5969	0.000739122	   3.59117	0.000705949	   3.59117	   17.6487	
   3.42979	0.00068815	    3.4435	0.000686436	   3.44819	0.000736594	   3.44049	0.000703727	   3.44049	   17.5932	
   3.27931	0.000686044	   3.29132	0.000684236	   3.29848	0.000734006	    3.2897	0.000701429	    3.2897	   17.5357	
   3.12929	0.000683849	    3.1407	0.000681979	   3.14952	0.000731383	   3.13984	0.00069907	   3.13984	   17.4768	
   2.97934	0.000681592	   2.99098	0.000679695	   3.00051	0.000728756	   2.99028	0.000696681	   2.99028	    17.417	
   2.82963	0.000679322	   2.84165	0.00067739	   2.85162	0.000726131	   2.84097	0.000694281	   2.84097	    17.357	
   2.68026	0.000677068	   2.69239	0.000675097	   2.70256	0.000723513	   2.69174	0.000691893	   2.69174	   17.2973	
   2.53051	0.000674848	    2.5437	0.000672811	   2.55304	0.000720883	   2.54242	0.000689514	   2.54242	   17.2379	
   2.38091	0.000672645	   2.39484	0.000670542	   2.40361	0.00071822	   2.39312	0.000687136	   2.39312	   17.1784	
   2.23117	0.00067042	   2.24593	0.000668252	   2.25359	0.000715501	   2.24356	0.000684724	   2.24356	   17.1181	
   2.08101	0.000668128	   2.09638	0.000665914	   2.10312	0.000712714	    2.0935	0.000682252	    2.0935	   17.0563	
   1.93096	0.000665741	   1.94665	0.000663483	   1.95235	0.000709852	   1.94332	0.000679692	   1.94332	   16.9923	
   1.78113	0.000663255	   1.79687	0.000660962	   1.80142	0.000706933	   1.79314	0.00067705	   1.79314	   16.9263	
   1.63121	0.000660687	   1.64675	0.000658354	   1.65045	0.000703973	    1.6428	0.000674338	    1.6428	   16.8584	
   1.48171	0.000658069	   1.49683	0.000655708	   1.49955	0.000700996	    1.4927	0.000671591	    1.4927	   16.7898	
   1.33192	0.00065544	   1.34679	0.000653057	   1.34922	0.000698011	   1.34264	0.000668836	   1.34264	   16.7209	
   1.18282	0.000652819	   1.19732	0.000650441	   1.19866	0.00069503	   1.19293	0.000666097	   1.19293	   16.6524	
   1.03361	0.000650206	   1.04712	0.000647851	   1.04808	0.000692034	   1.04294	0.000663364	   1.04294	   16.5841	
   0.88361	0.000647584	  0.896777	0.000645275	  0.897581	0.000689007	  0.892656	0.000660622	  0.892656	   16.5155	
   0.73339	0.000644921	  0.745997	0.000642664	  0.747273	0.000685922	   0.74222	0.000657836	   0.74222	   16.4459	
  0.583466	0.00064219	  0.594933	0.000639985	  0.596071	0.000682769	   0.59149	0.000654981	   0.59149	   16.3745	
  0.433295	0.000639377	  0.443878	 0.0006372	  0.445021	0.000679544	  0.440732	0.00065204	  0.440732	    16.301	
  0.283239	0.000636491	   0.29239	0.000634319	  0.294536	0.000676262	  0.290055	0.000649024	  0.290055	   16.2256	
  0.132999	0.000633557	  0.141403	0.000631363	    0.1435	0.000672942	  0.139301	0.000645954	  0.139301	   16.1488	
-0.0172997	0.000630604	-0.00979745	0.000628376	-0.00792867	0.000669603	-0.0116753	0.000642861	-0.0116753	   16.0715	
 -0.167542	0.000627653	   -0.1603	0.000625393	 -0.159605	0.000666252	 -0.162482	0.000639766	 -0.162482	   15.9941	
  -0.31802	0.000624706	 -0.310442	0.000622442	 -0.310612	0.000662892	 -0.313025	0.00063668	 -0.313025	    15.917	
 -0.468525	0.000621747	  -0.46109	0.000619511	 -0.461912	0.000659505	 -0.463842	0.000633588	 -0.463842	   15.8397	
 -0.619414	0.000618751	  -0.61233	0.000616575	 -0.612745	0.000656073	  -0.61483	0.000630466	  -0.61483	   15.7617	
 -0.770153	0.00061569	  -0.76361	0.000613592	 -0.763429	0.00065258	 -0.765731	0.000627288	 -0.765731	   15.6822	
 -0.921431	0.000612552	 -0.914812	0.000610534	 -0.914653	0.000649021	 -0.916965	0.000624036	 -0.916965	   15.6009	
  -1.07231	0.000609339	  -1.06544	0.000607386	  -1.06509	0.000645397	  -1.06761	0.000620707	  -1.06761	   15.5177	
   -1.2231	0.000606076	  -1.21582	0.000604159	  -1.21468	0.000641731	  -1.21787	0.000617322	  -1.21787	    15.433	
   -1.3737	0.000602792	  -1.36618	0.000600886	  -1.36482	0.000638044	  -1.36823	0.000613907	  -1.36823	   15.3477	
  -1.52442	0.000599513	   -1.5165	0.000597602	   -1.5151	0.000634352	  -1.51867	0.000610489	  -1.51867	   15.2622	
  -1.67473	0.000596245	  -1.66705	0.000594338	  -1.66502	0.000630652	  -1.66893	0.000607078	  -1.66893	    15.177	
  -1.82574	0.000592976	  -1.81772	0.000591096	   -1.8149	0.000626932	  -1.81945	0.000603668	  -1.81945	   15.0917	
  -1.97649	0.000589677	  -1.96877	0.000587858	  -1.96423	0.000623154	  -1.96983	0.00060023	  -1.96983	   15.0058	
  -2.12691	0.000586317	  -2.12006	0.000584596	  -2.11297	0.000619301	  -2.11998	0.000596738	  -2.11998	   14.9184	
  -2.27667	0.000582877	  -2.27108	0.000581268	  -2.26183	0.000615359	  -2.26986	0.000593168	  -2.26986	   14.8292	
  -2.42635	0.000579355	  -2.42212	0.000577856	  -2.41031	0.000611349	  -2.41959	0.00058952	  -2.41959	    14.738	
  -2.57584	0.00057577	  -2.57346	0.000574356	  -2.55913	0.000607293	  -2.56948	0.000585807	  -2.56948	   14.6452	
  -2.72506	0.000572148	  -2.72418	0.000570787	  -2.70815	0.000603233	  -2.71913	0.000582056	  -2.71913	   14.5514	
  -2.87392	0.000568515	  -2.87462	0.000567176	  -2.85726	0.000599174	   -2.8686	0.000578288	   -2.8686	   14.4572	
  -3.02197	0.000564885	  -3.02547	0.000563557	  -3.00681	0.000595127	  -3.01808	0.000574523	  -3.01808	   14.3631	
  -3.17033	0.000561255	   -3.1762	0.000559949	  -3.15618	0.000591067	  -3.16757	0.000570757	  -3.16757	   14.2689	
   -3.3189	0.00055761	  -3.32672	0.000556352	  -3.30569	0.000586976	   -3.3171	0.000566979	   -3.3171	   14.1745	
  -3.46714	0.00055392	  -3.47691	0.000552745	  -3.45482	0.000582814	  -3.46629	0.00056316	  -3.46629	    14.079	
  -3.61577	0.000550165	  -3.62632	0.000549095	  -3.60428	0.000578577	  -3.61546	0.000559279	  -3.61546	    13.982	
  -3.76467	0.000546339	  -3.77569	0.000545373	  -3.75277	0.000574251	  -3.76437	0.000555321	  -3.76437	    13.883	
  -3.91353	0.000542449	  -3.92474	0.000541565	   -3.9019	0.000569864	  -3.91339	0.000551293	  -3.91339	   13.7823	
  -4.06242	0.000538517	  -4.07358	0.000537679	  -4.05145	0.000565426	  -4.06248	0.000547208	  -4.06248	   13.6802	
  -4.21046	0.000534569	   -4.2221	0.000533744	  -4.20088	0.000560961	  -4.21115	0.000543091	  -4.21115	   13.5773	
  -4.35877	0.000530623	  -4.37141	0.000529782	   -4.3501	0.000556476	  -4.36009	0.00053896	  -4.36009	    13.474	
  -4.50686	0.00052668	  -4.52056	0.00052581	   -4.4994	0.000551989	  -4.50894	0.000534826	  -4.50894	   13.3707	
  -4.65502	0.000522724	  -4.66906	0.000521837	  -4.64869	0.000547511	  -4.65759	0.000530691	  -4.65759	   13.2673	
  -4.80339	0.000518731	  -4.81748	0.000517848	   -4.7984	0.000543029	  -4.80643	0.000526536	  -4.80643	   13.1634	
   -4.9524	0.000514676	   -4.9659	0.000513832	  -4.94863	0.000538523	  -4.95564	0.000522344	  -4.95564	   13.0586	
   -5.1015	0.000510548	  -5.11381	0.000509762	  -5.09884	0.000533975	  -5.10472	0.000518095	  -5.10472	   12.9524	
  -5.25019	0.000506349	  -5.26233	0.000505636	  -5.24813	0.000529347	  -5.25355	0.000513778	  -5.25355	   12.8444	
  -5.39878	0.000502096	  -5.41132	0.000501462	  -5.39726	0.000524629	  -5.40245	0.000509396	  -5.40245	   12.7349	
  -5.54759	0.00049781	  -5.56024	0.000497247	  -5.54535	0.000519833	  -5.55106	0.000504963	  -5.55106	   12.6241	
  -5.69576	0.000493511	  -5.70922	0.000493013	   -5.6938	0.000514977	  -5.69959	 0.0005005	  -5.69959	   12.5125	
  -5.84398	0.000489205	  -5.85792	0.000488761	  -5.84185	0.000510095	  -5.84792	0.00049602	  -5.84792	   12.4005	
  -5.99134	0.000484892	  -6.00627	0.000484495	  -5.99022	0.000505221	  -5.99594	0.000491536	  -5.99594	   12.2884	
   -6.1386	0.000480557	  -6.15496	0.000480212	  -6.13878	0.000500355	  -6.14411	0.000487041	  -6.14411	    12.176	
  -6.28528	0.000476183	  -6.30309	0.000475898	  -6.28701	0.000495483	   -6.2918	0.000482521	   -6.2918	    12.063	
  -6.43095	0.000471755	   -6.4514	0.000471541	  -6.43532	0.00049059	  -6.43922	0.000477962	  -6.43922	   11.9491	
  -6.57636	0.000467267	  -6.59896	0.000467135	  -6.58313	0.000485636	  -6.58615	0.000473346	  -6.58615	   11.8336	
  -6.72106	0.000462722	  -6.74654	0.000462679	  -6.73076	0.000480605	  -6.73279	0.000468669	  -6.73279	   11.7167	
  -6.86541	0.000458135	  -6.89443	0.000458182	  -6.87774	0.00047549	  -6.87919	0.000463935	  -6.87919	   11.5984	
  -7.00935	0.000453522	  -7.04092	0.000453652	  -7.02482	0.000470311	  -7.02503	0.000459162	  -7.02503	    11.479	
  -7.15322	0.000448897	    -7.188	0.000449102	   -7.1715	0.000465085	  -7.17091	0.000454362	  -7.17091	    11.359	
  -7.29654	0.000444268	  -7.33458	0.000444534	  -7.31794	0.000459863	  -7.31635	0.000449555	  -7.31635	   11.2389	
  -7.43967	0.00043963	  -7.48155	0.000439949	  -7.46422	0.000454653	  -7.46181	0.000444744	  -7.46181	   11.1186	
  -7.58254	0.000434974	   -7.6276	0.000435336	  -7.61027	0.000449471	   -7.6068	0.000439927	   -7.6068	   10.9982	
  -7.72547	0.000430289	  -7.77311	0.000430687	  -7.75562	0.000444291	   -7.7514	0.000435089	   -7.7514	   10.8772	
  -7.86878	0.000425565	  -7.91763	0.000425993	  -7.90062	0.000439082	  -7.89568	0.000430213	  -7.89568	   10.7553	
  -8.01155	0.000420801	  -8.06116	0.000421253	  -8.04521	0.000433808	  -8.03931	0.000425287	  -8.03931	   10.6322	
  -8.15446	  0.000416	  -8.20471	0.000416473	  -8.18934	0.00042845	  -8.18284	0.000420308	  -8.18284	   10.5077	
  -8.29749	0.000411168	  -8.34796	0.000411663	  -8.33296	0.000423012	  -8.32614	0.000415281	  -8.32614	    10.382	
  -8.44015	0.000406316	  -8.49124	0.000406829	  -8.47641	0.000417523	  -8.46927	0.000410223	  -8.46927	   10.2556	
  -8.58279	0.000401455	  -8.63485	0.000401979	  -8.61884	0.000412018	  -8.61216	0.000405151	  -8.61216	   10.1288	
  -8.72533	0.000396587	   -8.7779	0.000397114	  -8.76024	0.000406531	  -8.75449	0.000400078	  -8.75449	   10.0019	
  -8.86768	0.000391764	  -8.92035	0.000392229	  -8.90102	0.000401077	  -8.89635	0.000395024	  -8.89635	   9.87559	
  -9.01018	0.000386962	  -9.06225	0.000387306	  -9.04131	0.000395644	  -9.03791	0.000389971	  -9.03791	   9.74927	
  -9.15194	0.000382113	  -9.20426	0.000382365	   -9.1817	 0.0003902	   -9.1793	0.000384893	   -9.1793	   9.62231	
  -9.29334	0.000377186	   -9.3459	0.000377366	  -9.32172	0.000384707	  -9.32032	0.000379753	  -9.32032	   9.49383	
  -9.43355	0.000372078	  -9.48713	0.000372343	  -9.46093	0.000379134	  -9.46053	0.000374518	  -9.46053	   9.36296	
  -9.57298	0.000366792	  -9.62829	0.000367262	  -9.59971	0.000373478	  -9.60032	0.000369177	  -9.60032	   9.22944	
  -9.71106	0.000361381	  -9.76914	0.000362127	  -9.73803	0.000367756	  -9.73941	0.000363755	  -9.73941	   9.09387	
  -9.84683	0.000355914	  -9.90903	0.000356927	  -9.87547	0.000362004	  -9.87711	0.000358282	  -9.87711	   8.95704	
  -9.98395	0.000350484	  -10.0479	0.000351684	  -10.0132	0.000356259	   -10.015	0.000352809	   -10.015	   8.82022	
  -10.1187	0.000345213	  -10.1859	0.000346401	  -10.1512	0.000350543	  -10.1519	0.000347386	  -10.1519	   8.68464	
  -10.2551	0.000340086	  -10.3244	0.000341137	  -10.2889	0.000344852	  -10.2895	0.000342025	  -10.2895	   8.55063	
  -10.3947	0.000335075	  -10.4619	0.000335899	  -10.4262	0.000339261	  -10.4276	0.000336745	  -10.4276	   8.41863	
  -10.5329	0.000330078	  -10.5998	0.000330711	  -10.5636	0.000333653	  -10.5655	0.000331481	  -10.5655	   8.28701	
  -10.6747	0.000324976	  -10.7369	0.000325553	   -10.701	0.000327979	  -10.7042	0.000326169	  -10.7042	   8.15423	
  -10.8146	0.000319687	  -10.8737	0.000320396	  -10.8379	0.00032214	  -10.8421	0.000320741	  -10.8421	   8.01853	
  -10.9551	0.000314222	    -11.01	0.000315196	  -10.9739	0.000316118	  -10.9797	0.000315179	  -10.9797	   7.87947	
  -11.0944	0.000308631	  -11.1459	0.000309929	  -11.1091	0.00030995	  -11.1164	0.000309503	  -11.1164	   7.73758	
  -11.2321	0.000303019	  -11.2806	0.000304574	   -11.241	0.000303746	  -11.2512	0.00030378	  -11.2512	   7.59449	
  -11.3694	0.000297474	   -11.415	0.00029915	  -11.3728	0.000297586	  -11.3857	0.00029807	  -11.3857	   7.45175	
  -11.5064	0.000292032	  -11.5486	0.000293686	  -11.5032	0.000291607	  -11.5194	0.000292442	  -11.5194	   7.31104	
  -11.6422	0.000286674	  -11.6818	0.000288224	  -11.6329	0.000285811	  -11.6523	0.000286903	  -11.6523	   7.17257	
  -11.7769	0.000281345	  -11.8141	0.00028279	  -11.7676	0.000280153	  -11.7862	0.000281429	  -11.7862	   7.03573	
  -11.9113	0.000275967	   -11.946	0.000277392	  -11.8996	0.000274531	   -11.919	0.000275963	   -11.919	   6.89908	
  -12.0446	0.000270489	  -12.0771	0.00027201	   -12.033	0.000268822	  -12.0516	0.00027044	  -12.0516	   6.76101	
  -12.1767	0.000264874	  -12.2075	0.000266619	  -12.1674	0.00026292	  -12.1839	0.000264804	  -12.1839	    6.6201	
   -12.309	0.000259165	  -12.3374	0.000261183	  -12.3014	0.000256821	  -12.3159	0.000259057	  -12.3159	   6.47641	
  -12.4397	0.000253419	  -12.4666	0.000255681	  -12.4358	0.000250566	  -12.4474	0.000253222	  -12.4474	   6.33055	
  -12.5707	0.000247713	  -12.5954	0.000250111	  -12.5681	0.000244268	   -12.578	0.000247364	   -12.578	    6.1841	
  -12.7006	0.000242095	  -12.7234	0.000244489	  -12.6999	0.000238048	   -12.708	0.000241544	   -12.708	    6.0386	
  -12.8292	0.000236576	  -12.8513	0.000238847	  -12.8304	0.000231983	  -12.8369	0.000235802	  -12.8369	   5.89505	
  -12.9577	0.000231123	  -12.9784	0.000233215	  -12.9601	0.000226072	  -12.9654	0.000230137	  -12.9654	   5.75342	
   -13.086	0.000225648	  -13.1055	0.000227613	  -13.0879	0.000220259	  -13.0931	0.000224507	  -13.0931	   5.61267	
  -13.2137	0.000220096	  -13.2323	0.000222032	  -13.2159	0.000214431	  -13.2206	0.000218853	  -13.2206	   5.47132	
  -13.3408	0.00021439	  -13.3591	0.000216448	   -13.344	0.000208505	   -13.348	0.000213114	   -13.348	   5.32785	
  -13.4677	0.000208561	  -13.4855	0.000210828	  -13.4707	0.000202417	  -13.4746	0.000207268	  -13.4746	   5.18171	
  -13.5939	0.000202668	  -13.6109	0.000205147	  -13.5979	0.000196175	  -13.6009	0.00020133	  -13.6009	   5.03324	
    -13.72	0.000196808	   -13.736	0.000199399	  -13.7236	0.000189845	  -13.7265	0.000195351	  -13.7265	   4.88377	
   -13.845	0.000191054	  -13.8607	0.000193611	  -13.8495	0.000183521	  -13.8518	0.000189395	  -13.8518	   4.73489	
  -13.9688	0.000185448	  -13.9851	0.000187814	  -13.9752	0.000177279	  -13.9764	0.000183514	  -13.9764	   4.58784	
  -14.0922	0.000179927	  -14.1084	0.00018204	  -14.0995	0.000171163	     -14.1	0.00017771	     -14.1	   4.44276	
  -14.2147	0.000174418	   -14.231	0.000176299	  -14.2232	0.000165153	   -14.223	0.000171957	   -14.223	   4.29893	
  -14.3369	0.000168823	  -14.3523	0.000170588	  -14.3465	0.000159193	  -14.3453	0.000166201	  -14.3453	   4.15503	
  -14.4584	0.000163085	  -14.4728	0.000164859	  -14.4685	0.000153198	  -14.4665	0.000160381	  -14.4665	   4.00952	
  -14.5792	0.000157212	  -14.5931	0.000159093	  -14.5896	 0.0001471	  -14.5873	0.000154468	  -14.5873	   3.86171	
  -14.6993	0.000151275	   -14.713	0.000153257	  -14.7101	0.000140868	  -14.7075	0.000148467	  -14.7075	   3.71167	
  -14.8189	0.000145355	  -14.8325	0.000147357	  -14.8306	0.000134527	  -14.8273	0.000142413	  -14.8273	   3.56032	
  -14.9374	0.000139532	  -14.9516	0.000141396	  -14.9501	0.000128136	  -14.9464	0.000136355	  -14.9464	   3.40887	
  -15.0552	0.000133839	  -15.0701	0.00013542	  -15.0694	0.000121772	  -15.0649	0.000130344	  -15.0649	   3.25859	
  -15.1721	0.000128249	  -15.1879	0.000129454	  -15.1882	0.000115493	  -15.1827	0.000124399	  -15.1827	   3.10996	
  -15.2882	0.000122699	  -15.3054	0.000123543	  -15.3064	0.000109318	     -15.3	0.00011852	     -15.3	     2.963	
  -15.4045	0.000117111	  -15.4223	0.000117693	   -15.424	0.000103213	   -15.417	0.000112672	   -15.417	   2.81681	
  -15.5202	0.000111435	  -15.5382	0.000111892	  -15.5408	9.71122e-05	  -15.5331	0.000106813	  -15.5331	   2.67033	
  -15.6352	0.00010567	  -15.6544	0.000106102	  -15.6572	9.09505e-05	  -15.6489	0.000100908	  -15.6489	   2.52269	
  -15.7495	9.98568e-05	  -15.7704	0.000100285	   -15.773	8.46819e-05	  -15.7643	9.49412e-05	  -15.7643	   2.37353	
  -15.8633	9.40187e-05	  -15.8852	9.43988e-05	   -15.888	7.83116e-05	  -15.8788	8.89097e-05	  -15.8788	   2.22274	
  -15.9767	8.82276e-05	  -15.9992	8.84409e-05	  -16.0028	7.18776e-05	  -15.9929	8.28487e-05	  -15.9929	   2.07122	
  -16.0893	8.24799e-05	  -16.1125	8.24283e-05	   -16.117	6.54464e-05	  -16.1063	7.67849e-05	  -16.1063	   1.91962	
  -16.2012	7.67934e-05	  -16.2251	7.64084e-05	  -16.2311	5.90786e-05	  -16.2191	7.07601e-05	  -16.2191	     1.769	
  -16.3124	7.11325e-05	  -16.3376	7.04236e-05	  -16.3444	5.27974e-05	  -16.3315	6.47845e-05	  -16.3315	   1.61961	
  -16.4234	6.54634e-05	  -16.4495	6.45124e-05	  -16.4568	4.6594e-05	  -16.4433	5.88566e-05	  -16.4433	   1.47142	
  -16.5335	5.97468e-05	   -16.561	5.86731e-05	  -16.5685	4.04224e-05	  -16.5544	5.29474e-05	  -16.5544	   1.32369	
  -16.6429	5.40152e-05	  -16.6721	5.28742e-05	    -16.68	3.4226e-05	   -16.665	4.70385e-05	   -16.665	   1.17596	
  -16.7511	4.82688e-05	  -16.7824	4.70698e-05	  -16.7907	2.79588e-05	  -16.7748	4.10991e-05	  -16.7748	   1.02748	
  -16.8588	4.25536e-05	   -16.892	4.12207e-05	  -16.9006	2.16038e-05	  -16.8838	3.5126e-05	  -16.8838	   0.87815	
  -16.9654	3.68883e-05	  -17.0005	3.52988e-05	    -17.01	1.51811e-05	   -16.992	2.91227e-05	   -16.992	  0.728068	
  -17.0713	3.12727e-05	  -17.1085	2.93173e-05	  -17.1186	8.73718e-06	  -17.0995	2.31091e-05	  -17.0995	  0.577727	
  -17.1764	2.56685e-05	  -17.2161	2.33083e-05	  -17.2262	2.32566e-06	  -17.2062	1.71008e-05	  -17.2062	  0.427521	
  -17.2803	2.0052e-05	  -17.3222	1.73201e-05	  -17.3324	-4.01284e-06	  -17.3116	1.11198e-05	  -17.3116	  0.277994	
  -17.3833	1.43819e-05	  -17.4278	1.13828e-05	   -17.437	-1.02682e-05	   -17.416	5.16548e-06	   -17.416	  0.129137	
   -17.486	8.64961e-06	  -17.5329	5.50974e-06	  -17.5402	-1.64611e-05	  -17.5197	-7.67254e-07	  -17.5197	-0.0191813	
  -17.5879	2.86652e-06	  -17.6376	-3.15285e-07	   -17.642	-2.26362e-05	  -17.6225	-6.69498e-06	  -17.6225	 -0.167375	
  -17.6889	-2.92703e-06	  -17.7415	-6.12166e-06	  -17.7435	-2.88432e-05	  -17.7246	-1.26306e-05	  -17.7246	 -0.315766	
  -17.7891	-8.69847e-06	  -17.8445	-1.1945e-05	  -17.8448	-3.51139e-05	  -17.8261	-1.85858e-05	  -17.8261	 -0.464644	
  -17.8895	-1.44118e-05	  -17.9466	-1.78077e-05	  -17.9455	-4.14495e-05	  -17.9272	-2.45564e-05	  -17.9272	 -0.613909	
  -17.9889	-2.00635e-05	  -18.0484	-2.37133e-05	  -18.0454	-4.78192e-05	  -18.0276	-3.0532e-05	  -18.0276	 -0.763301	
  -18.0875	-2.56605e-05	  -18.1491	-2.96456e-05	  -18.1442	-5.42198e-05	  -18.1269	-3.65086e-05	  -18.1269	 -0.912715	
  -18.1851	-3.12384e-05	  -18.2493	-3.55783e-05	  -18.2418	-6.05921e-05	  -18.2254	-4.24696e-05	  -18.2254	  -1.06174	
  -18.2822	-3.68316e-05	   -18.349	-4.14839e-05	  -18.3395	-6.68501e-05	  -18.3235	-4.83885e-05	  -18.3235	  -1.20971	
  -18.3784	-4.24719e-05	  -18.4477	-4.73425e-05	  -18.4368	-7.29815e-05	  -18.4209	-5.42653e-05	  -18.4209	  -1.35663	
  -18.4735	-4.81632e-05	  -18.5458	-5.31495e-05	  -18.5334	-7.89101e-05	  -18.5176	-6.00743e-05	  -18.5176	  -1.50186	
  -18.5681	-5.38887e-05	  -18.6426	-5.89162e-05	  -18.6292	-8.47184e-05	  -18.6133	-6.58411e-05	  -18.6133	  -1.64603	
   -18.662	-5.96148e-05	  -18.7392	-6.46645e-05	  -18.7247	-9.0499e-05	  -18.7086	-7.15928e-05	  -18.7086	  -1.78982	
  -18.7553	-6.53004e-05	  -18.8351	-7.04183e-05	  -18.8191	-9.63725e-05	  -18.8032	-7.73637e-05	  -18.8032	  -1.93409	
   -18.848	-7.09148e-05	  -18.9303	-7.61882e-05	  -18.9126	-0.000102402	   -18.897	-8.31683e-05	   -18.897	  -2.07921	
  -18.9403	-7.6455e-05	  -19.0247	-8.19709e-05	  -19.0054	-0.000108649	  -18.9901	-8.90248e-05	  -18.9901	  -2.22562	
  -19.0319	-8.19588e-05	  -19.1178	-8.77535e-05	  -19.0977	-0.000115021	  -19.0825	-9.49111e-05	  -19.0825	  -2.37278	
   -19.123	-8.73984e-05	  -19.2105	-9.35179e-05	  -19.1887	-0.000121432	  -19.1741	-0.000100783	  -19.1741	  -2.51957	
  -19.2137	-9.28688e-05	  -19.3026	-9.92487e-05	  -19.2791	-0.000127725	  -19.2652	-0.000106614	  -19.2652	  -2.66536	
  -19.3042	-9.83331e-05	  -19.3942	-0.000104941	  -19.3686	-0.000133813	  -19.3557	-0.000112362	  -19.3557	  -2.80906	
  -19.3941	-0.000103871	   -19.485	-0.0001106	  -19.4574	-0.000139665	  -19.4455	-0.000118045	  -19.4455	  -2.95113	
  -19.4828	-0.000109466	  -19.5756	-0.000116239	  -19.5457	-0.000145364	  -19.5347	-0.000123689	  -19.5347	  -3.09223	
  -19.5696	-0.000115121	  -19.6645	-0.000121872	  -19.6334	-0.000151011	  -19.6225	-0.000129335	  -19.6225	  -3.23337	
  -19.6549	-0.000120783	  -19.7523	-0.000127509	  -19.7198	-0.000156752	   -19.709	-0.000135015	   -19.709	  -3.37537	
  -19.7386	-0.000126416	  -19.8394	-0.000133149	  -19.8051	-0.000162656	  -19.7943	-0.00014074	  -19.7943	  -3.51851	
   -19.822	-0.000131915	  -19.9253	-0.000138778	  -19.8897	-0.00016872	   -19.879	-0.000146471	   -19.879	  -3.66178	
  -19.9033	-0.000137276	  -20.0099	-0.000144385	  -19.9742	-0.000174862	  -19.9625	-0.000152175	  -19.9625	  -3.80436	
  -19.9871	-0.000142489	  -20.0931	-0.000149956	  -20.0583	-0.000180966	  -20.0462	-0.000157804	  -20.0462	  -3.94509	
  -20.0693	-0.000147615	  -20.1758	-0.000155489	  -20.1414	-0.000186926	  -20.1289	-0.000163343	  -20.1289	  -4.08358	
   -20.153	-0.000152735	  -20.2578	-0.000160986	  -20.2245	-0.000192705	  -20.2118	-0.000168809	  -20.2118	  -4.22022	
  -20.2377	-0.000157944	  -20.3388	-0.000166458	  -20.3067	-0.00019833	  -20.2944	-0.000174244	  -20.2944	  -4.35611	
  -20.3219	-0.000163263	   -20.419	-0.000171922	  -20.3888	-0.000203892	  -20.3766	-0.000179692	  -20.3766	   -4.4923	
   -20.405	-0.000168693	  -20.4984	-0.000177389	  -20.4697	-0.000209486	  -20.4577	-0.000185189	  -20.4577	  -4.62973	
  -20.4864	-0.000174122	  -20.5766	-0.00018286	  -20.5493	-0.000215191	  -20.5374	-0.000190724	  -20.5374	  -4.76811	
  -20.5664	-0.000179515	  -20.6544	-0.000188327	  -20.6273	-0.000221031	   -20.616	-0.000196291	   -20.616	  -4.90727	
   -20.645	-0.0001848	  -20.7314	-0.000193777	  -20.7049	-0.000226965	  -20.6937	-0.000201848	  -20.6937	  -5.04619	
  -20.7222	-0.000189994	  -20.8075	-0.000199197	  -20.7813	-0.000232915	  -20.7703	-0.000207369	  -20.7703	  -5.18422	
  -20.7984	-0.000195114	  -20.8821	-0.000204579	  -20.8569	-0.000238795	  -20.8458	-0.000212829	  -20.8458	  -5.32073	
  -20.8737	-0.000200225	  -20.9563	-0.000209922	  -20.9311	-0.000244546	  -20.9204	-0.000218231	  -20.9204	  -5.45578	
  -20.9488	-0.000205355	  -21.0295	-0.000215232	  -21.0046	-0.00025015	  -20.9943	-0.000223579	  -20.9943	  -5.58948	
  -21.0227	-0.000210553	  -21.1026	-0.000220523	   -21.077	-0.00025564	  -21.0674	-0.000228906	  -21.0674	  -5.72264	
  -21.0969	-0.00021578	  -21.1748	-0.000225806	  -21.1489	-0.000261091	  -21.1402	-0.000234225	  -21.1402	  -5.85563	
  -21.1706	-0.000220992	  -21.2462	-0.000231087	  -21.2198	-0.000266582	  -21.2122	-0.000239554	  -21.2122	  -5.98885	
  -21.2436	-0.00022613	  -21.3166	-0.000236367	  -21.2901	-0.000272172	  -21.2834	-0.000244889	  -21.2834	  -6.12224	
  -21.3161	-0.000231163	  -21.3859	-0.000241634	  -21.3591	-0.000277864	  -21.3537	-0.00025022	  -21.3537	   -6.2555	
  -21.3875	-0.00023609	  -21.4543	-0.000246874	  -21.4271	-0.000283614	   -21.423	-0.000255526	   -21.423	  -6.38814	
  -21.4572	-0.000240953	  -21.5225	-0.000252078	  -21.4944	-0.000289351	  -21.4914	-0.000260794	  -21.4914	  -6.51985	
  -21.5257	-0.000245786	  -21.5893	-0.000257244	   -21.561	-0.000294999	  -21.5587	-0.000266009	  -21.5587	  -6.65023	
  -21.5926	-0.000250647	  -21.6552	-0.000262378	  -21.6269	-0.000300509	  -21.6249	-0.000271178	  -21.6249	  -6.77945	
  -21.6592	-0.000255552	    -21.72	-0.000267491	  -21.6924	-0.000305883	  -21.6905	-0.000276309	  -21.6905	  -6.90772	
  -21.7247	-0.000260493	  -21.7831	-0.000272595	  -21.7569	-0.000311174	  -21.7549	-0.000281421	  -21.7549	  -7.03553	
  -21.7896	-0.000265438	  -21.8461	-0.000277696	  -21.8206	-0.000316458	  -21.8188	-0.00028653	  -21.8188	  -7.16326	
  -21.8544	-0.000270339	  -21.9088	-0.00028279	  -21.8838	-0.000321807	  -21.8823	-0.000291645	  -21.8823	  -7.29114	
  -21.9172	-0.000275146	  -21.9709	-0.000287872	  -21.9456	-0.000327256	  -21.9446	-0.000296758	  -21.9446	  -7.41895	
  -21.9793	-0.000279852	  -22.0327	-0.000292932	  -22.0075	-0.000332786	  -22.0065	-0.000301857	  -22.0065	  -7.54642	
  -22.0397	-0.000284466	  -22.0929	-0.000297948	  -22.0688	-0.00033834	  -22.0671	-0.000306918	  -22.0671	  -7.67295	
  -22.0992	-0.000289029	  -22.1521	-0.000302904	  -22.1293	-0.000343836	  -22.1269	-0.000311923	  -22.1269	  -7.79808	
  -22.1572	-0.000293584	  -22.2099	-0.000307802	  -22.1885	-0.000349212	  -22.1852	-0.000316866	  -22.1852	  -7.92165	
  -22.2137	-0.000298172	  -22.2672	-0.000312667	   -22.247	-0.000354439	  -22.2426	-0.000321759	  -22.2426	  -8.04398	
  -22.2694	-0.000302804	  -22.3235	-0.000317536	  -22.3043	-0.000359552	  -22.2991	-0.000326631	  -22.2991	  -8.16576	
  -22.3245	-0.000307463	  -22.3789	-0.000322432	  -22.3609	-0.000364613	  -22.3548	-0.000331503	  -22.3548	  -8.28757	
  -22.3786	-0.000312104	   -22.434	-0.000327375	  -22.4161	-0.000369699	  -22.4096	-0.000336393	  -22.4096	  -8.40982	
  -22.4307	-0.000316687	  -22.4882	-0.000332355	  -22.4702	-0.000374878	  -22.4631	-0.000341307	  -22.4631	  -8.53267	
   -22.482	-0.000321178	  -22.5407	-0.000337315	  -22.5233	-0.000380192	  -22.5153	-0.000346228	  -22.5153	  -8.65571	
  -22.5323	-0.000325578	  -22.5925	-0.00034221	  -22.5756	-0.000385594	  -22.5668	-0.000351127	  -22.5668	  -8.77818	
  -22.5827	-0.000329919	  -22.6433	-0.000346999	  -22.6273	-0.00039099	  -22.6178	-0.000355969	  -22.6178	  -8.89924	
  -22.6324	-0.000334247	  -22.6932	-0.00035167	  -22.6784	-0.000396255	   -22.668	-0.000360724	   -22.668	   -9.0181	
  -22.6816	-0.000338604	   -22.743	-0.00035625	  -22.7284	-0.000401324	  -22.7177	-0.000365393	  -22.7177	  -9.13482	
  -22.7294	-0.000343012	  -22.7921	-0.000360805	  -22.7779	-0.000406159	  -22.7665	-0.000369992	  -22.7665	   -9.2498	
  -22.7766	-0.000347459	  -22.8405	-0.000365381	  -22.8264	-0.000410816	  -22.8145	-0.000374552	  -22.8145	   -9.3638	
  -22.8223	-0.000351907	  -22.8879	-0.000370025	  -22.8738	-0.000415425	  -22.8613	-0.000379119	  -22.8613	  -9.47798	
  -22.8673	-0.000356307	  -22.9347	-0.000374736	  -22.9205	-0.000420118	  -22.9075	-0.00038372	  -22.9075	  -9.59301	
  -22.9106	-0.000360626	  -22.9809	-0.000379479	  -22.9668	-0.000424982	  -22.9527	-0.000388363	  -22.9527	  -9.70906	
  -22.9538	-0.000364858	  -23.0258	-0.000384195	  -23.0121	-0.000430034	  -22.9972	-0.000393029	  -22.9972	  -9.82572	
  -22.9963	-0.00036902	    -23.07	-0.000388823	  -23.0564	-0.000435186	  -23.0409	-0.000397676	  -23.0409	  -9.94191	
   -23.039	-0.000373155	  -23.1129	-0.000393327	  -23.0992	-0.000440279	  -23.0837	-0.000402254	  -23.0837	  -10.0563	
  -23.0803	-0.000377307	  -23.1543	-0.00039772	  -23.1405	-0.000445193	   -23.125	-0.00040674	   -23.125	  -10.1685	
  -23.1212	-0.000381501	  -23.1948	-0.000402041	   -23.181	-0.000449834	  -23.1657	-0.000411126	  -23.1657	  -10.2781	
  -23.1614	-0.000385738	  -23.2346	-0.00040635	    -23.22	-0.00045423	  -23.2053	-0.000415439	  -23.2053	   -10.386	
  -23.2006	-0.000389991	  -23.2729	-0.000410704	  -23.2586	-0.000458426	   -23.244	-0.000419707	   -23.244	  -10.4927	
  -23.2382	-0.000394223	  -23.3106	-0.000415123	  -23.2962	-0.000462603	  -23.2817	-0.000423983	  -23.2817	  -10.5996	
   -23.275	-0.000398353	  -23.3475	-0.000419589	  -23.3331	-0.0004669	  -23.3185	-0.000428281	  -23.3185	   -10.707	
  -23.3109	-0.000402377	  -23.3843	-0.000424059	  -23.3693	-0.000471425	  -23.3548	-0.00043262	  -23.3548	  -10.8155	
  -23.3464	-0.000406327	  -23.4202	-0.000428479	  -23.4044	-0.000476151	  -23.3904	-0.000436986	  -23.3904	  -10.9246	
  -23.3806	-0.000410247	  -23.4555	-0.000432806	  -23.4385	-0.000480977	  -23.4249	-0.000441343	  -23.4249	  -11.0336	
  -23.4131	-0.000414212	  -23.4896	-0.000437025	  -23.4718	-0.000485722	  -23.4582	-0.000445653	  -23.4582	  -11.1413	
  -23.4443	-0.000418254	  -23.5235	-0.000441157	  -23.5035	-0.000490257	  -23.4904	-0.000449889	  -23.4904	  -11.2472	
  -23.4748	-0.00042236	   -23.556	-0.000445246	  -23.5348	-0.000494484	  -23.5219	-0.00045403	  -23.5219	  -11.3508	
  -23.5047	-0.000426497	  -23.5872	-0.000449338	  -23.5649	-0.000498441	  -23.5523	-0.000458092	  -23.5523	  -11.4523	
  -23.5332	-0.000430583	  -23.6181	-0.000453472	  -23.5938	-0.000502241	  -23.5817	-0.000462099	  -23.5817	  -11.5525	
  -23.5608	-0.00043454	  -23.6485	-0.000457656	  -23.6222	-0.000506058	  -23.6105	-0.000466084	  -23.6105	  -11.6521	
  -23.5873	-0.000438347	  -23.6783	-0.000461868	  -23.6501	-0.000510028	  -23.6386	-0.000470081	  -23.6386	   -11.752	
  -23.6129	-0.000442023	  -23.7068	-0.000466058	  -23.6771	-0.000514239	  -23.6656	-0.000474107	  -23.6656	  -11.8527	
  -23.6373	-0.000445632	  -23.7343	-0.000470172	  -23.7029	-0.000518649	  -23.6915	-0.000478151	  -23.6915	  -11.9538	
  -23.6607	-0.000449272	  -23.7613	-0.000474172	  -23.7277	-0.000523132	  -23.7166	-0.000482192	  -23.7166	  -12.0548	
  -23.6832	-0.000452977	  -23.7872	-0.000478057	  -23.7519	-0.000527569	  -23.7408	-0.000486201	  -23.7408	   -12.155	
   -23.705	-0.000456794	  -23.8121	-0.000481857	   -23.776	-0.000531796	  -23.7644	-0.000490149	  -23.7644	  -12.2537	
  -23.7263	-0.000460665	  -23.8359	-0.000485634	   -23.799	-0.000535751	  -23.7871	-0.000494017	  -23.7871	  -12.3504	
  -23.7465	-0.000464551	  -23.8588	-0.000489444	  -23.8217	-0.00053946	   -23.809	-0.000497818	   -23.809	  -12.4455	
  -23.7659	-0.000468385	  -23.8806	-0.000493315	  -23.8438	-0.000543034	  -23.8301	-0.000501578	  -23.8301	  -12.5394	
   -23.785	-0.000472144	   -23.901	-0.000497244	  -23.8651	-0.00054663	  -23.8504	-0.000505339	  -23.8504	  -12.6335	
  -23.8027	-0.000475834	  -23.9197	-0.000501192	  -23.8857	-0.000550369	  -23.8694	-0.000509132	  -23.8694	  -12.7283	
  -23.8198	-0.000479506	  -23.9383	-0.00050509	  -23.9048	-0.000554297	  -23.8876	-0.000512964	  -23.8876	  -12.8241	
  -23.8363	-0.00048314	   -23.956	-0.000508904	  -23.9227	-0.000558402	   -23.905	-0.000516816	   -23.905	  -12.9204	
  -23.8518	-0.000486745	  -23.9728	-0.000512602	  -23.9401	-0.000562578	  -23.9216	-0.000520642	  -23.9216	   -13.016	
  -23.8662	-0.000490292	  -23.9886	-0.0005162	  -23.9564	-0.00056669	  -23.9371	-0.000524394	  -23.9371	  -13.1099	
  -23.8796	-0.000493783	  -24.0032	-0.000519734	  -23.9722	-0.000570646	  -23.9517	-0.000528054	  -23.9517	  -13.2014	
  -23.8934	-0.000497229	  -24.0174	-0.000523257	  -23.9869	-0.000574401	  -23.9659	-0.000531629	  -23.9659	  -13.2907	
  -23.9073	-0.00050067	  -24.0307	-0.000526801	  -24.0002	-0.000578005	  -23.9794	-0.000535159	  -23.9794	   -13.379	
   -23.921	-0.000504093	  -24.0428	-0.000530386	  -24.0126	-0.000581583	  -23.9921	-0.000538687	  -23.9921	  -13.4672	
  -23.9341	-0.000507563	  -24.0542	-0.000533995	  -24.0248	-0.00058523	  -24.0044	-0.000542263	  -24.0044	  -13.5566	
  -23.9445	-0.000511059	  -24.0645	-0.000537588	  -24.0357	-0.000588994	  -24.0149	-0.00054588	  -24.0149	   -13.647	
   -23.953	-0.000514592	  -24.0737	-0.000541116	  -24.0465	-0.00059286	  -24.0244	-0.000549523	  -24.0244	  -13.7381	
  -23.9607	-0.000518131	  -24.0818	-0.000544549	  -24.0565	-0.000596744	   -24.033	-0.000553141	   -24.033	  -13.8285	
  -23.9673	-0.000521645	  -24.0891	-0.000547844	   -24.066	-0.00060056	  -24.0408	-0.000556683	  -24.0408	  -13.9171	
  -23.9717	-0.000525097	  -24.0962	 -0.000551	  -24.0758	-0.000604233	  -24.0479	-0.00056011	  -24.0479	  -14.0028	
  -23.9751	-0.000528468	  -24.1024	-0.000554105	  -24.0852	-0.000607717	  -24.0543	-0.00056343	  -24.0543	  -14.0858	
  -23.9778	-0.000531728	  -24.1071	-0.000557227	  -24.0941	-0.000611074	  -24.0596	-0.000566676	  -24.0596	  -14.1669	
  -23.9789	-0.000534898	  -24.1106	-0.000560498	  -24.1017	-0.000614401	  -24.0637	-0.000569932	  -24.0637	  -14.2483	
  -23.9806	-0.000538033	  -24.1134	-0.000563918	  -24.1073	-0.000617784	  -24.0671	-0.000573245	  -24.0671	  -14.3311	
  -23.9805	-0.000541182	   -24.114	-0.000567436	  -24.1115	-0.000621319	  -24.0687	-0.000576646	  -24.0687	  -14.4161	
  -23.9806	-0.000544397	  -24.1103	-0.000570946	   -24.114	-0.000624992	  -24.0683	-0.000580111	  -24.0683	  -14.5028	
  -23.9795	-0.000547695	  -24.1078	-0.000574333	  -24.1142	-0.000628753	  -24.0672	-0.000583594	  -24.0672	  -14.5898	
  -23.9783	-0.000551052	   -24.102	-0.000577454	  -24.1131	-0.000632475	  -24.0645	-0.000586994	  -24.0645	  -14.6748	
  -23.9759	-0.000554401	  -24.0975	-0.000580328	  -24.1114	-0.000636061	  -24.0616	-0.000590263	  -24.0616	  -14.7566	
   -23.972	-0.000557677	  -24.0946	 -0.000583	  -24.1077	-0.000639437	  -24.0581	-0.000593372	  -24.0581	  -14.8343	
   -23.968	-0.000560819	  -24.0892	-0.000585602	  -24.1037	-0.000642623	  -24.0536	-0.000596348	  -24.0536	  -14.9087	
  -23.9622	-0.00056382	  -24.0864	-0.000588279	  -24.0991	-0.00064569	  -24.0492	-0.000599263	  -24.0492	  -14.9816	
  -23.9563	-0.000566708	  -24.0823	-0.000591131	  -24.0928	-0.000648761	  -24.0438	-0.0006022	  -24.0438	   -15.055	
  -23.9493	-0.000569547	  -24.0774	-0.000594151	  -24.0862	-0.000651923	  -24.0376	-0.000605207	  -24.0376	  -15.1302	
   -23.942	-0.000572429	  -24.0708	-0.000597285	  -24.0768	-0.000655221	  -24.0299	-0.000608312	  -24.0299	  -15.2078	
  -23.9342	-0.000575414	  -24.0624	-0.000600398	  -24.0673	-0.000658628	  -24.0213	-0.00061148	  -24.0213	   -15.287	
  -23.9254	-0.000578535	  -24.0534	-0.00060336	  -24.0554	-0.000662062	  -24.0114	-0.000614652	  -24.0114	  -15.3663	
  -23.9166	-0.00058176	   -24.043	-0.000606105	  -24.0426	-0.000665406	  -24.0008	-0.000617757	  -24.0008	  -15.4439	
   -23.907	-0.000585003	  -24.0314	-0.000608643	  -24.0282	-0.000668581	  -23.9889	-0.000620742	  -23.9889	  -15.5186	
  -23.8968	-0.000588177	  -24.0175	-0.000611057	  -24.0126	-0.000671564	  -23.9757	-0.000623599	  -23.9757	    -15.59	
  -23.8855	-0.000591211	  -24.0035	-0.000613475	  -23.9969	-0.000674405	   -23.962	-0.000626363	   -23.962	  -15.6591	
  -23.8731	-0.00059406	  -23.9883	-0.000615989	  -23.9799	-0.000677198	  -23.9471	-0.000629082	  -23.9471	  -15.7271	
  -23.8602	-0.000596765	  -23.9708	-0.00061866	  -23.9625	-0.000680056	  -23.9312	-0.000631827	  -23.9312	  -15.7957	
  -23.8454	-0.000599392	   -23.953	-0.000621464	  -23.9438	-0.000683049	  -23.9141	-0.000634635	  -23.9141	  -15.8659	
  -23.8298	-0.000602031	   -23.934	-0.000624314	  -23.9246	-0.000686175	  -23.8961	-0.000637507	  -23.8961	  -15.9377	
  -23.8122	-0.000604769	  -23.9152	-0.000627099	  -23.9042	-0.000689369	  -23.8772	-0.000640412	  -23.8772	  -16.0103	
  -23.7946	-0.000607627	  -23.8951	-0.000629731	  -23.8833	-0.000692527	  -23.8577	-0.000643295	  -23.8577	  -16.0824	
  -23.7753	-0.000610569	  -23.8738	-0.000632179	  -23.8622	-0.000695547	  -23.8371	-0.000646098	  -23.8371	  -16.1525	
  -23.7555	-0.000613529	  -23.8512	-0.000634479	  -23.8392	-0.000698374	  -23.8153	-0.000648794	  -23.8153	  -16.2198	
  -23.7342	-0.000616421	  -23.8275	-0.000636715	  -23.8154	-0.000701023	  -23.7923	-0.000651386	  -23.7923	  -16.2847	
  -23.7118	-0.000619175	  -23.8031	-0.000638991	  -23.7907	-0.00070357	  -23.7686	-0.000653912	  -23.7686	  -16.3478	
  -23.6881	-0.000621777	  -23.7783	-0.000641382	  -23.7654	-0.000706108	  -23.7439	-0.000656422	  -23.7439	  -16.4106	
  -23.6644	-0.000624271	  -23.7526	-0.000643907	  -23.7396	-0.000708716	  -23.7189	-0.000658965	  -23.7189	  -16.4741	
  -23.6393	-0.000626725	  -23.7263	-0.000646518	  -23.7126	-0.000711424	  -23.6927	-0.000661556	  -23.6927	  -16.5389	
  -23.6132	-0.00062922	  -23.6992	-0.000649126	  -23.6846	-0.000714165	  -23.6657	-0.000664171	  -23.6657	  -16.6043	
  -23.5862	-0.000631803	  -23.6712	-0.000651635	  -23.6555	-0.000716884	  -23.6376	-0.000666774	  -23.6376	  -16.6693	
  -23.5578	-0.00063447	  -23.6419	-0.000653985	  -23.6258	-0.000719528	  -23.6085	-0.000669327	  -23.6085	  -16.7332	
   -23.529	-0.00063718	  -23.6123	-0.000656175	  -23.5951	-0.000722051	  -23.5788	-0.000671802	  -23.5788	   -16.795	
  -23.4985	-0.000639876	   -23.582	-0.000658261	  -23.5634	-0.000724475	   -23.548	-0.000674204	   -23.548	  -16.8551	
  -23.4669	-0.000642483	  -23.5517	-0.000660333	  -23.5308	-0.000726827	  -23.5165	-0.000676548	  -23.5165	  -16.9137	
  -23.4339	-0.000644955	  -23.5204	-0.000662476	  -23.4973	-0.000729149	  -23.4839	-0.00067886	  -23.4839	  -16.9715	
  -23.4002	-0.000647359	  -23.4881	-0.000664729	  -23.4629	-0.00073149	  -23.4504	-0.000681193	  -23.4504	  -17.0298	
  -23.3655	-0.000649653	  -23.4546	-0.000667077	  -23.4281	-0.000733856	  -23.4161	-0.000683529	  -23.4161	  -17.0882	
  -23.3301	-0.000651883	  -23.4202	-0.000669455	  -23.3924	-0.000736202	  -23.3809	-0.000685847	  -23.3809	  -17.1462	
  -23.2937	-0.000654056	   -23.385	-0.00067178	  -23.3563	-0.000738498	   -23.345	-0.000688111	   -23.345	  -17.2028	
  -23.2566	-0.000656167	  -23.3492	-0.000673979	  -23.3191	-0.000740694	  -23.3083	-0.00069028	  -23.3083	   -17.257	
  -23.2186	-0.000658241	  -23.3127	-0.000676022	  -23.2806	-0.000742771	  -23.2706	-0.000692345	  -23.2706	  -17.3086	
  -23.1799	-0.00066033	  -23.2747	-0.000677939	  -23.2407	-0.000744749	  -23.2318	-0.000694339	  -23.2318	  -17.3585	
  -23.1398	-0.00066241	  -23.2355	-0.000679752	  -23.2001	-0.00074667	  -23.1918	-0.000696278	  -23.1918	  -17.4069	
  -23.0981	-0.00066455	  -23.1954	-0.000681565	  -23.1594	-0.000748592	   -23.151	-0.000698235	   -23.151	  -17.4559	
  -23.0556	-0.000666732	  -23.1542	-0.000683456	  -23.1175	-0.000750559	  -23.1091	-0.000700249	  -23.1091	  -17.5062	
  -23.0117	-0.000668959	  -23.1117	-0.00068547	  -23.0746	-0.000752581	   -23.066	-0.000702337	   -23.066	  -17.5584	
  -22.9667	-0.000671187	  -23.0678	-0.000687611	  -23.0308	-0.000754639	  -23.0218	-0.000704479	  -23.0218	   -17.612	
  -22.9212	-0.000673372	  -23.0232	-0.000689805	  -22.9868	-0.000756685	  -22.9771	-0.000706621	  -22.9771	  -17.6655	
  -22.8746	-0.000675461	  -22.9775	-0.000691949	  -22.9413	-0.000758659	  -22.9312	-0.00070869	  -22.9312	  -17.7172	
  -22.8267	-0.000677433	  -22.9316	-0.000693968	  -22.8954	-0.00076051	  -22.8846	-0.000710637	  -22.8846	  -17.7659	
  -22.7777	-0.000679286	  -22.8843	-0.000695803	  -22.8492	-0.000762221	  -22.8371	-0.000712437	  -22.8371	  -17.8109	
  -22.7284	-0.000681066	  -22.8359	-0.000697462	  -22.8014	-0.000763845	  -22.7886	-0.000714124	  -22.7886	  -17.8531	
  -22.6782	-0.00068284	  -22.7873	-0.000699027	  -22.7532	-0.000765463	  -22.7396	-0.000715777	  -22.7396	  -17.8944	
  -22.6273	-0.000684672	  -22.7377	-0.000700589	  -22.7035	-0.000767172	  -22.6895	-0.000717478	  -22.6895	   -17.937	
  -22.5758	-0.000686587	  -22.6872	-0.000702215	  -22.6525	-0.000769017	  -22.6385	-0.000719273	  -22.6385	  -17.9818	
  -22.5229	-0.000688582	  -22.6362	-0.000703953	  -22.6009	-0.000770962	  -22.5867	-0.000721166	  -22.5867	  -18.0291	
  -22.4692	-0.000690599	  -22.5841	-0.000705783	  -22.5485	-0.000772921	  -22.5339	-0.000723101	  -22.5339	  -18.0775	
   -22.415	-0.000692569	   -22.531	-0.00070763	  -22.4951	-0.000774816	  -22.4803	-0.000725005	  -22.4803	  -18.1251	
    -22.36	-0.000694421	  -22.4773	-0.000709441	   -22.441	-0.000776518	  -22.4261	-0.000726794	  -22.4261	  -18.1698	
  -22.3041	-0.000696139	  -22.4232	-0.000711152	  -22.3865	-0.000778024	  -22.3713	-0.000728438	  -22.3713	   -18.211	
  -22.2477	-0.000697746	  -22.3686	-0.000712749	  -22.3314	-0.00077937	  -22.3159	-0.000729955	  -22.3159	  -18.2489	
  -22.1901	-0.000699315	  -22.3132	-0.000714263	  -22.2751	-0.000780631	  -22.2595	-0.000731403	  -22.2595	  -18.2851	
  -22.1321	-0.000700915	  -22.2574	-0.000715729	  -22.2183	-0.000781938	  -22.2026	-0.000732861	  -22.2026	  -18.3215	
  -22.0731	-0.000702587	  -22.2004	-0.000717192	  -22.1605	-0.000783397	  -22.1446	-0.000734392	  -22.1446	  -18.3598	
  -22.0137	-0.000704316	  -22.1422	-0.000718679	  -22.1014	-0.000784997	  -22.0858	-0.000735998	  -22.0858	  -18.3999	
  -21.9538	-0.000706063	   -22.084	-0.000720187	  -22.0411	-0.00078672	  -22.0263	-0.000737657	  -22.0263	  -18.4414	
   -21.894	-0.000707763	  -22.0251	-0.000721705	  -21.9807	-0.000788423	  -21.9666	-0.000739297	  -21.9666	  -18.4824	
  -21.8333	-0.000709368	  -21.9651	-0.000723212	  -21.9191	-0.000790001	  -21.9058	-0.00074086	  -21.9058	  -18.5215	
  -21.7721	-0.000710861	  -21.9049	-0.000724675	  -21.8567	-0.000791382	  -21.8446	-0.000742306	  -21.8446	  -18.5576	
  -21.7103	-0.000712261	  -21.8432	-0.000726087	  -21.7933	-0.00079257	  -21.7823	-0.000743639	  -21.7823	   -18.591	
  -21.6469	-0.000713619	  -21.7808	-0.000727448	  -21.7288	-0.000793626	  -21.7188	-0.000744898	  -21.7188	  -18.6224	
  -21.5818	-0.000714993	  -21.7174	-0.000728774	  -21.6632	-0.000794694	  -21.6541	-0.000746154	  -21.6541	  -18.6538	
  -21.5157	-0.000716406	  -21.6527	-0.000730081	  -21.5967	-0.00079587	  -21.5884	-0.000747452	  -21.5884	  -18.6863	
  -21.4478	-0.000717892	  -21.5866	-0.000731388	  -21.5297	-0.000797227	  -21.5214	-0.000748836	  -21.5214	  -18.7209	
  -21.3792	-0.000719411	  -21.5194	-0.000732695	  -21.4625	-0.000798738	  -21.4537	-0.000750281	  -21.4537	   -18.757	
  -21.3101	-0.000720924	  -21.4512	-0.000733997	  -21.3943	-0.000800315	  -21.3852	-0.000751746	  -21.3852	  -18.7936	
  -21.2398	-0.000722359	  -21.3822	-0.000735275	  -21.3257	-0.000801829	  -21.3159	-0.000753154	  -21.3159	  -18.8289	
  -21.1696	-0.000723688	  -21.3122	-0.00073652	  -21.2556	-0.000803178	  -21.2458	-0.000754462	  -21.2458	  -18.8616	
  -21.0979	-0.000724898	  -21.2408	-0.000737722	  -21.1853	-0.000804303	  -21.1747	-0.000755641	  -21.1747	   -18.891	
  -21.0255	-0.000726039	  -21.1686	-0.00073888	  -21.1134	-0.00080524	  -21.1025	-0.000756719	  -21.1025	   -18.918	
  -20.9528	-0.000727163	  -21.0956	-0.000740004	  -21.0405	-0.000806079	  -21.0296	-0.000757749	  -21.0296	  -18.9437	
  -20.8787	-0.000728339	   -21.022	-0.000741119	  -20.9664	-0.000806953	  -20.9557	-0.000758804	  -20.9557	  -18.9701	
   -20.804	-0.000729603	  -20.9479	-0.000742233	  -20.8917	-0.000807962	  -20.8812	-0.000759933	  -20.8812	  -18.9983	
  -20.7277	-0.000730936	  -20.8735	-0.000743358	  -20.8167	-0.000809142	   -20.806	-0.000761145	   -20.806	  -19.0286	
  -20.6508	-0.000732269	   -20.798	-0.000744487	   -20.741	-0.000810451	  -20.7299	-0.000762402	  -20.7299	  -19.0601	
   -20.573	-0.000733523	  -20.7212	-0.000745603	  -20.6636	-0.000811794	  -20.6526	-0.00076364	  -20.6526	   -19.091	
  -20.4944	-0.000734637	  -20.6434	-0.000746684	  -20.5854	-0.00081305	  -20.5744	-0.00076479	  -20.5744	  -19.1198	
  -20.4153	-0.000735603	  -20.5647	-0.000747724	  -20.5062	-0.000814138	  -20.4954	-0.000765821	  -20.4954	  -19.1455	
  -20.3359	-0.000736467	   -20.485	-0.000748717	  -20.4261	-0.000815042	  -20.4157	-0.000766742	  -20.4157	  -19.1686	
  -20.2569	-0.000737302	  -20.4047	-0.000749676	   -20.345	-0.000815812	  -20.3355	-0.000767597	  -20.3355	  -19.1899	
  -20.1766	-0.000738187	  -20.3233	-0.000750577	  -20.2632	-0.000816539	  -20.2544	-0.000768434	  -20.2544	  -19.2108	
  -20.0958	-0.000739192	  -20.2404	-0.00075146	  -20.1811	-0.000817318	  -20.1724	-0.000769323	  -20.1724	  -19.2331	
  -20.0139	-0.000740313	  -20.1567	-0.000752364	  -20.0979	-0.000818224	  -20.0895	-0.0007703	  -20.0895	  -19.2575	
  -19.9313	-0.00074151	  -20.0722	-0.000753303	  -20.0139	-0.000819271	  -20.0058	-0.000771361	  -20.0058	   -19.284	
  -19.8483	-0.000742694	  -19.9869	-0.000754297	  -19.9294	-0.000820426	  -19.9215	-0.000772472	  -19.9215	  -19.3118	
  -19.7642	-0.000743801	  -19.9008	-0.000755316	  -19.8439	-0.0008216	  -19.8363	-0.000773573	  -19.8363	  -19.3393	
  -19.6797	-0.000744771	  -19.8137	-0.000756311	  -19.7574	-0.000822707	  -19.7503	-0.000774596	  -19.7503	  -19.3649	
  -19.5946	-0.000745601	  -19.7257	-0.00075725	  -19.6711	-0.000823671	  -19.6638	-0.000775507	  -19.6638	  -19.3877	
  -19.5089	-0.000746326	  -19.6369	-0.0007581	  -19.5845	-0.000824473	  -19.5768	-0.0007763	  -19.5768	  -19.4075	
  -19.4221	-0.000747027	  -19.5471	-0.000758852	  -19.4967	-0.000825116	  -19.4886	-0.000776998	  -19.4886	   -19.425	
  -19.3351	-0.000747773	  -19.4566	-0.000759551	  -19.4085	-0.000825711	  -19.4001	-0.000777678	  -19.4001	   -19.442	
  -19.2466	-0.000748618	   -19.366	-0.000760221	  -19.3194	-0.000826323	  -19.3107	-0.000778388	  -19.3107	  -19.4597	
  -19.1571	-0.000749559	  -19.2746	-0.000760916	  -19.2289	-0.000826987	  -19.2202	-0.000779154	  -19.2202	  -19.4788	
  -19.0668	-0.000750559	   -19.182	-0.000761663	   -19.138	-0.000827731	  -19.1289	-0.000779984	  -19.1289	  -19.4996	
  -18.9758	-0.000751545	  -19.0883	-0.000762476	  -19.0465	-0.000828544	  -19.0369	-0.000780855	  -19.0369	  -19.5214	
   -18.884	-0.000752453	  -18.9939	-0.000763314	  -18.9536	-0.000829389	  -18.9438	-0.000781719	  -18.9438	   -19.543	
  -18.7915	-0.000753237	  -18.8992	-0.00076415	  -18.8593	-0.00083021	    -18.85	-0.000782532	    -18.85	  -19.5633	
  -18.6977	-0.000753903	  -18.8033	-0.000764919	  -18.7649	-0.000830961	  -18.7553	-0.000783261	  -18.7553	  -19.5815	
  -18.6032	-0.000754489	  -18.7062	-0.0007656	  -18.6695	-0.000831587	  -18.6596	-0.000783892	  -18.6596	  -19.5973	
  -18.5076	-0.000755062	   -18.608	-0.000766186	  -18.5735	-0.000832101	   -18.563	-0.00078445	   -18.563	  -19.6112	
   -18.412	-0.000755679	  -18.5091	-0.000766711	  -18.4774	-0.000832504	  -18.4662	-0.000784965	  -18.4662	  -19.6241	
  -18.3152	-0.000756369	  -18.4103	-0.000767222	  -18.3805	-0.000832819	  -18.3687	-0.00078547	  -18.3687	  -19.6367	
  -18.2179	-0.000757119	  -18.3106	-0.000767766	   -18.283	-0.000833114	  -18.2705	-0.000785999	  -18.2705	    -19.65	
  -18.1194	-0.00075788	  -18.2106	-0.000768357	  -18.1847	-0.000833443	  -18.1716	-0.00078656	  -18.1716	   -19.664	
    -18.02	-0.000758588	  -18.1098	-0.000768993	  -18.0854	-0.000833848	  -18.0717	-0.000787143	  -18.0717	  -19.6786	
  -17.9198	-0.000759198	  -18.0083	-0.000769639	  -17.9846	-0.000834346	  -17.9709	-0.000787728	  -17.9709	  -19.6932	
  -17.8187	-0.000759701	  -17.9064	-0.000770259	  -17.8832	-0.000834901	  -17.8694	-0.000788287	  -17.8694	  -19.7072	
  -17.7169	-0.000760104	  -17.8036	-0.000770812	  -17.7816	-0.000835445	  -17.7674	-0.000788787	  -17.7674	  -19.7197	
  -17.6142	-0.000760525	  -17.7009	-0.000771288	   -17.679	-0.000835916	  -17.6647	-0.000789243	  -17.6647	  -19.7311	
  -17.5108	-0.00076095	  -17.5973	-0.000771696	  -17.5761	-0.000836254	  -17.5614	-0.000789633	  -17.5614	  -19.7408	
  -17.4067	-0.000761479	  -17.4928	-0.000772065	  -17.4721	-0.00083646	  -17.4572	-0.000790001	  -17.4572	    -19.75	
  -17.3012	-0.000762036	  -17.3878	-0.000772429	  -17.3676	-0.000836571	  -17.3522	-0.000790345	  -17.3522	  -19.7586	
  -17.1947	-0.000762587	  -17.2817	-0.000772817	  -17.2617	-0.000836659	   -17.246	-0.000790688	   -17.246	  -19.7672	
  -17.0879	-0.000763007	  -17.1752	-0.00077324	  -17.1552	-0.000836805	  -17.1394	-0.000791017	  -17.1394	  -19.7754	
  -16.9805	-0.000763291	  -17.0675	-0.000773684	  -17.0479	-0.000837039	   -17.032	-0.000791338	   -17.032	  -19.7835	
  -16.8721	-0.000763407	  -16.9595	-0.000774114	  -16.9404	-0.000837331	   -16.924	-0.000791617	   -16.924	  -19.7904	
  -16.7628	-0.000763503	  -16.8504	-0.000774497	  -16.8324	-0.000837618	  -16.8152	-0.000791872	  -16.8152	  -19.7968	
  -16.6534	-0.000763662	  -16.7405	-0.000774808	  -16.7235	-0.000837821	  -16.7058	-0.000792097	  -16.7058	  -19.8024	
  -16.5431	-0.000764002	  -16.6308	-0.000775046	   -16.614	-0.000837896	   -16.596	-0.000792315	   -16.596	  -19.8079	
  -16.4323	-0.000764524	    -16.52	-0.000775236	  -16.5038	-0.000837839	  -16.4854	-0.000792533	  -16.4854	  -19.8133	
  -16.3206	-0.000765185	  -16.4087	-0.000775413	  -16.3936	-0.00083769	  -16.3743	-0.000792762	  -16.3743	  -19.8191	
  -16.2081	-0.000765823	   -16.296	-0.00077561	  -16.2829	-0.00083751	  -16.2623	-0.000792981	  -16.2623	  -19.8245	
  -16.0949	-0.000766316	  -16.1824	-0.000775849	  -16.1714	-0.000837383	  -16.1496	-0.000793182	  -16.1496	  -19.8296	
  -15.9814	-0.000766542	  -16.0684	-0.000776123	  -16.0595	-0.000837327	  -16.0365	-0.000793331	  -16.0365	  -19.8333	
  -15.8671	-0.000766501	  -15.9537	-0.000776471	  -15.9466	-0.000837359	  -15.9225	-0.000793444	  -15.9225	  -19.8361	
  -15.7522	-0.000766257	  -15.8386	-0.000776786	  -15.8329	-0.000837422	  -15.8079	-0.000793488	  -15.8079	  -19.8372	
  -15.6367	-0.000765987	  -15.7232	-0.000777033	  -15.7182	-0.000837462	  -15.6927	-0.000793494	  -15.6927	  -19.8373	
  -15.5209	-0.000765841	  -15.6067	-0.000777153	  -15.6022	-0.000837389	  -15.5766	-0.000793461	  -15.5766	  -19.8365	
  -15.4045	-0.00076593	  -15.4891	-0.000777099	  -15.4852	-0.000837174	  -15.4596	-0.000793401	  -15.4596	   -19.835	
  -15.2876	-0.00076624	  -15.3714	-0.000776918	  -15.3679	-0.000836828	  -15.3423	-0.000793329	  -15.3423	  -19.8332	
  -15.1702	-0.00076669	  -15.2528	-0.000776665	  -15.2494	-0.00083642	  -15.2241	-0.000793259	  -15.2241	  -19.8315	
  -15.0527	-0.000767093	  -15.1333	-0.000776425	  -15.1302	-0.000836038	  -15.1054	-0.000793185	  -15.1054	  -19.8296	
  -14.9344	-0.000767301	  -15.0135	-0.000776303	  -15.0101	-0.00083575	   -14.986	-0.000793118	   -14.986	  -19.8279	
  -14.8157	-0.000767208	  -14.8926	-0.00077632	  -14.8891	-0.000835567	  -14.8658	-0.000793031	  -14.8658	  -19.8258	
  -14.6961	-0.000766862	  -14.7711	-0.000776476	  -14.7668	-0.000835459	  -14.7447	-0.000792932	  -14.7447	  -19.8233	
  -14.5759	-0.000766369	  -14.6487	-0.000776708	  -14.6438	-0.000835368	  -14.6228	-0.000792815	  -14.6228	  -19.8204	
  -14.4559	-0.000765895	  -14.5259	-0.000776883	  -14.5202	-0.000835189	  -14.5007	-0.000792656	  -14.5007	  -19.8164	
  -14.3353	-0.000765583	  -14.4026	-0.000776915	  -14.3964	-0.000834863	  -14.3781	-0.000792454	  -14.3781	  -19.8113	
  -14.2145	-0.000765482	  -14.2793	-0.00077675	  -14.2722	-0.000834374	  -14.2553	-0.000792202	  -14.2553	  -19.8051	
  -14.0928	-0.000765556	  -14.1557	-0.000776376	  -14.1474	-0.000833761	   -14.132	-0.000791898	   -14.132	  -19.7974	
  -13.9706	-0.000765676	  -14.0315	-0.000775897	  -14.0229	-0.000833145	  -14.0083	-0.000791573	  -14.0083	  -19.7893	
  -13.8477	-0.000765687	   -13.907	-0.000775399	  -13.8976	-0.000832596	  -13.8841	-0.000791227	  -13.8841	  -19.7807	
  -13.7241	-0.000765486	  -13.7823	-0.000774978	   -13.772	-0.000832148	  -13.7595	-0.000790871	  -13.7595	  -19.7718	
  -13.5999	-0.000765045	  -13.6574	-0.000774676	  -13.6466	-0.000831795	  -13.6347	-0.000790505	  -13.6347	  -19.7626	
  -13.4756	-0.000764408	  -13.5321	-0.000774487	  -13.5201	-0.000831448	  -13.5093	-0.000790114	  -13.5093	  -19.7529	
  -13.3505	-0.000763698	  -13.4061	-0.000774339	  -13.3927	-0.000831019	  -13.3831	-0.000789685	  -13.3831	  -19.7421	
  -13.2254	-0.00076304	  -13.2794	-0.000774175	  -13.2644	-0.000830462	  -13.2564	-0.000789226	  -13.2564	  -19.7306	
  -13.0996	-0.000762525	  -13.1516	-0.000773911	  -13.1359	-0.00082975	   -13.129	-0.000788729	   -13.129	  -19.7182	
  -12.9734	-0.000762172	  -13.0233	-0.00077352	  -13.0071	-0.000828931	  -13.0012	-0.000788208	  -13.0012	  -19.7052	
  -12.8465	-0.00076197	  -12.8941	-0.000773003	  -12.8777	-0.000828106	  -12.8728	-0.000787693	  -12.8728	  -19.6923	
  -12.7199	-0.000761768	  -12.7642	-0.000772405	  -12.7478	-0.000827346	   -12.744	-0.000787173	   -12.744	  -19.6793	
  -12.5924	-0.000761447	  -12.6344	-0.00077179	   -12.617	-0.000826704	  -12.6146	-0.000786647	  -12.6146	  -19.6662	
  -12.4642	-0.000760901	  -12.5039	-0.000771239	  -12.4855	-0.000826175	  -12.4845	-0.000786105	  -12.4845	  -19.6526	
  -12.3344	-0.000760105	   -12.373	-0.000770797	  -12.3534	-0.000825695	  -12.3536	-0.000785532	  -12.3536	  -19.6383	
   -12.204	-0.000759132	  -12.2416	-0.000770453	  -12.2208	-0.000825172	  -12.2221	-0.000784919	  -12.2221	   -19.623	
  -12.0731	-0.000758139	  -12.1103	-0.000770126	  -12.0874	-0.000824527	  -12.0903	-0.000784264	  -12.0903	  -19.6066	
  -11.9422	-0.000757257	   -11.979	-0.000769725	  -11.9538	-0.000823723	  -11.9583	-0.000783568	  -11.9583	  -19.5892	
  -11.8109	-0.000756605	  -11.8474	-0.000769161	  -11.8196	-0.000822784	   -11.826	-0.00078285	   -11.826	  -19.5713	
  -11.6793	-0.000756175	  -11.7152	-0.000768426	  -11.6849	-0.000821773	  -11.6932	-0.000782125	  -11.6932	  -19.5531	
  -11.5468	-0.000755881	  -11.5837	-0.000767565	  -11.5502	-0.000820773	  -11.5602	-0.000781406	  -11.5602	  -19.5352	
  -11.4133	-0.000755578	  -11.4525	-0.000766652	  -11.4148	-0.00081986	  -11.4269	-0.000780696	  -11.4269	  -19.5174	
  -11.2799	-0.000755122	  -11.3212	-0.000765799	  -11.2796	-0.000819054	  -11.2936	-0.000779992	  -11.2936	  -19.4998	
  -11.1458	-0.00075443	  -11.1894	-0.000765087	  -11.1433	-0.000818332	  -11.1595	-0.000779283	  -11.1595	  -19.4821	
  -11.0111	-0.000753529	  -11.0556	-0.000764521	  -11.0067	-0.000817627	  -11.0245	-0.000778559	  -11.0245	   -19.464	
  -10.8763	-0.000752511	  -10.9209	-0.000764068	  -10.8701	-0.000816856	  -10.8891	-0.000777812	  -10.8891	  -19.4453	
  -10.7411	-0.000751519	   -10.785	-0.000763609	  -10.7332	-0.000815959	  -10.7531	-0.000777029	  -10.7531	  -19.4257	
  -10.6056	-0.000750678	  -10.6477	-0.000763069	  -10.5965	-0.000814916	  -10.6166	-0.000776221	  -10.6166	  -19.4055	
  -10.4698	-0.000750048	  -10.5092	-0.000762357	  -10.4597	-0.000813761	  -10.4796	-0.000775389	  -10.4796	  -19.3847	
  -10.3333	-0.000749593	  -10.3698	-0.000761457	  -10.3226	-0.000812564	  -10.3419	-0.000774538	  -10.3419	  -19.3634	
  -10.1964	-0.0007492	  -10.2288	-0.000760404	  -10.1851	-0.000811399	  -10.2034	-0.000773668	  -10.2034	  -19.3417	
  -10.0592	-0.000748723	   -10.089	-0.000759307	  -10.0469	-0.000810314	   -10.065	-0.000772781	   -10.065	  -19.3195	
  -9.92128	-0.000748048	  -9.94927	-0.00075825	  -9.90857	-0.000809311	  -9.92637	-0.00077187	  -9.92637	  -19.2967	
  -9.78326	-0.00074714	  -9.80926	-0.00075735	  -9.76938	-0.000808344	   -9.7873	-0.000770945	   -9.7873	  -19.2736	
   -9.6448	-0.000746063	  -9.67026	-0.000756573	  -9.63027	-0.000807345	  -9.64844	-0.000769994	  -9.64844	  -19.2498	
  -9.50609	-0.000744939	  -9.53045	-0.000755872	  -9.49034	-0.000806251	  -9.50896	-0.00076902	  -9.50896	  -19.2255	
  -9.36674	-0.000743882	  -9.39098	-0.000755115	  -9.35029	-0.00080503	  -9.36934	-0.000768009	  -9.36934	  -19.2002	
  -9.22688	-0.000742995	  -9.24877	-0.000754201	  -9.20942	-0.000803699	  -9.22836	-0.000766965	  -9.22836	  -19.1741	
  -9.08662	-0.000742285	  -9.10725	-0.000753069	  -9.06866	-0.000802304	  -9.08751	-0.000765886	  -9.08751	  -19.1471	
  -8.94607	-0.000741683	  -8.96488	-0.000751709	  -8.92769	-0.000800913	  -8.94621	-0.000764768	  -8.94621	  -19.1192	
  -8.80533	-0.000741072	  -8.82181	-0.000750223	  -8.78659	-0.000799579	  -8.80458	-0.000763625	  -8.80458	  -19.0906	
  -8.66386	-0.00074032	   -8.6792	-0.000748779	  -8.64515	-0.000798321	  -8.66274	-0.000762473	  -8.66274	  -19.0618	
  -8.52204	-0.00073934	  -8.53608	-0.000747519	  -8.50299	-0.000797113	  -8.52037	-0.000761324	  -8.52037	  -19.0331	
  -8.37959	-0.0007381	  -8.39375	-0.000746503	  -8.35987	-0.000795903	  -8.37774	-0.000760169	  -8.37774	  -19.0042	
  -8.23702	-0.000736679	  -8.25066	-0.000745678	  -8.21673	-0.00079463	   -8.2348	-0.000758996	   -8.2348	  -18.9749	
  -8.09405	-0.000735228	  -8.10695	-0.000744896	  -8.07288	-0.000793262	  -8.09129	-0.000757795	  -8.09129	  -18.9449	
  -7.95039	-0.000733879	  -7.96354	-0.000743987	  -7.92885	-0.000791793	   -7.9476	-0.000756553	   -7.9476	  -18.9138	
  -7.80659	-0.000732749	  -7.81972	-0.000742807	  -7.78475	-0.000790244	  -7.80368	-0.000755267	  -7.80368	  -18.8817	
  -7.66273	-0.000731804	  -7.67559	-0.000741306	  -7.63988	-0.000788652	   -7.6594	-0.000753921	   -7.6594	   -18.848	
  -7.51851	-0.000730974	  -7.53089	-0.00073957	    -7.494	-0.000787052	  -7.51447	-0.000752532	  -7.51447	  -18.8133	
  -7.37406	-0.000730109	  -7.38615	-0.000737761	  -7.34808	-0.000785475	  -7.36943	-0.000751115	  -7.36943	  -18.7779	
  -7.22948	-0.000729121	  -7.24105	-0.000736059	  -7.20143	-0.000783931	  -7.22399	-0.000749704	  -7.22399	  -18.7426	
  -7.08471	-0.000727904	  -7.09525	-0.000734584	   -7.0542	-0.000782407	  -7.07805	-0.000748298	  -7.07805	  -18.7075	
  -6.93963	-0.00072649	  -6.94899	-0.000733349	  -6.90732	-0.000780852	  -6.93198	-0.000746897	  -6.93198	  -18.6724	
  -6.79434	-0.000724912	  -6.80239	-0.000732256	  -6.76008	-0.000779248	   -6.7856	-0.000745472	   -6.7856	  -18.6368	
  -6.64897	-0.000723297	  -6.65596	-0.000731146	  -6.61261	-0.00077757	  -6.63918	-0.000744004	  -6.63918	  -18.6001	
  -6.50321	-0.000721732	  -6.50979	-0.000729861	  -6.46501	-0.000775828	  -6.49267	-0.000742474	  -6.49267	  -18.5618	
  -6.35798	-0.000720298	  -6.36278	-0.000728314	  -6.31741	-0.000774041	  -6.34606	-0.000740885	  -6.34606	  -18.5221	
  -6.21206	-0.000718996	  -6.21533	-0.000726514	  -6.16973	-0.000772239	  -6.19904	-0.00073925	  -6.19904	  -18.4812	
  -6.06569	-0.000717801	  -6.06773	-0.000724558	  -6.02226	-0.000770446	  -6.05189	-0.000737602	  -6.05189	    -18.44	
  -5.91822	-0.000716622	  -5.91969	-0.000722589	  -5.87388	-0.000768666	  -5.90393	-0.000735959	  -5.90393	   -18.399	
  -5.77022	-0.000715362	  -5.77215	-0.00072073	  -5.72557	-0.00076688	  -5.75598	-0.000734324	  -5.75598	  -18.3581	
  -5.62223	-0.000713949	  -5.62437	-0.000719047	  -5.57623	-0.000765049	  -5.60761	-0.000732682	  -5.60761	   -18.317	
  -5.47396	-0.000712374	  -5.47608	-0.000717524	  -5.42725	-0.000763153	  -5.45909	-0.000731017	  -5.45909	  -18.2754	
  -5.32506	-0.000710671	  -5.32821	-0.00071607	  -5.27813	-0.000761175	  -5.31047	-0.000729305	  -5.31047	  -18.2326	
  -5.17537	-0.000708922	  -5.17965	-0.000714558	  -5.12956	-0.000759121	  -5.16153	-0.000727534	  -5.16153	  -18.1883	
  -5.02545	-0.000707219	  -5.03056	-0.000712869	   -4.9804	-0.000757016	  -5.01213	-0.000725701	  -5.01213	  -18.1425	
  -4.87466	-0.000705618	  -4.88108	-0.000710933	  -4.83081	-0.000754898	  -4.86218	-0.000723816	  -4.86218	  -18.0954	
  -4.72472	-0.000704115	  -4.73096	-0.00070877	  -4.68172	-0.000752794	  -4.71247	-0.000721893	  -4.71247	  -18.0473	
  -4.57491	-0.000702663	  -4.58036	-0.000706462	   -4.5324	-0.000750711	  -4.56256	-0.000719945	  -4.56256	  -17.9986	
   -4.4254	-0.00070112	  -4.42958	-0.000704152	  -4.38344	-0.00074858	  -4.41281	-0.000717951	  -4.41281	  -17.9488	
  -4.27539	-0.00069946	  -4.27821	-0.000701928	  -4.23447	-0.000746472	  -4.26269	-0.000715953	  -4.26269	  -17.8988	
  -4.12427	-0.000697632	    -4.126	-0.000699793	  -4.08478	-0.00074437	  -4.11169	-0.000713932	  -4.11169	  -17.8483	
  -3.97301	-0.00069565	  -3.97354	-0.000697709	  -3.93456	-0.00074224	  -3.96037	-0.000711866	  -3.96037	  -17.7967	
  -3.82134	-0.000693575	  -3.82096	-0.000695612	  -3.78395	-0.000740048	  -3.80875	-0.000709745	  -3.80875	  -17.7436	
  -3.66903	-0.000691499	  -3.66877	-0.000693487	  -3.63348	-0.000737778	  -3.65709	-0.000707588	  -3.65709	  -17.6897	
