# User: ACHyster
# File name: C:/ACHYSTER/ACHyster SENS/SHAMS/CoFe2O4-1gl-water-60 Glycerol-Sens-08-03-2023/CoFe2O4-1gl-water-60 Glycerol- 10_100F- 12 kAm -Sens-08-03-20230004#1.txt
# Saved at: mi. mar. 8 12:55:11 2023
# Hyster Loop (3 iterations). Intensity: 12.0 kA/m; Tuned frequency: 50.0 kHz
# Units x axis: (kA/m)
# Units y axis: "Repeats y" & "Average y" (10^(-3)Am^2); "Mass avg y" (Am^2/kg)
# Magnetic mass: 4e-05 g
# Parameter      	Repeat   1	Repeat   2	Repeat   3	Average   	Sigma     
# H_C (kA/m)     	       8.8	       8.8	       8.8	       8.8	       0.0
# M_R (Am^2/kg)  	       7.6	       7.8	       7.7	       7.7	       0.1
# M_max (Am^2/kg)	       7.1	       7.1	       7.1	       7.1	       0.0
# Area (mJ/kg)   	     351.1	     360.7	     354.5	     355.5	       4.0
# SAR (W/g)      	      17.6	      18.0	      17.7	      17.8	       0.2
#Repeat 1 x	Repeat 1 y	Repeat 2 x	Repeat 2 y	Repeat 3 x	Repeat 3 y	Average x 	Average y 	Mass avg x 	Mass avg y 
  -1.68142	-0.000339834	  -1.67872	-0.000351758	  -1.67801	-0.000337353	  -1.67938	-0.000342982	  -1.67938	  -8.57454	
  -1.60689	-0.000338602	  -1.60395	-0.000350354	  -1.60333	-0.00033588	  -1.60472	-0.000341612	  -1.60472	  -8.54029	
  -1.53245	-0.00033736	  -1.52925	-0.000348941	  -1.52874	-0.000334486	  -1.53015	-0.000340263	  -1.53015	  -8.50657	
   -1.4579	-0.000336061	  -1.45453	-0.000347517	  -1.45395	-0.000333241	  -1.45546	-0.00033894	  -1.45546	  -8.47349	
   -1.3833	-0.000334676	  -1.37974	-0.00034607	  -1.37912	-0.000332112	  -1.38072	-0.000337619	  -1.38072	  -8.44048	
  -1.30836	-0.000333241	  -1.30486	-0.000344592	  -1.30413	-0.000330991	  -1.30579	-0.000336275	  -1.30579	  -8.40687	
  -1.23327	-0.000331793	  -1.22978	-0.000343082	  -1.22898	-0.000329763	  -1.23067	-0.000334879	  -1.23067	  -8.37198	
  -1.15818	-0.000330368	  -1.15478	-0.000341544	  -1.15396	-0.00032836	  -1.15564	-0.000333424	  -1.15564	  -8.33559	
  -1.08293	-0.00032894	  -1.07971	-0.000339992	  -1.07878	-0.000326819	  -1.08047	-0.000331917	  -1.08047	  -8.29792	
  -1.00768	-0.0003275	  -1.00458	-0.000338432	  -1.00359	-0.000325243	  -1.00528	-0.000330392	  -1.00528	  -8.25979	
 -0.932529	-0.000326036	 -0.929489	-0.000336863	 -0.928325	-0.000323742	 -0.930114	-0.000328881	 -0.930114	  -8.22201	
 -0.857224	-0.000324561	 -0.854205	-0.00033528	 -0.852923	-0.000322358	 -0.854784	-0.0003274	 -0.854784	  -8.18499	
 -0.781918	-0.000323092	 -0.779013	-0.000333675	 -0.777669	-0.000321067	 -0.779533	-0.000325945	 -0.779533	  -8.14861	
 -0.706476	-0.000321635	 -0.703767	-0.000332045	 -0.702138	-0.000319771	 -0.704127	-0.000324484	 -0.704127	  -8.11209	
 -0.631042	-0.000320181	 -0.628472	-0.000330392	 -0.626628	-0.000318381	 -0.628714	-0.000322985	 -0.628714	  -8.07462	
 -0.555549	-0.000318695	 -0.553176	-0.000328718	 -0.551298	-0.000316861	 -0.553341	-0.000321425	 -0.553341	  -8.03562	
 -0.479932	-0.000317146	 -0.477835	-0.000327028	 -0.475834	-0.000315241	 -0.477867	-0.000319805	 -0.477867	  -7.99512	
 -0.404476	-0.00031554	 -0.402586	-0.000325325	 -0.400521	-0.000313609	 -0.402527	-0.000318158	 -0.402527	  -7.95395	
 -0.328929	-0.000313895	 -0.327183	-0.000323614	 -0.325108	-0.000312023	 -0.327073	-0.000316511	 -0.327073	  -7.91276	
   -0.2534	-0.000312264	 -0.251741	-0.000321891	 -0.249703	-0.000310513	 -0.251615	-0.000314889	 -0.251615	  -7.87224	
  -0.17789	-0.00031066	 -0.176398	-0.000320153	 -0.174443	-0.000309049	 -0.176244	-0.000313288	 -0.176244	  -7.83219	
  -0.10226	-0.000309075	 -0.101014	-0.000318397	-0.0990444	-0.000307562	 -0.100773	-0.000311678	 -0.100773	  -7.79195	
-0.0267951	-0.000307478	-0.0257257	-0.00031663	-0.0237903	-0.000306004	 -0.025437	-0.000310037	 -0.025437	  -7.75093	
 0.0487007	-0.000305838	 0.0495426	-0.000314849	 0.0516273	-0.000304353	 0.0499569	-0.000308347	 0.0499569	  -7.70867	
   0.12418	-0.000304148	  0.124863	-0.000313067	  0.127036	-0.000302621	   0.12536	-0.000306612	   0.12536	  -7.66531	
  0.199507	-0.000302416	  0.200229	-0.000311274	  0.202435	-0.000300852	  0.200724	-0.000304848	  0.200724	  -7.62119	
  0.274969	-0.000300674	  0.275604	-0.000309461	  0.277792	-0.00029909	  0.276122	-0.000303075	  0.276122	  -7.57687	
  0.350393	-0.000298939	  0.350888	-0.000307614	  0.353009	-0.000297368	   0.35143	-0.000301307	   0.35143	  -7.53268	
  0.425943	-0.000297217	  0.426224	-0.000305726	  0.428372	-0.000295676	  0.426846	-0.00029954	  0.426846	  -7.48849	
  0.501473	-0.000295499	  0.501609	-0.000303814	  0.503734	-0.000293979	  0.502272	-0.000297764	  0.502272	   -7.4441	
  0.576882	-0.000293773	  0.576767	-0.000301907	  0.578992	-0.000292239	  0.577547	-0.000295973	  0.577547	  -7.39933	
  0.652188	-0.000292024	   0.65201	-0.000300035	  0.654393	-0.000290422	  0.652864	-0.000294161	  0.652864	  -7.35402	
  0.727357	-0.000290241	  0.727175	-0.000298197	  0.729652	-0.000288534	  0.728062	-0.000292324	  0.728062	   -7.3081	
  0.802538	-0.000288426	  0.802131	-0.00029635	  0.805054	-0.000286605	  0.803241	-0.000290461	  0.803241	  -7.26151	
  0.877731	-0.000286591	  0.877171	-0.000294448	  0.880451	-0.000284683	  0.878451	-0.000288574	  0.878451	  -7.21435	
  0.952663	-0.000284758	   0.95213	-0.000292458	  0.955684	-0.000282804	  0.953492	-0.000286673	  0.953492	  -7.16683	
   1.02777	-0.000282937	   1.02704	-0.000290414	   1.03093	-0.000280967	   1.02858	-0.000284773	   1.02858	  -7.11932	
   1.10276	-0.000281119	   1.10191	-0.000288355	   1.10604	-0.000279132	   1.10357	-0.000282869	   1.10357	  -7.07171	
   1.17772	-0.000279282	   1.17647	-0.000286326	   1.18112	-0.000277246	   1.17843	-0.000280951	   1.17843	  -7.02378	
   1.25271	-0.000277406	   1.25116	-0.000284337	   1.25622	-0.000275264	   1.25336	-0.000279002	   1.25336	  -6.97506	
   1.32761	-0.000275482	   1.32569	-0.000282367	   1.33107	-0.000273202	   1.32813	-0.000277017	   1.32813	  -6.92543	
   1.40242	-0.000273526	   1.40037	-0.000280375	   1.40598	-0.000271112	   1.40292	-0.000275004	   1.40292	  -6.87511	
   1.47714	-0.000271561	   1.47503	-0.000278332	   1.48079	-0.000269043	   1.47765	-0.000272978	   1.47765	  -6.82446	
   1.55186	-0.000269607	   1.54953	-0.000276263	   1.55559	-0.000267029	   1.55233	-0.000270966	   1.55233	  -6.77416	
   1.62666	-0.000267661	   1.62417	-0.000274182	   1.63045	-0.000265055	   1.62709	-0.000268966	   1.62709	  -6.72414	
   1.70124	-0.00026571	   1.69868	-0.000272102	    1.7051	-0.000263073	   1.70167	-0.000266962	   1.70167	  -6.67404	
   1.77571	-0.000263752	   1.77314	-0.000269981	   1.77979	-0.000261034	   1.77621	-0.000264922	   1.77621	  -6.62306	
   1.85014	-0.000261795	   1.84763	-0.00026779	   1.85442	-0.000258915	   1.85073	-0.000262834	   1.85073	  -6.57084	
   1.92426	-0.000259814	   1.92201	-0.000265542	     1.929	-0.00025674	   1.92509	-0.000260698	   1.92509	  -6.51746	
   1.99839	-0.000257767	   1.99642	-0.000263261	   2.00354	-0.000254554	   1.99945	-0.000258527	   1.99945	  -6.46318	
   2.07239	-0.000255637	   2.07074	-0.000261014	   2.07807	-0.000252407	   2.07374	-0.000256353	   2.07374	  -6.40882	
   2.14645	-0.000253427	   2.14493	-0.000258828	   2.15239	-0.000250319	   2.14793	-0.000254191	   2.14793	  -6.35478	
   2.22054	-0.000251153	   2.21919	-0.000256673	    2.2267	-0.000248263	   2.22214	-0.000252029	   2.22214	  -6.30073	
   2.29437	-0.000248868	   2.29324	-0.000254506	   2.30086	-0.000246202	   2.29616	-0.000249859	   2.29616	  -6.24647	
   2.36822	-0.000246627	   2.36701	-0.000252268	   2.37518	-0.000244092	   2.37013	-0.000247662	   2.37013	  -6.19155	
   2.44199	-0.000244465	   2.44075	-0.00024995	   2.44935	-0.00024192	   2.44403	-0.000245445	   2.44403	  -6.13612	
   2.51569	-0.000242365	   2.51422	-0.00024758	   2.52341	-0.000239704	   2.51777	-0.000243216	   2.51777	  -6.08041	
   2.58947	-0.000240278	   2.58784	-0.000245218	   2.59751	-0.000237481	   2.59161	-0.000240992	   2.59161	  -6.02481	
   2.66306	-0.00023812	   2.66134	-0.000242913	   2.67136	-0.00023529	   2.66525	-0.000238774	   2.66525	  -5.96936	
   2.73643	-0.000235853	   2.73458	-0.000240662	   2.74519	-0.000233147	   2.73873	-0.000236554	   2.73873	  -5.91385	
   2.80979	-0.000233481	   2.80788	-0.000238428	   2.81881	-0.000231031	   2.81216	-0.000234313	   2.81216	  -5.85783	
   2.88288	-0.000231049	   2.88098	-0.000236166	   2.89212	-0.00022891	   2.88533	-0.000232042	   2.88533	  -5.80104	
   2.95598	-0.000228616	   2.95396	-0.000233846	   2.96522	-0.000226749	   2.95838	-0.000229737	   2.95838	  -5.74342	
   3.02897	-0.00022623	   3.02691	-0.000231465	    3.0382	-0.000224534	   3.03136	-0.00022741	   3.03136	  -5.68524	
   3.10175	-0.00022391	   3.09971	-0.000229051	   3.11094	-0.000222283	   3.10413	-0.000225081	   3.10413	  -5.62703	
   3.17461	-0.000221627	   3.17238	-0.000226642	   3.18375	-0.000220027	   3.17691	-0.000222765	   3.17691	  -5.56913	
   3.24729	-0.000219333	   3.24494	-0.000224271	   3.25635	-0.000217808	   3.24953	-0.000220471	   3.24953	  -5.51177	
   3.31965	-0.000216981	   3.31748	-0.000221956	   3.32885	-0.000215642	   3.32199	-0.000218193	   3.32199	  -5.45483	
   3.39202	-0.000214548	   3.38994	-0.000219669	   3.40133	-0.000213515	   3.39443	-0.000215911	   3.39443	  -5.39777	
   3.46414	-0.000212061	   3.46221	-0.000217351	   3.47354	-0.000211399	   3.46663	-0.000213604	   3.46663	  -5.34009	
   3.53612	-0.000209567	   3.53437	-0.00021494	   3.54556	-0.000209252	   3.53869	-0.000211253	   3.53869	  -5.28133	
   3.60805	-0.000207118	   3.60642	-0.000212423	   3.61751	-0.000207044	   3.61066	-0.000208862	   3.61066	  -5.22154	
   3.67981	-0.000204737	   3.67847	-0.000209857	    3.6894	-0.000204784	   3.68256	-0.000206459	   3.68256	  -5.16147	
   3.75169	-0.000202398	   3.75055	-0.00020734	   3.76124	-0.000202504	   3.75449	-0.000204081	   3.75449	  -5.10202	
   3.82343	-0.000200052	   3.82252	-0.000204962	   3.83292	-0.000200236	   3.82629	-0.00020175	   3.82629	  -5.04375	
   3.89477	-0.00019765	   3.89459	-0.000202738	    3.9043	-0.000198013	   3.89789	-0.000199467	   3.89789	  -4.98667	
   3.96619	-0.000195173	   3.96672	-0.000200572	   3.97558	-0.000195828	    3.9695	-0.000197191	    3.9695	  -4.92977	
   4.03741	-0.000192643	   4.03864	-0.000198333	   4.04666	-0.000193661	    4.0409	-0.000194879	    4.0409	  -4.87197	
   4.10853	-0.000190114	   4.11011	-0.000195912	   4.11746	-0.000191473	   4.11203	-0.0001925	   4.11203	   -4.8125	
   4.17953	-0.000187628	   4.18091	-0.0001933	   4.18815	-0.000189245	   4.18286	-0.000190058	   4.18286	  -4.75144	
   4.25028	-0.000185196	   4.25112	-0.000190597	   4.25859	-0.000186994	   4.25333	-0.000187596	   4.25333	  -4.68989	
   4.32082	-0.000182794	   4.32093	-0.000187939	   4.32883	-0.00018473	   4.32353	-0.000185154	   4.32353	  -4.62886	
   4.39132	-0.000180385	   4.39065	-0.000185433	   4.39904	-0.000182471	   4.39367	-0.000182763	   4.39367	  -4.56907	
   4.46152	-0.00017793	   4.46031	-0.000183091	   4.46896	-0.000180208	    4.4636	-0.000180409	    4.4636	  -4.51024	
   4.53162	-0.000175417	   4.53009	-0.000180839	   4.53892	-0.00017789	   4.53354	-0.000178049	   4.53354	  -4.45122	
   4.60163	-0.000172866	   4.59987	-0.000178556	   4.60879	-0.000175527	   4.60343	-0.00017565	   4.60343	  -4.39125	
   4.67131	-0.000170313	    4.6694	-0.000176133	   4.67832	-0.00017314	   4.67301	-0.000173195	   4.67301	  -4.32989	
     4.741	-0.000167789	   4.73845	-0.00017354	   4.74764	-0.000170799	   4.74237	-0.000170709	   4.74237	  -4.26773	
   4.81057	-0.000165306	   4.80736	-0.000170839	   4.81686	-0.000168541	   4.81159	-0.000168229	   4.81159	  -4.20572	
   4.87977	-0.000162853	   4.87601	-0.000168143	   4.88586	-0.000166351	   4.88055	-0.000165782	   4.88055	  -4.14455	
    4.9489	-0.000160405	   4.94437	-0.000165561	   4.95463	-0.000164168	    4.9493	-0.000163378	    4.9493	  -4.08444	
   5.01789	-0.000157933	    5.0126	-0.00016313	   5.02327	-0.00016188	   5.01792	-0.000160981	   5.01792	  -4.02453	
   5.08649	-0.000155416	   5.08058	-0.000160799	   5.09155	-0.000159413	   5.08621	-0.000158542	   5.08621	  -3.96356	
   5.15503	-0.000152847	    5.1485	-0.000158454	   5.15966	-0.000156773	    5.1544	-0.000156025	    5.1544	  -3.90061	
   5.22342	-0.000150239	   5.21639	-0.000155981	   5.22765	-0.00015406	   5.22249	-0.000153427	   5.22249	  -3.83567	
   5.29142	-0.000147617	   5.28401	-0.000153326	   5.29527	-0.000151432	   5.29023	-0.000150792	   5.29023	  -3.76979	
   5.35921	-0.000145015	   5.35153	-0.000150533	   5.36272	-0.000148988	   5.35782	-0.000148179	   5.35782	  -3.70446	
   5.42686	-0.000142456	   5.41901	-0.000147735	   5.43005	-0.000146737	   5.42531	-0.000145643	   5.42531	  -3.64107	
   5.49411	-0.000139944	    5.4862	-0.000145059	   5.49702	-0.000144571	   5.49244	-0.000143192	   5.49244	  -3.57979	
   5.56112	-0.000137463	   5.55299	-0.000142564	   5.56376	-0.000142328	   5.55929	-0.000140785	   5.55929	  -3.51963	
   5.62799	-0.000134976	   5.61974	-0.000140151	   5.63039	-0.000139884	   5.62604	-0.000138337	   5.62604	  -3.45842	
   5.69449	-0.000132452	   5.68623	-0.00013769	   5.69668	-0.000137226	   5.69246	-0.00013579	   5.69246	  -3.39474	
   5.76076	-0.000129877	   5.75256	-0.000135073	   5.76292	-0.000134456	   5.75875	-0.000133136	   5.75875	  -3.32839	
   5.82681	-0.000127258	   5.81875	-0.000132305	   5.82907	-0.000131729	   5.82487	-0.000130431	   5.82487	  -3.26077	
   5.89252	-0.000124625	   5.88535	-0.000129508	   5.89487	-0.00012917	   5.89092	-0.000127768	   5.89092	  -3.19419	
   5.95783	-0.000122017	   5.95223	-0.000126816	   5.96027	-0.000126794	   5.95678	-0.000125209	   5.95678	  -3.13023	
   6.02309	-0.000119456	   6.01934	-0.000124315	   6.02561	-0.000124514	   6.02268	-0.000122762	   6.02268	  -3.06905	
   6.08805	-0.000116933	   6.08617	-0.000121956	   6.09065	-0.000122183	   6.08829	-0.000120357	   6.08829	  -3.00893	
   6.15278	-0.000114416	   6.15254	-0.000119588	   6.15532	-0.000119687	   6.15355	-0.000117897	   6.15355	  -2.94743	
   6.21734	-0.000111864	   6.21824	-0.000117059	   6.21996	-0.00011701	   6.21851	-0.000115311	   6.21851	  -2.88278	
   6.28165	-0.00010926	   6.28296	-0.000114294	   6.28434	-0.000114231	   6.28298	-0.000112595	   6.28298	  -2.81487	
   6.34571	-0.000106619	     6.347	-0.00011136	   6.34837	-0.000111491	   6.34703	-0.000109823	   6.34703	  -2.74558	
   6.40979	-0.000103983	   6.41055	-0.00010842	   6.41214	-0.000108893	   6.41083	-0.000107099	   6.41083	  -2.67747	
   6.47363	-0.000101389	   6.47397	-0.000105637	    6.4757	-0.000106454	   6.47444	-0.000104493	   6.47444	  -2.61233	
   6.53704	-9.88504e-05	   6.53704	-0.00010308	   6.53886	-0.000104093	   6.53765	-0.000102008	   6.53765	  -2.55019	
   6.60028	-9.63422e-05	   6.60024	-0.000100685	   6.60187	-0.000101691	    6.6008	-9.9573e-05	    6.6008	  -2.48932	
   6.66335	-9.38246e-05	   6.66334	-9.82946e-05	   6.66475	-9.91507e-05	   6.66381	-9.709e-05	   6.66381	  -2.42725	
   6.72605	-9.12707e-05	   6.72625	-9.5754e-05	   6.72727	-9.64561e-05	   6.72652	-9.44936e-05	   6.72652	  -2.36234	
   6.78852	-8.86602e-05	   6.78879	-9.30032e-05	   6.78942	-9.36727e-05	   6.78891	-9.17787e-05	   6.78891	  -2.29447	
    6.8509	-8.60264e-05	   6.85128	-9.00996e-05	    6.8515	-9.09097e-05	   6.85123	-8.90119e-05	   6.85123	   -2.2253	
   6.91296	-8.3401e-05	    6.9135	-8.71877e-05	   6.91331	-8.82589e-05	   6.91326	-8.62825e-05	   6.91326	  -2.15706	
   6.97465	-8.08249e-05	   6.97525	-8.44043e-05	   6.97478	-8.57225e-05	    6.9749	-8.36505e-05	    6.9749	  -2.09126	
   7.03615	-7.83137e-05	   7.03652	-8.18052e-05	   7.03609	-8.32395e-05	   7.03625	-8.11194e-05	   7.03625	  -2.02799	
   7.09742	-7.58418e-05	   7.09763	-7.93399e-05	    7.0972	-8.0724e-05	   7.09742	-7.86352e-05	   7.09742	  -1.96588	
   7.15827	-7.3364e-05	   7.15837	-7.68769e-05	    7.1579	-7.81092e-05	   7.15818	-7.61167e-05	   7.15818	  -1.90292	
   7.21877	-7.08292e-05	   7.21897	-7.4293e-05	   7.21829	-7.53915e-05	   7.21868	-7.35046e-05	   7.21868	  -1.83761	
   7.27915	-6.822e-05	   7.27933	-7.15335e-05	   7.27859	-7.26024e-05	   7.27902	-7.07853e-05	   7.27902	  -1.76963	
   7.33921	-6.5551e-05	    7.3394	-6.86503e-05	   7.33857	-6.98099e-05	   7.33906	-6.80037e-05	   7.33906	  -1.70009	
   7.39874	-6.28619e-05	   7.39901	-6.57677e-05	   7.39819	-6.70929e-05	   7.39865	-6.52408e-05	   7.39865	  -1.63102	
   7.45814	-6.0208e-05	   7.45825	-6.30024e-05	   7.45782	-6.4487e-05	   7.45807	-6.25658e-05	   7.45807	  -1.56415	
   7.51732	-5.76184e-05	   7.51735	-6.0402e-05	   7.51723	-6.19834e-05	    7.5173	-6.00013e-05	    7.5173	  -1.50003	
   7.57621	-5.50874e-05	    7.5761	-5.79211e-05	   7.57622	-5.94987e-05	   7.57618	-5.75024e-05	   7.57618	  -1.43756	
   7.63451	-5.25756e-05	   7.63432	-5.54418e-05	   7.63504	-5.69468e-05	   7.63462	-5.49881e-05	   7.63462	   -1.3747	
    7.6926	-5.00387e-05	   7.69239	-5.28573e-05	   7.69361	-5.4267e-05	   7.69287	-5.23877e-05	   7.69287	  -1.30969	
   7.75043	-4.74527e-05	   7.75026	-5.01225e-05	   7.75189	-5.14705e-05	   7.75086	-4.96819e-05	   7.75086	  -1.24205	
   7.80792	-4.48124e-05	   7.80772	-4.72765e-05	   7.80968	-4.86315e-05	   7.80844	-4.69068e-05	   7.80844	  -1.17267	
   7.86505	-4.21411e-05	   7.86488	-4.44125e-05	   7.86696	-4.58623e-05	   7.86563	-4.41387e-05	   7.86563	  -1.10347	
   7.92206	-3.94761e-05	   7.92197	-4.16262e-05	   7.92411	-4.32286e-05	   7.92271	-4.14437e-05	   7.92271	  -1.03609	
   7.97874	-3.68488e-05	   7.97878	-3.89708e-05	   7.98093	-4.07036e-05	   7.97948	-3.88411e-05	   7.97948	 -0.971026	
   8.03493	-3.42735e-05	   8.03513	-3.64349e-05	   8.03725	-3.81761e-05	   8.03577	-3.62948e-05	   8.03577	  -0.90737	
   8.09087	-3.17296e-05	   8.09114	-3.39399e-05	    8.0933	-3.55217e-05	   8.09177	-3.37304e-05	   8.09177	 -0.843261	
   8.14665	-2.91875e-05	   8.14689	-3.14034e-05	   8.14919	-3.27235e-05	   8.14758	-3.11048e-05	   8.14758	  -0.77762	
   8.20208	-2.66144e-05	   8.20235	-2.87753e-05	   8.20473	-2.98323e-05	   8.20305	-2.84073e-05	   8.20305	 -0.710183	
     8.257	-2.40023e-05	   8.25734	-2.60865e-05	   8.25975	-2.69922e-05	   8.25803	-2.56937e-05	   8.25803	 -0.642342	
   8.31152	-2.13747e-05	   8.31185	-2.33675e-05	   8.31449	-2.43016e-05	   8.31262	-2.30146e-05	   8.31262	 -0.575364	
   8.36588	-1.87525e-05	   8.36625	-2.06744e-05	   8.36907	-2.17656e-05	   8.36707	-2.03975e-05	   8.36707	 -0.509938	
   8.41991	-1.61569e-05	   8.42036	-1.80246e-05	   8.42329	-1.93058e-05	   8.42119	-1.78291e-05	   8.42119	 -0.445728	
   8.47344	-1.35837e-05	   8.47402	-1.54128e-05	    8.4771	-1.67766e-05	   8.47485	-1.52577e-05	   8.47485	 -0.381442	
   8.52672	-1.1014e-05	   8.52706	-1.27933e-05	   8.53078	-1.40827e-05	   8.52819	-1.263e-05	   8.52819	  -0.31575	
   8.57986	-8.4152e-06	   8.58003	-1.01029e-05	   8.58428	-1.12278e-05	   8.58139	-9.9153e-06	   8.58139	 -0.247882	
   8.63267	-5.77597e-06	   8.63274	-7.35669e-06	   8.63742	-8.30658e-06	   8.63428	-7.14641e-06	   8.63428	  -0.17866	
     8.685	-3.12155e-06	   8.68503	-4.57998e-06	   8.69004	-5.45938e-06	   8.68669	-4.38697e-06	   8.68669	 -0.109674	
   8.73711	-4.95751e-07	   8.73687	-1.82728e-06	   8.74227	-2.76873e-06	   8.73875	-1.69725e-06	   8.73875	-0.0424313	
   8.78895	2.06613e-06	   8.78826	8.46309e-07	   8.79422	-2.32133e-07	   8.79047	8.93434e-07	   8.79047	 0.0223359	
    8.8405	4.56873e-06	   8.83945	3.42964e-06	   8.84586	2.23686e-06	   8.84194	3.41175e-06	   8.84194	 0.0852937	
    8.8916	7.04722e-06	   8.89028	5.94651e-06	   8.89704	4.7616e-06	   8.89297	5.91844e-06	   8.89297	  0.147961	
   8.94238	9.55954e-06	   8.94059	8.47455e-06	   8.94774	7.42608e-06	   8.94357	8.48672e-06	   8.94357	  0.212168	
   8.99309	1.21409e-05	   8.99066	1.10764e-05	   8.99796	1.02267e-05	    8.9939	1.1148e-05	    8.9939	    0.2787	
   9.04354	1.47908e-05	   9.04025	1.37663e-05	   9.04796	1.30834e-05	   9.04392	1.38802e-05	   9.04392	  0.347004	
   9.09359	1.74698e-05	   9.08957	1.65224e-05	    9.0976	1.58816e-05	   9.09359	1.66246e-05	   9.09359	  0.415616	
   9.14309	2.0124e-05	   9.13846	1.92721e-05	   9.14671	1.8542e-05	   9.14275	1.93127e-05	   9.14275	  0.482818	
    9.1923	2.27233e-05	   9.18679	2.19643e-05	   9.19543	2.10585e-05	   9.19151	2.19154e-05	   9.19151	  0.547885	
   9.24119	2.52653e-05	   9.23459	2.45779e-05	   9.24404	2.35068e-05	   9.23994	 2.445e-05	   9.23994	   0.61125	
   9.28977	2.77834e-05	   9.28226	2.71302e-05	   9.29236	2.60003e-05	   9.28813	2.69713e-05	   9.28813	  0.674282	
   9.33789	3.03289e-05	   9.32962	2.96666e-05	   9.34025	2.86215e-05	   9.33592	2.9539e-05	   9.33592	  0.738475	
   9.38542	3.29428e-05	   9.37654	3.22317e-05	   9.38758	3.13718e-05	   9.38318	3.21821e-05	   9.38318	  0.804553	
   9.43257	3.56488e-05	   9.42288	3.48488e-05	   9.43455	3.41755e-05	      9.43	3.4891e-05	      9.43	  0.872276	
   9.47956	3.83965e-05	   9.46886	3.7513e-05	   9.48137	3.69226e-05	    9.4766	3.76107e-05	    9.4766	  0.940267	
   9.52622	4.11232e-05	   9.51456	4.01847e-05	   9.52788	3.95362e-05	   9.52289	4.02814e-05	   9.52289	   1.00703	
   9.57241	4.37619e-05	   9.55997	4.28309e-05	   9.57395	4.20202e-05	   9.56878	4.2871e-05	   9.56878	   1.07177	
   9.61801	4.62978e-05	   9.60495	4.54183e-05	   9.61944	4.44502e-05	   9.61413	4.53888e-05	   9.61413	   1.13472	
   9.66335	4.87672e-05	    9.6496	4.79524e-05	   9.66446	4.69329e-05	   9.65914	4.78842e-05	   9.65914	    1.1971	
   9.70839	5.12344e-05	    9.6941	5.04713e-05	   9.70921	4.95341e-05	    9.7039	5.04133e-05	    9.7039	   1.26033	
   9.75312	5.37886e-05	   9.73844	5.30109e-05	   9.75368	5.22492e-05	   9.74841	5.30163e-05	   9.74841	   1.32541	
    9.7974	5.64566e-05	   9.78248	5.56058e-05	   9.79775	5.50106e-05	   9.79254	5.5691e-05	   9.79254	   1.39228	
   9.84112	5.92209e-05	   9.82608	5.82473e-05	   9.84128	5.77215e-05	   9.83616	5.83965e-05	   9.83616	   1.45991	
   9.88417	6.20237e-05	   9.86912	6.09104e-05	   9.88416	6.03182e-05	   9.87915	6.10841e-05	   9.87915	    1.5271	
   9.92699	6.47636e-05	   9.91176	6.35531e-05	    9.9267	6.28051e-05	   9.92182	6.37073e-05	   9.92182	   1.59268	
   9.96958	6.73815e-05	   9.95396	6.61333e-05	   9.96905	6.52499e-05	    9.9642	6.62549e-05	    9.9642	   1.65637	
   10.0118	6.98583e-05	   9.99594	6.86432e-05	   10.0111	6.77461e-05	   10.0063	6.87492e-05	   10.0063	   1.71873	
   10.0536	7.22633e-05	   10.0376	7.11033e-05	   10.0526	7.03502e-05	   10.0479	7.12389e-05	   10.0479	   1.78097	
   10.0948	7.4695e-05	   10.0787	7.35541e-05	   10.0937	7.30493e-05	   10.0891	7.37662e-05	   10.0891	   1.84415	
   10.1356	7.72246e-05	   10.1193	7.60261e-05	    10.134	7.57736e-05	   10.1296	7.63414e-05	   10.1296	   1.90854	
   10.1759	7.98767e-05	   10.1594	7.85367e-05	    10.174	7.84355e-05	   10.1698	7.89496e-05	   10.1698	   1.97374	
   10.2159	8.25938e-05	   10.1992	8.10801e-05	   10.2139	8.09829e-05	   10.2097	8.15523e-05	   10.2097	   2.03881	
   10.2557	8.52691e-05	   10.2386	8.36434e-05	   10.2533	8.34295e-05	   10.2492	8.4114e-05	   10.2492	   2.10285	
   10.2949	8.78174e-05	   10.2776	8.62129e-05	   10.2923	8.58375e-05	   10.2883	8.66226e-05	   10.2883	   2.16557	
   10.3336	9.02223e-05	   10.3162	8.87686e-05	   10.3307	8.82899e-05	   10.3268	8.90936e-05	   10.3268	   2.22734	
   10.3716	9.25648e-05	   10.3543	9.13008e-05	   10.3688	9.08313e-05	   10.3649	9.15656e-05	   10.3649	   2.28914	
   10.4092	9.49439e-05	    10.392	9.38054e-05	   10.4068	9.34466e-05	   10.4027	9.40653e-05	   10.4027	   2.35163	
   10.4468	9.74518e-05	   10.4295	9.62866e-05	   10.4443	9.60754e-05	   10.4402	9.66046e-05	   10.4402	   2.41512	
    10.484	0.000100087	   10.4668	9.87626e-05	   10.4816	 9.864e-05	   10.4775	9.91632e-05	   10.4775	   2.47908	
   10.5208	0.000102758	   10.5039	0.000101249	   10.5186	0.000101099	   10.5144	0.000101702	   10.5144	   2.54255	
   10.5571	0.000105354	   10.5405	0.000103759	    10.555	0.00010347	   10.5509	0.000104194	   10.5509	   2.60486	
   10.5928	0.000107818	   10.5766	0.000106284	   10.5908	0.00010581	   10.5868	0.000106638	   10.5868	   2.66594	
   10.6279	0.000110169	   10.6121	0.00010881	   10.6261	0.00010819	   10.6221	0.000109056	   10.6221	   2.72641	
   10.6626	0.000112482	   10.6471	0.000111324	   10.6611	0.000110645	    10.657	0.000111484	    10.657	   2.78709	
   10.6971	0.000114861	   10.6817	0.00011382	   10.6958	0.000113162	   10.6915	0.000113948	   10.6915	    2.8487	
   10.7313	0.000117351	   10.7157	 0.0001163	   10.7302	0.00011569	   10.7257	0.000116447	   10.7257	   2.91118	
   10.7651	0.000119935	   10.7495	0.000118779	   10.7643	0.000118161	   10.7596	0.000118958	   10.7596	   2.97396	
   10.7985	0.00012253	   10.7829	0.000121262	   10.7979	0.000120541	   10.7931	0.000121445	   10.7931	   3.03611	
   10.8314	0.000125045	    10.816	0.000123759	   10.8309	0.000122846	   10.8261	0.000123883	   10.8261	   3.09709	
   10.8636	0.00012744	   10.8485	0.00012626	   10.8634	0.000125128	   10.8585	0.000126276	   10.8585	    3.1569	
   10.8952	0.000129734	   10.8804	0.000128754	   10.8952	0.000127446	   10.8903	0.000128645	   10.8903	   3.21611	
   10.9266	  0.000132	   10.9118	0.000131233	   10.9264	0.000129829	   10.9216	0.000131021	   10.9216	   3.27552	
   10.9576	0.000134323	   10.9429	0.000133698	   10.9572	0.000132259	   10.9526	0.000133427	   10.9526	   3.33567	
   10.9882	0.000136742	   10.9738	0.00013615	   10.9878	0.000134689	   10.9832	0.00013586	   10.9832	   3.39651	
   11.0184	0.000139241	   11.0043	0.000138592	   11.0181	0.000137075	   11.0136	0.000138303	   11.0136	   3.45757	
   11.0484	0.000141751	   11.0346	0.000141027	   11.0481	0.000139394	   11.0437	0.000140724	   11.0437	    3.5181	
   11.0778	0.000144201	   11.0645	0.000143469	   11.0776	0.000141664	   11.0733	0.000143111	   11.0733	   3.57778	
   11.1067	0.000146554	    11.094	0.000145939	   11.1066	0.00014392	   11.1024	0.000145471	   11.1024	   3.63678	
   11.1351	0.00014883	   11.1229	0.000148443	    11.135	0.000146193	    11.131	0.000147822	    11.131	   3.69555	
   11.1628	0.000151094	   11.1512	0.000150973	   11.1629	0.000148499	    11.159	0.000150189	    11.159	   3.75472	
   11.1898	0.000153418	   11.1789	0.000153484	   11.1903	0.000150833	   11.1863	0.000152578	   11.1863	   3.81446	
   11.2165	0.000155835	   11.2059	0.000155934	   11.2174	0.000153177	   11.2133	0.000154982	   11.2133	   3.87455	
   11.2427	0.000158328	   11.2329	0.000158309	   11.2441	0.000155518	   11.2399	0.000157385	   11.2399	   3.93463	
   11.2686	0.00016082	   11.2595	0.000160662	   11.2704	0.00015783	   11.2662	0.000159771	   11.2662	   3.99427	
   11.2942	0.000163232	    11.286	0.000163043	   11.2964	0.000160089	   11.2922	0.000162121	   11.2922	   4.05304	
   11.3196	0.000165519	   11.3117	 0.0001655	   11.3222	0.000162285	   11.3178	0.000164435	   11.3178	   4.11086	
   11.3446	0.000167701	   11.3369	0.000168014	   11.3475	0.000164437	    11.343	0.000166717	    11.343	   4.16793	
   11.3692	0.000169866	   11.3614	0.000170526	   11.3724	0.000166612	   11.3677	0.000169001	   11.3677	   4.22503	
   11.3933	0.000172109	   11.3853	0.000172979	   11.3968	0.000168846	   11.3918	0.000171311	   11.3918	   4.28278	
   11.4168	0.00017449	   11.4092	0.000175335	   11.4206	0.000171173	   11.4155	0.000173666	   11.4155	   4.34165	
     11.44	0.000176993	   11.4324	0.000177649	   11.4439	0.000173525	   11.4387	0.000176056	   11.4387	   4.40139	
   11.4624	0.000179521	   11.4559	0.000179993	   11.4666	0.000175835	   11.4616	0.00017845	   11.4616	   4.46124	
   11.4843	0.000181955	   11.4782	0.000182425	   11.4887	0.00017806	   11.4837	0.000180813	   11.4837	   4.52033	
   11.5057	0.000184213	   11.5003	0.000184948	   11.5102	0.000180187	   11.5054	0.000183116	   11.5054	    4.5779	
   11.5266	0.000186317	   11.5216	0.000187493	   11.5312	0.000182287	   11.5265	0.000185366	   11.5265	   4.63414	
    11.547	0.000188361	   11.5427	0.000189973	   11.5517	0.000184435	   11.5471	0.00018759	   11.5471	   4.68975	
   11.5672	0.000190482	   11.5632	0.000192339	   11.5719	0.000186708	   11.5674	0.000189843	   11.5674	   4.74607	
   11.5869	0.000192754	   11.5835	0.000194598	   11.5917	0.000189087	   11.5874	0.000192147	   11.5874	   4.80367	
   11.6062	0.000195169	   11.6032	0.000196821	   11.6114	0.000191478	   11.6069	0.000194489	   11.6069	   4.86224	
   11.6252	0.000197625	   11.6226	0.00019909	   11.6307	0.000193781	   11.6262	0.000196832	   11.6262	    4.9208	
   11.6439	0.000199992	   11.6412	0.000201464	   11.6497	0.000195936	   11.6449	0.000199131	   11.6449	   4.97827	
   11.6623	0.000202201	   11.6595	0.000203935	    11.668	0.000197989	   11.6633	0.000201375	   11.6633	   5.03437	
   11.6804	0.000204262	   11.6773	0.000206437	    11.686	0.000200039	   11.6812	0.000203579	   11.6812	   5.08947	
   11.6981	0.000206274	   11.6947	0.000208885	   11.7037	0.000202187	   11.6988	0.000205782	   11.6988	   5.14455	
   11.7154	0.000208353	   11.7116	0.000211222	   11.7209	0.000204482	    11.716	0.000208019	    11.716	   5.20048	
   11.7323	0.00021056	   11.7281	0.000213446	   11.7377	0.000206865	   11.7327	0.00021029	   11.7327	   5.25725	
   11.7487	0.000212877	    11.744	0.000215614	    11.754	0.000209231	   11.7489	0.000212574	   11.7489	   5.31434	
   11.7647	0.000215216	   11.7594	0.000217807	   11.7699	0.000211473	   11.7647	0.000214832	   11.7647	    5.3708	
   11.7801	0.000217471	   11.7743	0.000220075	   11.7852	0.000213555	   11.7799	0.000217034	   11.7799	   5.42584	
   11.7951	0.000219578	   11.7887	0.000222399	   11.8001	0.00021553	   11.7946	0.000219169	   11.7946	   5.47923	
   11.8095	0.000221546	   11.8027	0.000224737	   11.8144	 0.0002175	   11.8089	0.000221261	   11.8089	   5.53152	
   11.8234	0.000223465	   11.8163	0.000227041	   11.8283	0.000219558	   11.8227	0.000223355	   11.8227	   5.58387	
   11.8368	0.000225447	   11.8294	0.000229292	   11.8415	0.000221726	   11.8359	0.000225488	   11.8359	   5.63721	
   11.8496	0.00022758	   11.8413	0.000231498	   11.8543	0.000223968	   11.8484	0.000227682	   11.8484	   5.69205	
   11.8619	0.000229864	   11.8524	0.000233681	   11.8665	0.00022621	   11.8603	0.000229918	   11.8603	   5.74796	
   11.8737	0.000232205	   11.8632	0.000235865	   11.8782	0.000228382	   11.8717	0.000232151	   11.8717	   5.80377	
   11.8849	0.000234461	    11.874	0.00023805	   11.8893	0.000230451	   11.8827	0.000234321	   11.8827	   5.85802	
   11.8956	0.000236517	   11.8846	0.000240226	   11.8999	0.000232446	   11.8934	0.000236396	   11.8934	   5.90991	
   11.9059	0.000238349	   11.8946	0.000242394	     11.91	0.000234425	   11.9035	0.000238389	   11.9035	   5.95973	
   11.9163	0.000240059	   11.9045	0.000244542	   11.9196	0.000236438	   11.9135	0.000240346	   11.9135	   6.00866	
   11.9263	0.00024181	   11.9138	0.000246642	   11.9287	0.000238495	    11.923	0.000242316	    11.923	   6.05789	
   11.9359	0.00024376	   11.9227	0.000248677	   11.9373	0.000240574	    11.932	0.000244337	    11.932	   6.10842	
   11.9447	0.000245946	   11.9316	0.000250643	   11.9454	0.000242624	   11.9406	0.000246404	   11.9406	   6.16011	
   11.9524	0.000248276	   11.9396	0.000252585	   11.9531	0.000244607	   11.9484	0.000248489	   11.9484	   6.21223	
    11.959	0.000250574	   11.9479	0.00025455	   11.9603	0.000246515	   11.9557	0.000250546	   11.9557	   6.26366	
   11.9648	0.000252688	   11.9542	0.000256582	    11.967	0.00024838	    11.962	0.00025255	    11.962	   6.31375	
   11.9703	0.000254559	   11.9607	0.000258661	   11.9733	0.000250257	   11.9681	0.000254492	   11.9681	   6.36231	
   11.9754	0.000256267	   11.9656	0.000260732	   11.9792	0.00025219	   11.9734	0.000256396	   11.9734	   6.40991	
   11.9802	0.000257979	   11.9709	0.000262751	   11.9847	0.000254184	   11.9786	0.000258305	   11.9786	   6.45762	
   11.9846	0.000259843	   11.9752	0.000264677	   11.9898	0.000256195	   11.9832	0.000260238	   11.9832	   6.50596	
   11.9888	0.000261916	   11.9796	0.000266535	   11.9945	0.000258165	   11.9876	0.000262205	   11.9876	   6.55512	
   11.9926	0.000264123	   11.9832	0.000268375	   11.9989	0.000260058	   11.9915	0.000264185	   11.9915	   6.60463	
    11.996	0.000266311	   11.9864	0.00027025	   12.0029	0.000261878	   11.9951	0.000266146	   11.9951	   6.65366	
   11.9992	0.000268343	   11.9888	0.000272182	   12.0066	0.000263669	   11.9982	0.000268065	   11.9982	   6.70163	
   12.0019	0.000270164	   11.9909	0.000274139	     12.01	0.000265503	   12.0009	0.000269935	   12.0009	   6.74838	
   12.0045	0.000271839	   11.9923	0.000276073	   12.0127	0.000267429	   12.0032	0.00027178	   12.0032	   6.79451	
   12.0067	0.000273514	   11.9938	0.000277945	   12.0153	0.000269416	   12.0053	0.000273625	   12.0053	   6.84063	
   12.0085	0.000275319	   11.9948	0.000279744	   12.0174	0.000271389	   12.0069	0.000275484	   12.0069	    6.8871	
     12.01	0.000277313	   11.9954	0.000281498	   12.0192	0.000273239	   12.0082	0.00027735	   12.0082	   6.93376	
   12.0111	0.000279436	   11.9956	0.000283254	   12.0216	0.000274938	   12.0094	0.000279209	   12.0094	   6.98024	
   12.0115	0.000281542	   11.9956	0.000285046	   12.0232	0.000276531	   12.0101	0.00028104	   12.0101	   7.02599	
   12.0112	0.000283492	    11.995	0.000286874	   12.0254	0.000278117	   12.0105	0.000282828	   12.0105	   7.07069	
   12.0102	0.000285221	   11.9942	0.000288719	   12.0257	0.000279807	     12.01	0.000284582	     12.01	   7.11456	
   12.0085	0.000286799	    11.993	0.00029055	   12.0263	0.00028165	   12.0093	0.000286333	   12.0093	   7.15833	
   12.0064	0.000288362	   11.9913	0.000292329	   12.0247	0.000283607	   12.0074	0.000288099	   12.0074	   7.20249	
   12.0036	0.000290052	   11.9891	0.000294042	   12.0225	0.000285571	   12.0051	0.000289888	   12.0051	   7.24721	
   12.0005	0.000291925	   11.9866	0.000295713	   12.0194	0.000287432	   12.0022	0.00029169	   12.0022	   7.29225	
   11.9969	0.000293925	   11.9837	0.000297389	   12.0162	0.000289113	   11.9989	0.000293476	   11.9989	    7.3369	
    11.993	0.000295916	   11.9805	0.000299097	   12.0122	0.000290652	   11.9952	0.000295221	   11.9952	   7.38053	
   11.9888	0.000297758	   11.9768	0.000300834	   12.0078	0.000292124	   11.9911	0.000296905	   11.9911	   7.42263	
   11.9841	0.000299397	   11.9728	0.00030256	   12.0031	0.000293652	   11.9867	0.000298536	   11.9867	   7.46341	
   11.9791	0.000300894	   11.9684	0.000304235	    11.998	0.000295294	   11.9818	0.000300141	   11.9818	   7.50352	
   11.9738	0.000302393	   11.9634	0.000305832	   11.9921	0.000297035	   11.9765	0.000301753	   11.9765	   7.54383	
   11.9683	0.000304028	   11.9576	0.000307385	   11.9861	0.00029881	   11.9707	0.000303408	   11.9707	   7.58519	
    11.962	0.000305842	   11.9515	0.000308935	   11.9793	0.000300515	   11.9643	0.000305097	   11.9643	   7.62743	
   11.9551	0.000307758	   11.9447	0.000310503	    11.972	0.00030209	   11.9572	0.000306783	   11.9572	   7.66958	
   11.9475	0.000309635	   11.9374	0.000312106	    11.964	0.000303538	   11.9496	0.000308426	   11.9496	   7.71066	
   11.9395	0.000311363	   11.9296	0.000313702	   11.9557	0.000304924	   11.9416	0.000309996	   11.9416	   7.74991	
    11.931	0.00031291	   11.9215	0.000315278	   11.9469	0.000306343	   11.9331	0.00031151	   11.9331	   7.78776	
   11.9221	0.000314339	    11.913	0.00031681	   11.9377	0.000307853	   11.9242	0.000313001	   11.9242	   7.82502	
   11.9129	0.000315779	   11.9041	0.000318311	   11.9281	0.000309455	    11.915	0.000314515	    11.915	   7.86288	
   11.9034	0.000317345	   11.8949	0.000319783	   11.9183	0.000311093	   11.9055	0.000316073	   11.9055	   7.90183	
   11.8936	0.00031908	   11.8851	0.000321232	   11.9081	0.000312676	   11.8956	0.000317663	   11.8956	   7.94157	
   11.8834	0.00032092	   11.8748	0.000322662	   11.8971	0.000314156	   11.8851	0.000319246	   11.8851	   7.98115	
   11.8725	0.000322738	   11.8638	0.000324062	   11.8855	0.000315532	   11.8739	0.000320777	   11.8739	   8.01943	
   11.8609	0.000324424	   11.8522	0.000325452	   11.8732	0.000316861	   11.8621	0.000322246	   11.8621	   8.05615	
   11.8487	0.000325948	   11.8402	0.000326856	   11.8604	0.000318222	   11.8498	0.000323675	   11.8498	   8.09188	
   11.8361	0.000327356	   11.8278	0.000328291	   11.8471	0.000319666	    11.837	0.000325104	    11.837	    8.1276	
   11.8232	0.000328727	   11.8151	0.00032975	   11.8335	0.000321184	   11.8239	0.000326554	   11.8239	   8.16384	
   11.8099	0.000330159	   11.8021	0.00033121	   11.8197	0.000322722	   11.8106	0.00032803	   11.8106	   8.20076	
   11.7963	0.000331682	   11.7888	0.000332635	   11.8055	0.000324208	   11.7969	0.000329508	   11.7969	    8.2377	
   11.7824	0.000333256	   11.7751	0.000334005	   11.7909	0.000325604	   11.7828	0.000330955	   11.7828	   8.27387	
   11.7678	0.000334801	   11.7607	0.000335331	   11.7758	0.000326918	   11.7681	0.00033235	   11.7681	   8.30875	
   11.7525	0.000336252	   11.7457	0.000336659	   11.7601	0.000328199	   11.7528	0.000333703	   11.7528	   8.34259	
   11.7367	0.000337598	   11.7303	0.00033802	   11.7438	0.000329508	   11.7369	0.000335042	   11.7369	   8.37605	
   11.7205	0.000338882	   11.7145	0.000339413	   11.7272	0.000330875	   11.7207	0.00033639	   11.7207	   8.40976	
   11.7039	0.000340184	   11.6982	 0.0003408	   11.7102	0.00033229	   11.7041	0.000337758	   11.7041	   8.44395	
    11.687	0.000341554	   11.6814	0.000342136	   11.6929	0.000333708	   11.6871	0.000339132	   11.6871	   8.47831	
   11.6696	0.00034298	   11.6641	0.000343396	   11.6751	0.000335073	   11.6696	0.000340483	   11.6696	   8.51207	
   11.6519	0.000344406	   11.6461	0.000344591	   11.6566	0.000336359	   11.6515	0.000341786	   11.6515	   8.54464	
   11.6334	0.000345761	   11.6276	0.000345768	   11.6375	0.000337579	   11.6328	0.000343036	   11.6328	    8.5759	
   11.6145	0.000347004	   11.6086	0.000346967	    11.618	0.00033878	   11.6137	0.00034425	   11.6137	   8.60626	
   11.5952	0.000348152	   11.5894	0.000348225	   11.5981	0.000340012	   11.5942	0.000345463	   11.5942	   8.63657	
   11.5756	0.000349263	   11.5696	0.000349543	   11.5778	0.000341298	   11.5743	0.000346701	   11.5743	   8.66753	
   11.5555	0.000350406	   11.5493	0.000350895	   11.5572	0.000342619	    11.554	0.000347974	    11.554	   8.69934	
   11.5348	 0.0003516	   11.5283	0.000352227	   11.5359	0.00034393	    11.533	0.000349253	    11.533	   8.73132	
   11.5134	0.00035282	   11.5068	0.000353493	   11.5141	0.000345186	   11.5115	 0.0003505	   11.5115	   8.76249	
   11.4916	0.000354025	   11.4849	0.000354663	   11.4919	0.00034637	   11.4895	0.000351686	   11.4895	   8.79215	
   11.4694	0.000355181	   11.4627	0.000355762	   11.4693	0.000347503	   11.4671	0.000352815	   11.4671	   8.82038	
   11.4469	0.000356276	   11.4399	0.000356845	   11.4462	0.00034862	   11.4443	0.000353913	   11.4443	   8.84784	
   11.4239	0.000357331	   11.4167	0.000357963	   11.4228	0.000349763	   11.4211	0.000355019	   11.4211	   8.87548	
   11.4004	0.000358385	   11.3929	0.000359155	   11.3986	0.000350952	   11.3973	0.000356164	   11.3973	    8.9041	
   11.3763	0.000359458	   11.3686	0.000360381	    11.374	0.00035217	    11.373	0.000357336	    11.373	   8.93341	
   11.3518	0.00036054	   11.3439	0.000361598	   11.3489	0.000353384	   11.3482	0.000358507	   11.3482	   8.96268	
   11.3269	0.000361595	   11.3189	0.000362745	   11.3236	0.000354551	   11.3231	0.00035963	   11.3231	   8.99076	
   11.3017	0.000362589	   11.2936	0.000363808	   11.2978	0.000355649	   11.2977	0.000360682	   11.2977	   9.01705	
    11.276	0.000363512	   11.2676	0.000364817	   11.2715	0.000356689	   11.2717	0.000361673	   11.2717	   9.04181	
   11.2498	0.000364384	   11.2411	0.000365815	   11.2446	0.000357709	   11.2452	0.000362636	   11.2452	    9.0659	
   11.2231	0.000365248	   11.2142	0.000366861	   11.2173	0.000358751	   11.2182	0.00036362	   11.2182	    9.0905	
    11.196	0.000366133	    11.187	0.000367967	   11.1896	0.000359838	   11.1909	0.000364646	   11.1909	   9.11615	
   11.1685	0.000367037	   11.1591	0.000369105	   11.1616	0.000360959	   11.1631	0.000365701	   11.1631	   9.14251	
   11.1406	0.000367942	   11.1308	0.000370217	   11.1331	0.000362081	   11.1348	0.000366747	   11.1348	   9.16867	
   11.1122	0.000368818	    11.102	0.000371258	    11.104	0.000363157	   11.1061	0.000367744	   11.1061	   9.19361	
   11.0833	0.000369663	   11.0728	0.000372217	   11.0745	0.000364165	   11.0769	0.000368682	   11.0769	   9.21704	
    11.054	0.000370495	   11.0434	0.000373126	   11.0447	0.000365115	   11.0474	0.000369579	   11.0474	   9.23947	
   11.0245	0.000371353	   11.0136	0.000374031	   11.0146	0.000366044	   11.0176	0.000370476	   11.0176	    9.2619	
   10.9944	0.000372255	   10.9832	0.000374974	   10.9841	0.000366996	   10.9872	0.000371408	   10.9872	   9.28521	
   10.9638	0.000373176	   10.9523	0.000375965	   10.9531	0.000368001	   10.9564	0.00037238	   10.9564	   9.30951	
   10.9326	0.000374063	    10.921	0.000376974	   10.9216	0.000369051	   10.9251	0.000373363	   10.9251	   9.33407	
   10.9012	0.000374864	   10.8896	0.00037796	     10.89	0.000370111	   10.8936	0.000374312	   10.8936	   9.35779	
   10.8693	0.000375562	   10.8577	0.000378889	   10.8579	0.000371128	   10.8616	0.000375193	   10.8616	   9.37984	
   10.8368	0.000376194	   10.8253	0.000379757	   10.8252	0.000372068	   10.8291	0.000376006	   10.8291	   9.40016	
   10.8038	0.000376822	   10.7924	0.000380588	    10.792	0.000372928	   10.7961	0.000376779	   10.7961	   9.41948	
   10.7704	0.000377503	   10.7592	0.000381426	   10.7586	0.000373733	   10.7627	0.000377554	   10.7627	   9.43886	
   10.7368	0.000378256	   10.7256	0.000382298	   10.7248	0.000374539	   10.7291	0.000378364	   10.7291	    9.4591	
   10.7027	0.000379053	   10.6913	0.000383205	   10.6904	0.000375395	   10.6948	0.000379218	   10.6948	   9.48044	
   10.6681	0.000379838	   10.6565	0.000384127	   10.6555	0.000376323	     10.66	0.000380096	     10.66	    9.5024	
    10.633	0.000380557	   10.6213	0.000385029	   10.6203	0.000377309	   10.6249	0.000380965	   10.6249	   9.52413	
   10.5977	0.000381184	   10.5859	0.000385887	   10.5846	0.000378305	   10.5894	0.000381792	   10.5894	   9.54479	
   10.5621	0.000381724	   10.5498	0.000386693	   10.5484	0.000379246	   10.5535	0.000382554	   10.5535	   9.56386	
    10.526	0.000382232	   10.5133	0.000387463	   10.5117	0.000380095	    10.517	0.000383263	    10.517	   9.58158	
   10.4893	0.000382756	   10.4764	0.000388223	   10.4747	0.000380852	   10.4801	0.000383944	   10.4801	   9.59859	
   10.4524	0.000383339	   10.4392	0.000388999	   10.4374	0.000381575	    10.443	0.000384638	    10.443	   9.61594	
    10.415	0.000383978	   10.4015	0.000389811	      10.4	0.000382323	   10.4055	0.000385371	   10.4055	   9.63427	
    10.377	0.000384626	   10.3633	0.000390655	    10.362	0.000383125	   10.3675	0.000386135	   10.3675	   9.65339	
   10.3387	0.000385236	   10.3248	0.000391486	   10.3237	0.000383962	    10.329	0.000386895	    10.329	   9.67237	
      10.3	0.00038576	   10.2861	0.000392277	    10.285	0.000384789	   10.2904	0.000387608	   10.2904	   9.69021	
    10.261	0.000386202	   10.2468	0.000393001	   10.2459	0.000385558	   10.2512	0.000388254	   10.2512	   9.70634	
   10.2213	0.000386603	   10.2069	0.000393674	   10.2063	0.000386227	   10.2115	0.000388835	   10.2115	   9.72087	
   10.1813	0.000387014	   10.1668	0.000394337	   10.1663	0.000386826	   10.1714	0.000389392	   10.1714	   9.73481	
   10.1409	0.000387488	   10.1263	0.000395029	    10.126	0.00038742	    10.131	0.000389979	    10.131	   9.74947	
      10.1	0.000388016	   10.0853	0.000395773	   10.0851	0.000388075	   10.0901	0.000390621	   10.0901	   9.76553	
   10.0587	0.00038857	   10.0439	0.000396539	   10.0438	0.000388834	   10.0488	0.000391314	   10.0488	   9.78286	
    10.017	0.000389093	   10.0022	0.000397294	   10.0021	0.000389654	   10.0071	0.000392014	   10.0071	   9.80034	
    9.9748	0.000389542	   9.96029	0.000397994	   9.96025	0.000390459	   9.96511	0.000392665	   9.96511	   9.81662	
   9.93233	0.000389919	   9.91795	0.000398622	   9.91787	0.000391154	   9.92272	0.000393232	   9.92272	    9.8308	
   9.88937	0.000390259	   9.87521	0.000399206	   9.87505	0.000391695	   9.87988	0.00039372	   9.87988	     9.843	
   9.84611	0.00039062	   9.83191	0.000399781	   9.83198	0.000392119	   9.83666	0.000394173	   9.83666	   9.85433	
   9.80239	0.00039104	   9.78826	0.000400382	   9.78861	0.000392506	   9.79308	0.000394643	   9.79308	   9.86607	
   9.75833	0.000391511	    9.7441	0.000401022	   9.74467	0.000392971	   9.74903	0.000395168	   9.74903	   9.87919	
   9.71386	0.000391995	   9.69964	0.000401675	   9.70037	0.000393572	   9.70462	0.000395747	   9.70462	   9.89368	
   9.66918	0.00039245	   9.65506	0.000402304	   9.65589	0.000394295	   9.66004	0.000396349	   9.66004	   9.90873	
   9.62399	0.000392862	   9.60997	0.000402872	   9.61108	0.000395053	   9.61501	0.000396929	   9.61501	   9.92323	
    9.5783	0.000393244	   9.56446	0.000403375	   9.56577	0.000395734	   9.56951	0.000397451	   9.56951	   9.93627	
   9.53202	0.000393622	   9.51859	0.000403838	   9.52019	0.000396284	    9.5236	0.000397915	    9.5236	   9.94787	
   9.48514	0.000394015	   9.47235	0.000404298	   9.47416	0.000396698	   9.47722	0.000398337	   9.47722	   9.95842	
   9.43771	0.000394417	   9.42561	0.000404787	   9.42768	0.000397048	   9.43034	0.000398751	   9.43034	   9.96877	
   9.38995	0.000394808	   9.37858	0.00040531	   9.38084	0.000397418	   9.38312	0.000399179	   9.38312	   9.97947	
   9.34206	0.000395181	   9.33131	0.000405837	   9.33369	0.000397869	   9.33569	0.000399629	   9.33569	   9.99072	
   9.29405	0.000395527	   9.28362	0.00040633	   9.28623	0.000398406	   9.28797	0.000400088	   9.28797	   10.0022	
    9.2456	0.000395872	   9.23554	0.000406758	   9.23832	0.000398987	   9.23982	0.000400539	   9.23982	   10.0135	
   9.19691	0.000396208	   9.18715	0.00040712	   9.19004	0.000399544	   9.19137	0.000400957	   9.19137	   10.0239	
   9.14751	0.000396549	   9.13838	0.000407442	    9.1413	0.000400022	    9.1424	0.000401338	    9.1424	   10.0334	
   9.09831	0.000396853	   9.08916	0.000407768	   9.09207	0.00040041	   9.09318	0.000401677	   9.09318	   10.0419	
   9.04856	0.000397111	   9.03971	0.000408127	   9.04255	0.000400729	   9.04361	0.000401989	   9.04361	   10.0497	
   8.99899	0.000397329	   8.98954	0.000408516	   8.99282	0.000401044	   8.99378	0.000402296	   8.99378	   10.0574	
   8.94895	0.000397506	   8.93904	0.000408908	   8.94253	0.000401412	    8.9435	0.000402609	    8.9435	   10.0652	
   8.89919	0.000397683	    8.8881	0.000409259	    8.8919	0.000401852	   8.89306	0.000402931	   8.89306	   10.0733	
   8.84864	0.00039787	   8.83712	0.000409547	   8.84081	0.000402346	   8.84219	0.000403254	   8.84219	   10.0814	
   8.79756	0.000398061	   8.78561	0.000409772	   8.78954	0.000402825	    8.7909	0.000403553	    8.7909	   10.0888	
   8.74618	0.000398245	   8.73379	0.000409961	   8.73791	0.000403223	   8.73929	0.00040381	   8.73929	   10.0952	
    8.6944	0.000398397	   8.68155	0.000410124	   8.68611	0.000403509	   8.68735	0.00040401	   8.68735	   10.1002	
    8.6424	0.000398512	   8.62887	0.000410301	   8.63389	0.000403701	   8.63505	0.000404171	   8.63505	   10.1043	
   8.59005	0.000398599	   8.57587	0.000410514	   8.58126	0.000403854	    8.5824	0.000404323	    8.5824	   10.1081	
   8.53731	0.000398668	   8.52278	0.00041077	   8.52803	0.000404043	   8.52937	0.000404494	   8.52937	   10.1123	
   8.48419	0.000398737	    8.4691	0.000411052	   8.47434	0.000404319	   8.47588	0.000404703	   8.47588	   10.1176	
   8.43069	0.00039881	   8.41508	0.000411312	   8.42025	0.000404687	   8.42201	0.000404936	   8.42201	   10.1234	
   8.37678	0.000398885	   8.36081	0.000411516	   8.36545	0.000405085	   8.36768	0.000405162	   8.36768	    10.129	
   8.32257	0.000398939	    8.3061	0.000411648	   8.31006	0.000405429	   8.31291	0.000405339	   8.31291	   10.1335	
   8.26803	0.000398958	   8.25104	0.000411722	   8.25432	0.000405655	    8.2578	0.000405445	    8.2578	   10.1361	
   8.21321	0.000398936	   8.19587	0.000411768	   8.19848	0.000405753	   8.20252	0.000405485	   8.20252	   10.1371	
    8.1578	0.000398884	   8.14012	0.000411827	   8.14274	0.000405778	   8.14689	0.000405496	   8.14689	   10.1374	
   8.10191	0.000398829	   8.08403	0.00041192	   8.08647	0.000405838	    8.0908	0.000405529	    8.0908	   10.1382	
   8.04578	0.000398787	   8.02783	0.000412043	   8.03024	0.000405991	   8.03462	0.000405607	   8.03462	   10.1402	
    7.9893	0.000398759	   7.97152	0.000412167	    7.9735	0.000406239	    7.9781	0.000405722	    7.9781	    10.143	
   7.93235	0.000398725	   7.91484	0.000412255	   7.91625	0.000406497	   7.92115	0.000405826	   7.92115	   10.1456	
   7.87519	0.000398647	   7.85791	0.000412292	   7.85873	0.000406681	   7.86394	0.000405873	   7.86394	   10.1468	
   7.81769	0.000398504	   7.80056	0.000412285	    7.8015	0.000406711	   7.80659	0.000405833	   7.80659	   10.1458	
   7.75976	0.000398299	   7.74288	0.000412256	   7.74388	0.000406605	   7.74884	0.00040572	   7.74884	    10.143	
   7.70163	0.000398067	    7.6851	0.000412228	   7.68611	0.00040646	   7.69095	0.000405585	   7.69095	   10.1396	
   7.64313	0.00039786	   7.62702	0.00041221	   7.62773	0.00040637	   7.63263	0.00040548	   7.63263	    10.137	
   7.58423	0.000397716	   7.56862	0.000412193	   7.56951	0.000406389	   7.57412	0.000405433	   7.57412	   10.1358	
   7.52516	0.000397636	    7.5099	0.00041216	   7.51047	0.000406487	   7.51517	0.000405428	   7.51517	   10.1357	
    7.4659	0.000397585	   7.45064	0.00041209	   7.45128	0.000406575	   7.45594	0.000405417	   7.45594	   10.1354	
   7.40625	0.000397506	   7.39112	0.000411977	   7.39218	0.000406556	   7.39651	0.000405346	   7.39651	   10.1337	
   7.34648	0.000397352	   7.33156	0.000411826	   7.33313	0.000406393	   7.33705	0.00040519	   7.33705	   10.1298	
   7.28646	0.000397112	   7.27161	0.00041165	   7.27315	0.000406123	   7.27707	0.000404962	   7.27707	    10.124	
   7.22609	0.000396823	   7.21142	0.000411441	   7.21288	0.000405835	   7.21679	 0.0004047	   7.21679	   10.1175	
   7.16562	0.000396523	   7.15094	0.000411215	   7.15228	0.000405611	   7.15628	0.00040445	   7.15628	   10.1112	
    7.1046	0.000396257	   7.09001	0.000410972	   7.09137	0.000405471	   7.09533	0.000404233	   7.09533	   10.1058	
   7.04329	0.000396044	    7.0289	0.000410737	   7.03011	0.000405385	    7.0341	0.000404056	    7.0341	   10.1014	
   6.98194	0.00039587	   6.96755	0.000410534	   6.96873	0.00040528	   6.97274	0.000403895	   6.97274	   10.0974	
   6.92023	0.000395709	   6.90582	0.000410369	   6.90691	0.000405089	   6.91098	0.000403722	   6.91098	   10.0931	
   6.85827	0.000395535	   6.84394	0.000410234	   6.84457	0.000404788	   6.84893	0.000403519	   6.84893	    10.088	
   6.79597	0.000395338	   6.78193	0.000410078	   6.78199	0.000404402	   6.78663	0.000403273	   6.78663	   10.0818	
   6.73325	0.000395108	   6.71958	0.000409838	    6.7192	0.000403997	   6.72401	0.000402981	   6.72401	   10.0745	
   6.67036	0.000394844	   6.65713	0.000409489	   6.65618	0.000403635	   6.66122	0.000402656	   6.66122	   10.0664	
   6.60721	0.000394548	   6.59448	0.00040904	   6.59297	0.000403349	   6.59822	0.000402312	   6.59822	   10.0578	
   6.54371	0.00039423	   6.53154	0.00040856	   6.52948	0.000403118	   6.53491	0.000401969	   6.53491	   10.0492	
   6.48011	0.000393933	   6.46841	0.000408129	   6.46582	0.000402875	   6.47145	0.000401646	   6.47145	   10.0411	
   6.41598	0.000393685	    6.4048	0.000407792	   6.40169	0.000402557	   6.40749	0.000401344	   6.40749	   10.0336	
   6.35158	0.000393473	   6.34097	0.000407531	   6.33753	0.000402136	   6.34336	0.000401047	   6.34336	   10.0262	
   6.28707	0.000393236	   6.27684	0.000407275	    6.2734	0.000401638	    6.2791	0.000400717	    6.2791	   10.0179	
   6.22265	0.000392906	   6.21232	0.000406947	   6.20886	0.000401124	   6.21461	0.000400326	   6.21461	   10.0081	
   6.15911	0.000392452	   6.14768	0.000406509	   6.14417	0.000400651	   6.15032	0.000399871	   6.15032	   9.99677	
   6.09482	0.000391891	   6.08266	0.000405975	   6.07925	0.000400239	   6.08557	0.000399368	   6.08557	   9.98421	
    6.0311	0.000391305	   6.01734	0.000405402	   6.01399	0.000399861	   6.02081	0.000398856	   6.02081	    9.9714	
   5.96561	0.000390801	   5.95199	0.000404858	    5.9484	0.000399458	   5.95534	0.000398372	   5.95534	   9.95931	
   5.90052	0.000390453	   5.88617	0.00040436	   5.88233	0.000398982	   5.88967	0.000397932	   5.88967	    9.9483	
   5.83336	0.000390228	   5.82016	0.000403916	   5.81606	0.000398416	   5.82319	0.00039752	   5.82319	     9.938	
   5.76592	0.000390023	   5.75421	0.000403473	   5.74962	0.000397782	   5.75658	0.000397093	   5.75658	   9.92732	
   5.69771	0.000389721	   5.68787	0.00040298	    5.6828	0.000397137	   5.68946	0.000396613	   5.68946	   9.91532	
   5.62972	0.000389245	   5.62127	0.000402415	   5.61589	0.000396525	    5.6223	0.000396062	    5.6223	   9.90154	
   5.56124	0.000388621	   5.55465	0.000401783	   5.54913	0.00039596	   5.55501	0.000395455	   5.55501	   9.88637	
     5.493	0.000387946	   5.48774	0.000401118	   5.48219	0.000395422	   5.48764	0.000394829	   5.48764	   9.87071	
   5.42477	0.000387333	   5.42066	0.000400453	   5.41519	0.000394859	   5.42021	0.000394215	   5.42021	   9.85538	
    5.3564	0.000386843	   5.35314	0.000399819	   5.34813	0.000394234	   5.35256	0.000393632	   5.35256	    9.8408	
   5.28752	0.000386438	   5.28544	0.000399222	   5.28084	0.000393534	    5.2846	0.000393065	    5.2846	   9.82662	
   5.21855	0.000386024	   5.21773	0.000398649	   5.21347	0.000392781	   5.21658	0.000392485	   5.21658	   9.81211	
   5.14929	0.000385506	   5.14967	0.000398064	    5.1457	0.000392018	   5.14822	0.000391863	   5.14822	   9.79657	
   5.08001	0.000384835	   5.08154	0.000397434	   5.07781	0.000391284	   5.07979	0.000391184	   5.07979	   9.77961	
   5.01028	0.00038406	   5.01309	0.000396732	   5.00971	0.000390593	   5.01103	0.000390462	   5.01103	   9.76155	
   4.94062	0.000383265	   4.94441	0.000395968	   4.94133	0.000389927	   4.94212	0.00038972	   4.94212	     9.743	
   4.87092	0.000382549	   4.87577	0.000395182	   4.87281	0.000389244	   4.87316	0.000388991	   4.87316	   9.72478	
   4.80128	0.000381938	   4.80674	0.000394412	   4.80398	0.000388512	     4.804	0.000388287	     4.804	   9.70718	
   4.73155	0.00038139	    4.7376	0.000393682	     4.735	0.000387716	   4.73472	0.000387596	   4.73472	    9.6899	
   4.66187	0.000380812	   4.66827	0.000392968	   4.66566	0.000386876	   4.66527	0.000386885	   4.66527	   9.67213	
   4.59193	0.000380108	   4.59867	0.000392244	   4.59617	0.000386028	   4.59559	0.000386127	   4.59559	   9.65317	
   4.52187	0.000379251	   4.52881	0.000391466	   4.52651	0.000385206	   4.52573	0.000385308	   4.52573	   9.63269	
   4.45139	0.000378289	   4.45855	0.000390635	   4.45691	0.000384419	   4.45562	0.000384448	   4.45562	   9.61119	
    4.3808	0.000377324	   4.38818	0.000389772	    4.3871	0.000383651	   4.38536	0.000383583	   4.38536	   9.58956	
   4.31008	0.000376446	   4.31742	0.00038891	   4.31737	0.000382871	   4.31496	0.000382742	   4.31496	   9.56855	
   4.23923	0.000375671	   4.24642	0.000388073	   4.24727	0.00038205	   4.24431	0.000381932	   4.24431	   9.54829	
   4.16837	0.000374967	   4.17528	0.000387259	   4.17709	0.000381179	   4.17358	0.000381135	   4.17358	   9.52838	
   4.09743	0.000374215	   4.10399	0.000386444	   4.10651	0.000380271	   4.10265	0.00038031	   4.10265	   9.50776	
   4.02633	0.000373323	    4.0326	0.000385596	   4.03572	0.000379358	   4.03155	0.000379426	   4.03155	   9.48564	
   3.95533	0.000372305	   3.96123	0.000384692	   3.96485	0.000378457	   3.96047	0.000378485	   3.96047	   9.46212	
   3.88401	0.000371202	    3.8896	0.000383738	   3.89362	0.000377575	   3.88907	0.000377505	   3.88907	   9.43762	
   3.81264	0.000370132	   3.81798	0.000382755	   3.82232	0.000376697	   3.81765	0.000376528	   3.81765	    9.4132	
   3.74109	0.000369156	   3.74637	0.000381776	   3.75094	0.000375803	   3.74613	0.000375578	   3.74613	   9.38946	
   3.66935	0.000368281	   3.67461	0.000380817	   3.67934	0.000374888	   3.67443	0.000374662	   3.67443	   9.36655	
   3.59771	0.000367437	   3.60298	0.000379869	   3.60779	0.000373957	   3.60282	0.000373755	   3.60282	   9.34386	
   3.52583	0.000366519	   3.53103	0.000378915	   3.53597	0.000373022	   3.53094	0.000372819	   3.53094	   9.32046	
   3.45389	0.000365463	   3.45907	0.00037793	   3.46406	0.000372083	   3.45901	0.000371826	   3.45901	   9.29564	
   3.38174	0.000364275	   3.38679	0.000376906	   3.39179	0.000371135	   3.38677	0.000370772	   3.38677	    9.2693	
   3.30939	0.000363032	   3.31436	0.000375844	   3.31929	0.000370165	   3.31435	0.000369681	   3.31435	   9.24202	
     3.237	0.00036184	   3.24171	0.000374757	   3.24687	0.000369178	   3.24186	0.000368592	   3.24186	   9.21479	
   3.16428	0.000360758	   3.16878	0.00037366	   3.17422	0.000368167	   3.16909	0.000367529	   3.16909	   9.18821	
   3.09151	0.000359777	   3.09572	0.000372564	   3.10149	0.000367152	   3.09624	0.000366497	   3.09624	   9.16244	
   3.01879	0.000358818	   3.02277	0.000371473	   3.02845	0.000366119	   3.02334	0.00036547	   3.02334	   9.13675	
   2.94587	0.000357787	   2.94967	0.000370375	    2.9552	0.00036507	   2.95025	0.000364411	   2.95025	   9.11027	
   2.87303	0.000356629	   2.87657	0.000369248	   2.88163	0.000363986	   2.87708	0.000363288	   2.87708	    9.0822	
   2.79984	0.000355353	   2.80318	0.000368084	    2.8083	0.000362857	   2.80377	0.000362098	   2.80377	   9.05245	
   2.72659	0.00035403	    2.7298	0.000366875	   2.73491	0.000361712	   2.73043	0.000360872	   2.73043	   9.02181	
   2.65322	0.00035275	   2.65623	0.000365638	   2.66162	0.000360578	   2.65702	0.000359655	   2.65702	   8.99138	
   2.57966	0.000351562	   2.58252	0.000364385	   2.58811	0.00035948	   2.58343	0.000358475	   2.58343	   8.96188	
   2.50606	0.000350456	   2.50856	0.000363114	   2.51439	0.000358404	   2.50967	0.000357324	   2.50967	   8.93311	
   2.43213	0.000349369	   2.43485	0.000361824	   2.44035	0.000357319	   2.43578	0.00035617	   2.43578	   8.90426	
   2.35807	0.00034822	   2.36115	0.000360494	   2.36616	0.000356191	   2.36179	0.000354969	   2.36179	   8.87422	
   2.28385	0.000346963	   2.28731	0.000359137	   2.29167	0.000354996	   2.28761	0.000353699	   2.28761	   8.84247	
   2.20949	0.000345605	   2.21332	0.000357766	   2.21705	0.000353741	   2.21329	0.000352371	   2.21329	   8.80927	
   2.13509	0.000344202	   2.13931	0.000356399	   2.14239	0.000352452	   2.13893	0.000351018	   2.13893	   8.77545	
   2.06064	0.000342827	   2.06502	0.000355055	   2.06793	0.000351176	   2.06453	0.000349686	   2.06453	   8.74215	
   1.98619	0.000341524	   1.99062	0.000353709	   1.99344	0.000349953	   1.99009	0.000348395	   1.99009	   8.70988	
    1.9116	0.000340279	   1.91611	0.000352334	   1.91894	0.000348772	   1.91555	0.000347128	   1.91555	   8.67821	
   1.83688	0.000339036	    1.8415	0.000350892	   1.84429	0.000347597	   1.84089	0.000345842	   1.84089	   8.64604	
   1.76219	0.000337734	   1.76694	0.000349368	   1.76976	0.000346382	    1.7663	0.000344495	    1.7663	   8.61237	
   1.68723	0.000336342	   1.69215	0.000347782	   1.69494	0.000345091	   1.69144	0.000343072	   1.69144	    8.5768	
   1.61231	0.000334875	    1.6174	0.000346177	   1.62012	0.000343728	   1.61661	0.000341593	   1.61661	   8.53983	
   1.53735	0.000333381	   1.54264	0.000344602	   1.54507	0.000342309	   1.54168	0.000340097	   1.54168	   8.50243	
   1.46227	0.000331918	   1.46778	0.000343083	    1.4699	0.000340866	   1.46665	0.000338622	   1.46665	   8.46555	
   1.38724	0.000330513	   1.39297	0.000341602	   1.39476	0.000339443	   1.39166	0.000337186	   1.39166	   8.42964	
    1.3121	0.000329151	   1.31794	0.00034011	   1.31937	0.000338033	   1.31647	0.000335765	   1.31647	   8.39412	
     1.237	0.000327787	   1.24296	0.000338565	   1.24403	0.000336641	   1.24133	0.000334331	   1.24133	   8.35827	
   1.16187	0.000326366	   1.16798	0.000336935	   1.16866	0.000335227	   1.16617	0.000332843	   1.16617	   8.32107	
   1.08664	0.000324863	   1.09291	0.000335245	    1.0932	0.000333764	   1.09092	0.000331291	   1.09092	   8.28227	
   1.01145	0.00032329	   1.01776	0.000333532	   1.01765	0.000332257	   1.01562	0.000329693	   1.01562	   8.24232	
  0.936204	0.000321692	  0.942411	0.000331863	  0.942066	0.000330713	  0.940227	0.000328089	  0.940227	   8.20224	
  0.860998	0.000320116	   0.86714	0.000330279	  0.866541	0.000329161	  0.864893	0.000326519	  0.864893	   8.16296	
  0.785562	0.000318595	  0.791536	0.000328774	   0.79094	0.000327596	  0.789346	0.000324988	  0.789346	    8.1247	
  0.710049	0.000317122	  0.715901	0.000327272	  0.715268	0.000326018	  0.713739	0.000323471	  0.713739	   8.08677	
  0.634739	0.000315676	   0.64034	0.000325695	  0.639806	0.000324421	  0.638295	0.000321931	  0.638295	   8.04827	
   0.55932	0.000314211	  0.564722	0.000323972	   0.56424	 0.0003228	   0.56276	0.000320327	   0.56276	   8.00818	
  0.483957	0.000312689	  0.489211	0.000322106	  0.488738	0.000321174	  0.487302	0.000318656	  0.487302	   7.96641	
   0.40865	0.000311094	  0.413527	0.000320171	  0.413158	0.000319544	  0.411778	0.000316936	  0.411778	   7.92341	
  0.333252	0.000309433	   0.33782	0.000318278	  0.337507	0.000317908	  0.336193	0.000315206	  0.336193	   7.88016	
  0.258045	0.000307738	   0.26214	0.000316521	  0.261839	0.000316247	  0.260675	0.000313502	  0.260675	   7.83756	
  0.182741	0.000306055	  0.186301	0.000314917	   0.18611	0.000314534	  0.185051	0.000311835	  0.185051	   7.79588	
   0.10748	0.000304415	  0.110592	0.000313395	  0.110325	0.000312762	  0.109466	0.000310191	  0.109466	   7.75477	
 0.0323627	0.000302817	 0.0349339	0.00031185	 0.0345597	0.00031094	 0.0339521	0.000308536	 0.0339521	   7.71339	
-0.0428625	0.000301233	-0.0407424	0.00031017	-0.0412549	 0.0003091	-0.0416199	0.000306834	-0.0416199	   7.67085	
  -0.11805	0.000299617	 -0.116571	0.000308321	  -0.11684	0.000307281	 -0.117154	0.000305073	 -0.117154	   7.62683	
 -0.193339	0.000297939	 -0.192539	0.00030635	 -0.192487	 0.0003055	 -0.192788	0.000303263	 -0.192788	   7.58158	
 -0.268587	0.00029619	 -0.268529	0.000304363	 -0.268054	0.000303753	  -0.26839	0.000301435	  -0.26839	   7.53588	
 -0.343867	0.000294397	 -0.344549	0.000302479	 -0.343729	  0.000302	 -0.344048	0.000299625	 -0.344048	   7.49063	
 -0.419245	0.000292602	  -0.42055	0.000300734	 -0.419458	 0.0003002	 -0.419751	0.000297845	 -0.419751	   7.44613	
 -0.494576	0.00029083	 -0.496394	0.00029907	 -0.495233	0.000298333	 -0.495401	0.000296078	 -0.495401	   7.40194	
 -0.570138	0.000289093	 -0.572195	0.000297371	 -0.570846	0.00029641	  -0.57106	0.000294292	  -0.57106	   7.35729	
  -0.64564	0.000287368	 -0.647856	0.000295532	 -0.646379	0.000294469	 -0.646625	0.000292456	 -0.646625	   7.31141	
 -0.721083	0.000285631	 -0.723655	0.000293529	 -0.721973	0.000292549	 -0.722237	0.00029057	 -0.722237	   7.26424	
  -0.79661	0.000283859	 -0.799446	0.000291424	 -0.797622	0.000290666	 -0.797892	0.00028865	 -0.797892	   7.21624	
 -0.871939	0.000282047	 -0.875124	0.000289325	 -0.873048	0.000288813	 -0.873371	0.000286728	 -0.873371	    7.1682	
  -0.94727	0.00028021	 -0.950711	0.000287324	 -0.948681	0.000286956	 -0.948887	0.00028483	 -0.948887	   7.12075	
  -1.02256	0.000278365	  -1.02617	0.000285435	  -1.02423	0.000285072	  -1.02432	0.000282957	  -1.02432	   7.07393	
  -1.09794	0.000276529	  -1.10165	0.000283608	   -1.0997	0.000283154	  -1.09976	0.000281097	  -1.09976	   7.02743	
  -1.17342	0.000274708	  -1.17714	0.000281747	  -1.17506	0.00028121	  -1.17521	0.000279222	  -1.17521	   6.98054	
  -1.24871	0.000272896	  -1.25249	0.000279782	  -1.25022	0.00027925	  -1.25047	0.000277309	  -1.25047	   6.93273	
  -1.32382	0.000271086	    -1.328	0.000277699	  -1.32534	0.000277269	  -1.32572	0.000275351	  -1.32572	   6.88379	
  -1.39891	0.000269257	  -1.40339	0.00027554	  -1.40028	0.000275265	  -1.40086	0.000273354	  -1.40086	   6.83385	
  -1.47371	0.000267372	  -1.47874	0.000273384	  -1.47493	0.000273225	  -1.47579	0.000271327	  -1.47579	   6.78318	
  -1.54854	0.000265424	  -1.55411	0.000271285	  -1.54915	0.000271157	   -1.5506	0.000269288	   -1.5506	   6.73221	
  -1.62324	0.000263415	  -1.62924	0.000269261	  -1.62328	0.000269071	  -1.62525	0.000267249	  -1.62525	   6.68123	
  -1.69796	0.000261396	  -1.70455	0.000267288	  -1.69747	0.000267002	  -1.69999	0.000265229	  -1.69999	   6.63072	
  -1.77271	0.000259411	  -1.77975	0.000265302	  -1.77222	0.000264969	   -1.7749	0.000263227	   -1.7749	   6.58068	
   -1.8472	0.000257487	  -1.85471	0.000263255	   -1.8474	0.000262968	  -1.84977	0.000261237	  -1.84977	   6.53092	
  -1.92174	0.000255624	  -1.92959	0.000261138	  -1.92269	0.000260969	  -1.92467	0.000259244	  -1.92467	   6.48109	
   -1.9962	0.000253787	  -2.00427	0.00025898	  -1.99782	0.000258935	  -1.99943	0.000257234	  -1.99943	   6.43085	
  -2.07047	0.000251918	  -2.07901	0.000256819	  -2.07251	0.000256855	    -2.074	0.000255197	    -2.074	   6.37993	
  -2.14482	0.00024996	   -2.1537	0.000254675	  -2.14689	0.000254744	  -2.14847	0.000253126	  -2.14847	   6.32816	
  -2.21911	0.000247897	  -2.22809	0.000252547	  -2.22105	0.000252634	  -2.22275	0.000251026	  -2.22275	   6.27565	
  -2.29321	0.00024576	  -2.30246	0.000250413	  -2.29515	0.000250552	  -2.29694	0.000248909	  -2.29694	   6.22272	
  -2.36727	0.000243616	  -2.37683	0.000248253	  -2.36934	0.00024851	  -2.37115	0.000246793	  -2.37115	   6.16982	
  -2.44104	0.000241531	  -2.45093	0.000246064	  -2.44347	0.000246492	  -2.44515	0.000244696	  -2.44515	   6.11739	
  -2.51496	0.000239535	  -2.52505	0.000243862	  -2.51769	0.000244464	  -2.51923	0.00024262	  -2.51923	   6.06551	
  -2.58874	0.000237599	  -2.59893	0.000241657	  -2.59173	0.000242391	  -2.59313	0.000240549	  -2.59313	   6.01372	
  -2.66253	0.000235652	  -2.67273	0.000239467	  -2.66574	0.000240253	    -2.667	0.000238457	    -2.667	   5.96143	
  -2.73635	0.000233591	  -2.74647	0.000237255	  -2.73973	0.000238065	  -2.74085	0.000236304	  -2.74085	   5.90759	
  -2.81006	0.000231404	  -2.82001	0.000235029	  -2.81344	0.000235866	  -2.81451	 0.0002341	  -2.81451	    5.8525	
  -2.88381	0.000229147	  -2.89366	0.000232773	   -2.8869	0.000233695	  -2.88813	0.000231872	  -2.88813	   5.79679	
  -2.95761	0.000226938	  -2.96714	0.000230514	  -2.96027	0.000231574	  -2.96167	0.000229675	  -2.96167	   5.74188	
  -3.03159	0.000224851	  -3.04047	0.000228267	  -3.03342	0.000229486	  -3.03516	0.000227535	  -3.03516	   5.68837	
  -3.10587	0.000222901	  -3.11381	0.000226022	  -3.10667	0.000227396	  -3.10878	0.00022544	  -3.10878	   5.63599	
  -3.18003	0.000220995	  -3.18689	0.000223779	  -3.17972	0.000225262	  -3.18221	0.000223345	  -3.18221	   5.58363	
  -3.25409	0.000219008	  -3.25973	0.000221507	  -3.25276	0.000223067	  -3.25553	0.000221194	  -3.25553	   5.52985	
  -3.32736	0.000216847	  -3.33252	0.000219207	  -3.32578	0.000220821	  -3.32856	0.000218958	  -3.32856	   5.47396	
  -3.40076	0.000214526	  -3.40498	0.000216888	  -3.39866	0.000218555	  -3.40147	0.000216656	  -3.40147	   5.41641	
  -3.47372	0.000212168	  -3.47744	0.000214566	  -3.47143	0.000216301	   -3.4742	0.000214345	   -3.4742	   5.35862	
  -3.54658	0.000209899	  -3.54976	0.000212262	  -3.54409	0.000214083	  -3.54681	0.000212081	  -3.54681	   5.30203	
   -3.6192	0.00020777	  -3.62183	0.000209972	  -3.61654	0.000211891	  -3.61919	0.000209877	  -3.61919	   5.24693	
  -3.69176	0.000205744	  -3.69396	0.00020768	  -3.68894	0.000209692	  -3.69155	0.000207705	  -3.69155	   5.19263	
  -3.76345	0.000203695	  -3.76589	0.000205374	  -3.76117	0.000207453	   -3.7635	0.000205507	   -3.7635	   5.13769	
  -3.83532	0.00020153	   -3.8375	0.000203032	  -3.83298	0.000205154	  -3.83527	0.000203239	  -3.83527	   5.08097	
  -3.90627	0.000199218	  -3.90897	0.00020066	  -3.90483	0.000202803	  -3.90669	0.000200894	  -3.90669	   5.02234	
   -3.9779	0.000196825	  -3.98019	0.000198271	  -3.97645	0.000200431	  -3.97818	0.000198509	  -3.97818	   4.96272	
  -4.04852	0.000194441	  -4.05147	0.000195885	  -4.04775	0.000198071	  -4.04925	0.000196132	  -4.04925	    4.9033	
  -4.12002	0.000192136	  -4.12255	0.000193519	  -4.11903	0.000195736	  -4.12054	0.000193797	  -4.12054	   4.84493	
  -4.19056	0.000189937	  -4.19347	0.000191163	  -4.19005	0.000193423	  -4.19136	0.000191508	  -4.19136	    4.7877	
  -4.26146	0.000187792	   -4.2641	0.000188804	  -4.26097	0.000191106	  -4.26217	0.000189234	  -4.26217	   4.73085	
  -4.33134	0.000185619	  -4.33464	0.00018642	  -4.33182	0.000188754	   -4.3326	0.000186931	   -4.3326	   4.67328	
  -4.40196	0.000183348	  -4.40484	0.000183996	  -4.40235	0.000186344	  -4.40305	0.000184563	  -4.40305	   4.61407	
  -4.47177	0.000180959	  -4.47501	0.000181542	  -4.47261	0.000183884	  -4.47313	0.000182128	  -4.47313	   4.55321	
  -4.54194	0.000178504	  -4.54505	0.00017907	  -4.54278	0.000181402	  -4.54325	0.000179658	  -4.54325	   4.49146	
   -4.6115	0.000176056	  -4.61484	0.000176598	   -4.6126	0.000178933	  -4.61298	0.000177196	  -4.61298	   4.42989	
  -4.68123	0.000173687	   -4.6843	0.00017414	   -4.6824	0.000176493	  -4.68264	0.000174773	  -4.68264	   4.36933	
  -4.75029	0.000171415	   -4.7536	0.000171688	  -4.75207	0.000174072	  -4.75199	0.000172392	  -4.75199	   4.30979	
   -4.8196	 0.0001692	  -4.82251	0.000169232	  -4.82149	0.00017164	   -4.8212	0.000170024	   -4.8212	    4.2506	
  -4.88859	0.000166994	  -4.89136	0.000166751	  -4.89059	0.000169167	  -4.89018	0.000167637	  -4.89018	   4.19093	
  -4.95761	0.000164715	  -4.96004	0.000164233	  -4.95953	0.000166638	  -4.95906	0.000165195	  -4.95906	   4.12988	
  -5.02612	0.000162325	   -5.0286	0.000161685	   -5.0281	0.000164074	  -5.02761	0.000162695	  -5.02761	   4.06736	
   -5.0946	0.000159819	  -5.09705	0.000159123	  -5.09648	 0.0001615	  -5.09604	0.000160147	  -5.09604	   4.00368	
  -5.16267	0.00015726	  -5.16532	0.000156568	  -5.16471	0.000158946	  -5.16423	0.000157591	  -5.16423	   3.93978	
  -5.23066	0.000154732	  -5.23329	0.000154029	  -5.23256	0.000156417	  -5.23217	0.000155059	  -5.23217	   3.87648	
  -5.29834	0.000152295	   -5.3013	0.000151497	  -5.30023	0.000153898	  -5.29996	0.000152563	  -5.29996	   3.81409	
   -5.3659	0.000149972	  -5.36909	0.000148957	  -5.36776	0.000151365	  -5.36759	0.000150098	  -5.36759	   3.75245	
   -5.4331	0.000147722	  -5.43659	0.000146396	  -5.43492	0.000148795	  -5.43487	0.000147637	  -5.43487	   3.69094	
  -5.50027	0.000145474	  -5.50396	0.000143809	  -5.50217	0.000146186	  -5.50214	0.000145156	  -5.50214	   3.62891	
  -5.56732	0.000143151	  -5.57112	0.000141203	  -5.56927	0.000143556	  -5.56924	0.000142637	  -5.56924	   3.56592	
  -5.63427	0.000140706	  -5.63785	0.000138593	  -5.63612	0.000140933	  -5.63608	0.000140077	  -5.63608	   3.50193	
  -5.70104	0.00013816	  -5.70462	0.000135993	  -5.70291	0.000138335	  -5.70286	0.000137496	  -5.70286	   3.43741	
  -5.76767	0.000135573	  -5.77118	0.000133409	  -5.76954	0.00013576	  -5.76946	0.000134914	  -5.76946	   3.37285	
  -5.83393	0.000133025	  -5.83732	0.000130834	  -5.83592	0.000133184	  -5.83573	0.000132348	  -5.83573	    3.3087	
  -5.90003	0.000130566	  -5.90324	0.000128257	  -5.90224	0.000130584	  -5.90184	0.000129802	  -5.90184	   3.24506	
    -5.966	0.000128179	  -5.96899	0.000125662	  -5.96841	0.000127949	   -5.9678	0.000127263	   -5.9678	   3.18159	
  -6.03163	0.00012581	  -6.03435	0.000123043	  -6.03419	0.000125292	  -6.03339	0.000124715	  -6.03339	   3.11787	
  -6.09698	0.000123386	  -6.09966	0.000120407	  -6.09979	0.000122633	  -6.09881	0.000122142	  -6.09881	   3.05356	
  -6.16225	0.000120872	  -6.16469	0.000117774	  -6.16526	0.000119989	  -6.16407	0.000119545	  -6.16407	   2.98863	
   -6.2272	0.000118286	  -6.22937	0.000115157	  -6.23039	0.000117351	  -6.22898	0.000116931	  -6.22898	   2.92328	
  -6.29176	0.000115677	  -6.29389	0.000112562	  -6.29508	0.000114693	  -6.29358	0.00011431	  -6.29358	   2.85776	
  -6.35614	0.000113103	  -6.35832	0.000109975	   -6.3597	0.000111988	  -6.35806	0.000111689	  -6.35806	   2.79222	
  -6.42027	0.000110591	  -6.42242	0.000107387	  -6.42402	0.000109234	  -6.42224	0.00010907	  -6.42224	   2.72676	
  -6.48393	0.00010812	  -6.48627	0.000104787	  -6.48796	0.000106458	  -6.48605	0.000106455	  -6.48605	   2.66137	
  -6.54761	0.000105648	  -6.55006	0.000102172	  -6.55174	0.000103701	   -6.5498	0.00010384	   -6.5498	   2.59601	
  -6.61108	0.000103129	  -6.61357	9.95489e-05	  -6.61527	0.000101003	  -6.61331	0.000101227	  -6.61331	   2.53067	
  -6.67412	0.000100543	   -6.6766	9.6927e-05	  -6.67835	9.83641e-05	  -6.67636	9.86113e-05	  -6.67636	   2.46528	
  -6.73697	9.79078e-05	  -6.73936	9.43159e-05	  -6.74133	9.57542e-05	  -6.73922	9.59926e-05	  -6.73922	   2.39982	
  -6.79967	9.52644e-05	  -6.80193	9.17116e-05	  -6.80413	9.31184e-05	  -6.80191	9.33648e-05	  -6.80191	   2.33412	
  -6.86202	9.26527e-05	   -6.8641	8.91064e-05	  -6.86654	9.04119e-05	  -6.86422	9.07236e-05	  -6.86422	   2.26809	
  -6.92396	9.00878e-05	  -6.92608	8.64956e-05	  -6.92851	8.76301e-05	  -6.92618	8.80712e-05	  -6.92618	   2.20178	
  -6.98583	8.75568e-05	  -6.98794	8.38716e-05	  -6.99038	8.48092e-05	  -6.98805	8.54125e-05	  -6.98805	   2.13531	
  -7.04744	8.50253e-05	  -7.04946	8.12332e-05	  -7.05195	8.20069e-05	  -7.04962	8.27552e-05	  -7.04962	   2.06888	
  -7.10856	8.24543e-05	  -7.11046	7.85759e-05	  -7.11303	7.9267e-05	  -7.11068	8.00991e-05	  -7.11068	   2.00248	
  -7.16944	7.98281e-05	   -7.1713	7.59011e-05	  -7.17396	  7.66e-05	  -7.17157	7.74431e-05	  -7.17157	   1.93608	
  -7.23015	7.71586e-05	   -7.2319	7.32134e-05	  -7.23469	7.39885e-05	  -7.23225	7.47868e-05	  -7.23225	   1.86967	
  -7.29047	7.44829e-05	  -7.29208	7.05341e-05	  -7.29501	7.13687e-05	  -7.29252	7.21286e-05	  -7.29252	   1.80321	
  -7.35023	7.18304e-05	  -7.35178	6.78761e-05	    -7.355	6.86936e-05	  -7.35234	6.94667e-05	  -7.35234	   1.73667	
  -7.40994	6.92137e-05	  -7.41138	6.52444e-05	   -7.4149	6.59159e-05	  -7.41207	6.67913e-05	  -7.41207	   1.66978	
  -7.46939	6.66163e-05	  -7.47067	6.26148e-05	  -7.47435	6.30413e-05	  -7.47147	6.40908e-05	  -7.47147	   1.60227	
  -7.52851	6.40035e-05	   -7.5296	5.99624e-05	  -7.53332	6.01201e-05	  -7.53048	6.1362e-05	  -7.53048	   1.53405	
  -7.58727	6.13454e-05	  -7.58825	5.72801e-05	  -7.59204	5.72275e-05	  -7.58919	5.86177e-05	  -7.58919	   1.46544	
  -7.64589	5.86476e-05	  -7.64672	5.45725e-05	  -7.65059	5.44342e-05	  -7.64773	5.58847e-05	  -7.64773	   1.39712	
  -7.70416	5.59444e-05	   -7.7048	5.18722e-05	  -7.70878	5.17524e-05	  -7.70591	5.31897e-05	  -7.70591	   1.32974	
  -7.76205	5.32896e-05	  -7.76246	4.91941e-05	  -7.76656	4.9146e-05	  -7.76369	5.05433e-05	  -7.76369	   1.26358	
  -7.81965	5.07049e-05	  -7.82007	4.65503e-05	  -7.82404	4.65401e-05	  -7.82125	4.79318e-05	  -7.82125	   1.19829	
  -7.87706	4.81633e-05	  -7.87743	4.39193e-05	   -7.8813	4.38511e-05	  -7.87859	4.53112e-05	  -7.87859	   1.13278	
  -7.93407	4.55975e-05	  -7.93434	4.12729e-05	  -7.93815	4.10648e-05	  -7.93552	4.26451e-05	  -7.93552	   1.06613	
  -7.99079	4.29411e-05	  -7.99079	3.85922e-05	   -7.9947	3.82107e-05	  -7.99209	3.99147e-05	  -7.99209	  0.997866	
   -8.0473	4.0171e-05	  -8.04714	3.58685e-05	  -8.05117	3.53704e-05	  -8.04854	3.71366e-05	  -8.04854	  0.928416	
  -8.10357	3.73311e-05	   -8.1032	3.31257e-05	  -8.10738	3.26124e-05	  -8.10472	3.43564e-05	  -8.10472	   0.85891	
  -8.15941	3.45034e-05	   -8.1588	3.03886e-05	  -8.16313	2.99507e-05	  -8.16044	3.16142e-05	  -8.16044	  0.790355	
  -8.21491	3.17595e-05	  -8.21404	2.76457e-05	  -8.21853	2.73401e-05	  -8.21583	2.89151e-05	  -8.21583	  0.722877	
   -8.2702	2.91191e-05	  -8.26917	2.49214e-05	  -8.27383	2.47054e-05	  -8.27107	2.62486e-05	  -8.27107	  0.656216	
  -8.32521	2.65314e-05	  -8.32399	2.22153e-05	  -8.32883	2.1999e-05	  -8.32601	2.35819e-05	  -8.32601	  0.589548	
  -8.37978	2.39098e-05	  -8.37834	1.95391e-05	  -8.38337	1.92274e-05	  -8.38049	2.08921e-05	  -8.38049	  0.522302	
  -8.43388	2.1197e-05	  -8.43219	1.68881e-05	  -8.43755	1.64451e-05	  -8.43454	1.81767e-05	  -8.43454	  0.454418	
   -8.4879	1.8375e-05	  -8.48579	1.42461e-05	  -8.49162	1.36989e-05	  -8.48844	 1.544e-05	  -8.48844	     0.386	
  -8.54165	1.55026e-05	  -8.53913	1.16066e-05	   -8.5454	1.10245e-05	  -8.54206	1.27113e-05	  -8.54206	  0.317781	
  -8.59497	1.26478e-05	  -8.59201	8.93539e-06	  -8.59871	8.40579e-06	  -8.59523	9.99632e-06	  -8.59523	  0.249908	
  -8.64783	9.87442e-06	  -8.64457	6.2316e-06	  -8.65167	5.80164e-06	  -8.64802	7.30255e-06	  -8.64802	  0.182564	
  -8.70048	7.19104e-06	  -8.69678	3.5002e-06	   -8.7044	3.17569e-06	  -8.70055	4.62231e-06	  -8.70055	  0.115558	
   -8.7529	4.54454e-06	  -8.74875	7.61006e-07	  -8.75686	5.01124e-07	  -8.75284	1.93556e-06	  -8.75284	 0.0483889	
  -8.80492	1.86356e-06	  -8.80032	-1.94327e-06	  -8.80888	-2.21373e-06	  -8.80471	-7.64479e-07	  -8.80471	 -0.019112	
  -8.85637	-9.05574e-07	  -8.85146	-4.60316e-06	  -8.86046	-4.95349e-06	   -8.8561	-3.48741e-06	   -8.8561	-0.0871852	
  -8.90754	-3.76027e-06	  -8.90244	-7.21137e-06	  -8.91157	-7.68275e-06	  -8.90718	-6.21813e-06	  -8.90718	 -0.155453	
  -8.95838	-6.64026e-06	  -8.95322	-9.80446e-06	  -8.96247	-1.03673e-05	  -8.95803	-8.93732e-06	  -8.95803	 -0.223433	
   -9.0089	-9.48006e-06	  -9.00364	-1.24782e-05	  -9.01302	-1.29856e-05	  -9.00852	-1.16479e-05	  -9.00852	 -0.291199	
  -9.05892	-1.22359e-05	  -9.05368	-1.52051e-05	  -9.06304	-1.55394e-05	  -9.05855	-1.43268e-05	  -9.05855	  -0.35817	
  -9.10845	-1.49132e-05	  -9.10306	-1.79674e-05	  -9.11268	-1.80679e-05	  -9.10806	-1.69828e-05	  -9.10806	 -0.424571	
  -9.15762	-1.75609e-05	  -9.15233	-2.06489e-05	  -9.16193	-2.0621e-05	  -9.15729	-1.96103e-05	  -9.15729	 -0.490257	
  -9.20656	-2.02427e-05	  -9.20134	-2.32207e-05	  -9.21077	-2.32382e-05	  -9.20622	-2.22338e-05	  -9.20622	 -0.555846	
  -9.25511	-2.30021e-05	  -9.24991	-2.566e-05	  -9.25921	-2.59272e-05	  -9.25475	-2.48631e-05	  -9.25475	 -0.621578	
  -9.30327	-2.5836e-05	  -9.29792	-2.80155e-05	  -9.30724	-2.86569e-05	  -9.30281	-2.75028e-05	  -9.30281	  -0.68757	
  -9.35076	-2.8701e-05	  -9.34537	-3.04185e-05	  -9.35485	-3.13749e-05	  -9.35033	-3.01648e-05	  -9.35033	  -0.75412	
  -9.39801	-3.15376e-05	  -9.39256	-3.29528e-05	  -9.40218	-3.40335e-05	  -9.39758	-3.28413e-05	  -9.39758	 -0.821032	
    -9.445	-3.43003e-05	  -9.43946	-3.56459e-05	  -9.44922	-3.66216e-05	  -9.44456	-3.55226e-05	  -9.44456	 -0.888066	
  -9.49159	-3.69854e-05	  -9.48593	-3.84252e-05	  -9.49584	-3.91701e-05	  -9.49112	-3.81936e-05	  -9.49112	  -0.95484	
  -9.53764	-3.96275e-05	  -9.53185	-4.11645e-05	  -9.54202	-4.17222e-05	  -9.53717	-4.0838e-05	  -9.53717	  -1.02095	
  -9.58331	-4.22811e-05	  -9.57722	-4.37774e-05	  -9.58777	-4.43114e-05	  -9.58277	-4.34566e-05	  -9.58277	  -1.08642	
  -9.62887	-4.49917e-05	  -9.62235	-4.62368e-05	  -9.63339	-4.69461e-05	   -9.6282	-4.60582e-05	   -9.6282	  -1.15145	
  -9.67417	-4.77757e-05	  -9.66722	-4.86025e-05	  -9.67871	-4.95927e-05	  -9.67336	-4.8657e-05	  -9.67336	  -1.21643	
  -9.71906	-5.06074e-05	   -9.7117	-5.09837e-05	  -9.72359	-5.22156e-05	  -9.71812	-5.12689e-05	  -9.71812	  -1.28172	
  -9.76342	-5.34389e-05	  -9.75578	-5.34516e-05	  -9.76806	-5.47938e-05	  -9.76242	-5.38948e-05	  -9.76242	  -1.34737	
  -9.80714	-5.62039e-05	  -9.79936	-5.60366e-05	  -9.81183	-5.73381e-05	  -9.80611	-5.65262e-05	  -9.80611	  -1.41315	
  -9.85051	-5.88913e-05	  -9.84272	-5.86896e-05	   -9.8551	-5.98645e-05	  -9.84944	-5.91485e-05	  -9.84944	  -1.47871	
  -9.89354	-6.15292e-05	  -9.88585	-6.13306e-05	   -9.8976	-6.2418e-05	  -9.89233	-6.17593e-05	  -9.89233	  -1.54398	
  -9.93625	-6.41723e-05	  -9.92863	-6.3899e-05	   -9.9398	-6.49861e-05	  -9.93489	-6.43525e-05	  -9.93489	  -1.60881	
  -9.97851	-6.68779e-05	  -9.97092	-6.63698e-05	  -9.98156	-6.75931e-05	    -9.977	-6.69469e-05	    -9.977	  -1.67367	
  -10.0202	-6.96578e-05	  -10.0126	-6.8783e-05	  -10.0235	-7.02008e-05	  -10.0188	-6.95472e-05	  -10.0188	  -1.73868	
  -10.0614	-7.24858e-05	  -10.0542	-7.12105e-05	  -10.0647	-7.28143e-05	  -10.0601	-7.21702e-05	  -10.0601	  -1.80426	
  -10.1023	-7.52937e-05	  -10.0953	-7.37048e-05	  -10.1056	-7.54192e-05	  -10.1011	-7.48059e-05	  -10.1011	  -1.87015	
   -10.143	-7.80292e-05	  -10.1362	-7.62867e-05	  -10.1457	-7.80055e-05	  -10.1416	-7.74405e-05	  -10.1416	  -1.93601	
  -10.1834	-8.06796e-05	  -10.1766	-7.8919e-05	  -10.1854	-8.05868e-05	  -10.1818	-8.00618e-05	  -10.1818	  -2.00154	
  -10.2233	-8.3278e-05	  -10.2166	-8.1538e-05	  -10.2247	-8.31664e-05	  -10.2215	-8.26608e-05	  -10.2215	  -2.06652	
  -10.2626	-8.58944e-05	  -10.2561	-8.4091e-05	   -10.264	-8.57503e-05	  -10.2609	-8.52453e-05	  -10.2609	  -2.13113	
  -10.3015	-8.85817e-05	  -10.2949	-8.65686e-05	  -10.3031	-8.83374e-05	  -10.2999	-8.78293e-05	  -10.2999	  -2.19573	
  -10.3401	-9.135e-05	  -10.3334	-8.89981e-05	  -10.3416	-9.09216e-05	  -10.3384	-9.04232e-05	  -10.3384	  -2.26058	
  -10.3785	-9.41568e-05	  -10.3716	-9.14336e-05	    -10.38	-9.35101e-05	  -10.3767	-9.30335e-05	  -10.3767	  -2.32584	
  -10.4166	-9.69321e-05	  -10.4095	-9.39076e-05	  -10.4175	-9.61032e-05	  -10.4145	-9.56476e-05	  -10.4145	  -2.39119	
  -10.4542	-9.96272e-05	  -10.4469	-9.64256e-05	  -10.4548	-9.8692e-05	   -10.452	-9.82482e-05	   -10.452	  -2.45621	
  -10.4913	-0.000102223	  -10.4838	-9.89673e-05	  -10.4917	-0.000101277	  -10.4889	-0.000100823	  -10.4889	  -2.52056	
  -10.5278	-0.000104758	  -10.5201	-0.000101497	  -10.5282	-0.000103844	  -10.5254	-0.000103366	  -10.5254	  -2.58415	
  -10.5636	-0.000107298	  -10.5559	-0.000104004	  -10.5643	-0.000106392	  -10.5613	-0.000105898	  -10.5613	  -2.64745	
  -10.5992	-0.000109901	  -10.5915	-0.000106499	     -10.6	-0.000108922	  -10.5969	-0.00010844	  -10.5969	  -2.71101	
  -10.6346	-0.000112593	  -10.6269	 -0.000109	  -10.6351	-0.000111444	  -10.6322	-0.000111012	  -10.6322	  -2.77531	
  -10.6696	-0.000115346	   -10.662	-0.000111524	  -10.6699	-0.000113971	  -10.6671	-0.000113614	  -10.6671	  -2.84034	
  -10.7043	-0.000118097	  -10.6966	-0.000114062	  -10.7043	-0.000116503	  -10.7017	-0.000116221	  -10.7017	  -2.90552	
  -10.7385	-0.000120784	  -10.7307	-0.000116596	  -10.7382	-0.000119039	  -10.7358	-0.000118806	  -10.7358	  -2.97016	
   -10.772	-0.00012337	  -10.7643	-0.000119108	  -10.7716	-0.000121569	  -10.7693	-0.000121349	  -10.7693	  -3.03373	
   -10.805	-0.000125865	  -10.7974	-0.00012159	  -10.8044	-0.000124087	  -10.8023	-0.000123847	  -10.8023	  -3.09618	
  -10.8375	-0.000128317	    -10.83	-0.000124055	  -10.8369	-0.000126591	  -10.8348	-0.000126321	  -10.8348	  -3.15803	
  -10.8696	-0.000130791	  -10.8625	-0.000126527	  -10.8689	-0.000129087	   -10.867	-0.000128801	   -10.867	  -3.22003	
  -10.9015	-0.000133332	  -10.8947	-0.000129025	  -10.9007	-0.000131583	   -10.899	-0.000131313	   -10.899	  -3.28283	
  -10.9331	-0.000135939	  -10.9265	-0.000131553	  -10.9322	-0.000134081	  -10.9306	-0.000133858	  -10.9306	  -3.34644	
  -10.9643	-0.000138577	   -10.958	-0.000134099	  -10.9633	-0.000136574	  -10.9619	-0.000136417	  -10.9619	  -3.41042	
  -10.9951	-0.000141188	  -10.9889	-0.000136635	  -10.9939	-0.000139062	  -10.9926	-0.000138962	  -10.9926	  -3.47404	
  -11.0253	-0.000143725	  -11.0192	-0.00013914	   -11.024	-0.000141538	  -11.0228	-0.000141467	  -11.0228	  -3.53669	
  -11.0549	-0.000146183	   -11.049	-0.000141601	  -11.0535	-0.000144006	  -11.0525	-0.00014393	  -11.0525	  -3.59825	
  -11.0842	-0.000148597	  -11.0783	-0.000144033	  -11.0828	-0.000146466	  -11.0818	-0.000146365	  -11.0818	  -3.65913	
  -11.1129	-0.000151025	  -11.1069	-0.00014647	  -11.1117	-0.000148921	  -11.1105	-0.000148805	  -11.1105	  -3.72012	
  -11.1415	-0.000153504	  -11.1353	-0.000148936	  -11.1405	-0.00015137	  -11.1391	-0.00015127	  -11.1391	  -3.78175	
  -11.1697	-0.000156038	  -11.1634	-0.000151435	   -11.169	-0.000153813	  -11.1674	-0.000153762	  -11.1674	  -3.84406	
  -11.1976	-0.000158596	  -11.1913	-0.000153948	  -11.1971	-0.000156251	  -11.1953	-0.000156265	  -11.1953	  -3.90663	
  -11.2252	-0.000161136	  -11.2188	-0.000156442	  -11.2249	-0.00015868	  -11.2229	-0.000158753	  -11.2229	  -3.96882	
  -11.2523	-0.000163629	  -11.2458	-0.000158895	  -11.2522	-0.000161095	  -11.2501	-0.000161206	  -11.2501	  -4.03016	
   -11.279	-0.000166059	  -11.2724	-0.000161305	   -11.279	-0.000163489	  -11.2768	-0.000163618	  -11.2768	  -4.09044	
  -11.3052	-0.000168444	  -11.2984	-0.000163675	  -11.3053	-0.000165862	  -11.3029	-0.000165994	  -11.3029	  -4.14985	
  -11.3307	-0.000170801	  -11.3239	-0.000166033	  -11.3311	-0.000168222	  -11.3286	-0.000168352	  -11.3286	   -4.2088	
  -11.3557	-0.000173147	  -11.3489	-0.000168401	  -11.3562	-0.000170572	  -11.3536	-0.000170707	  -11.3536	  -4.26767	
  -11.3802	-0.000175486	  -11.3734	-0.000170809	  -11.3808	-0.000172917	  -11.3781	-0.00017307	  -11.3781	  -4.32676	
  -11.4042	-0.000177826	  -11.3974	-0.000173254	  -11.4046	-0.000175254	  -11.4021	-0.000175445	  -11.4021	  -4.38611	
  -11.4278	-0.000180192	   -11.421	-0.000175721	  -11.4281	-0.000177582	  -11.4256	-0.000177832	  -11.4256	  -4.44579	
   -11.451	-0.000182611	  -11.4439	-0.00017818	  -11.4513	-0.0001799	  -11.4488	-0.00018023	  -11.4488	  -4.50575	
  -11.4738	-0.000185067	  -11.4666	-0.000180592	  -11.4744	-0.000182202	  -11.4716	-0.00018262	  -11.4716	  -4.56551	
  -11.4963	-0.000187524	  -11.4891	-0.000182932	  -11.4971	-0.00018449	  -11.4942	-0.000184982	  -11.4942	  -4.62455	
  -11.5186	-0.000189933	  -11.5113	-0.000185206	  -11.5196	-0.000186765	  -11.5165	-0.000187301	  -11.5165	  -4.68253	
  -11.5405	-0.000192267	   -11.533	-0.000187437	  -11.5416	-0.00018903	  -11.5384	-0.000189578	  -11.5384	  -4.73946	
   -11.562	-0.000194521	  -11.5543	-0.000189669	  -11.5633	-0.000191286	  -11.5599	-0.000191825	  -11.5599	  -4.79562	
  -11.5831	-0.000196736	  -11.5751	-0.000191929	  -11.5845	-0.000193533	  -11.5809	-0.000194066	  -11.5809	  -4.85166	
  -11.6037	-0.000198976	  -11.5955	-0.000194222	  -11.6052	-0.000195767	  -11.6014	-0.000196322	  -11.6014	  -4.90804	
  -11.6238	-0.00020126	  -11.6153	-0.000196517	  -11.6253	-0.000197979	  -11.6215	-0.000198585	  -11.6215	  -4.96463	
  -11.6433	-0.00020359	  -11.6346	-0.000198772	  -11.6449	-0.000200167	   -11.641	-0.000200843	   -11.641	  -5.02108	
  -11.6623	-0.000205924	  -11.6534	-0.000200965	  -11.6639	-0.000202335	  -11.6599	-0.000203075	  -11.6599	  -5.07687	
  -11.6808	-0.000208227	  -11.6715	-0.00020311	  -11.6825	-0.000204499	  -11.6783	-0.000205279	  -11.6783	  -5.13197	
  -11.6986	-0.000210466	  -11.6891	-0.000205246	  -11.7004	-0.000206669	   -11.696	-0.00020746	   -11.696	  -5.18651	
  -11.7158	-0.000212652	  -11.7061	-0.000207416	  -11.7177	-0.000208845	  -11.7132	-0.000209638	  -11.7132	  -5.24094	
  -11.7323	-0.000214822	  -11.7224	-0.000209641	  -11.7343	-0.000211013	  -11.7297	-0.000211825	  -11.7297	  -5.29563	
  -11.7483	-0.000217003	  -11.7381	-0.000211897	  -11.7502	-0.000213149	  -11.7455	-0.000214016	  -11.7455	   -5.3504	
  -11.7636	-0.000219211	  -11.7533	-0.000214132	  -11.7658	-0.000215243	  -11.7609	-0.000216195	  -11.7609	  -5.40488	
  -11.7782	-0.000221427	  -11.7679	-0.000216293	  -11.7809	-0.000217304	  -11.7756	-0.000218341	  -11.7756	  -5.45853	
  -11.7923	-0.000223624	  -11.7819	-0.000218359	  -11.7952	-0.000219384	  -11.7898	-0.000220455	  -11.7898	  -5.51139	
  -11.8057	-0.000225778	  -11.7953	-0.000220356	  -11.8089	-0.000221497	  -11.8033	-0.000222544	  -11.8033	  -5.56359	
  -11.8187	-0.000227883	  -11.8084	-0.000222343	  -11.8221	-0.000223657	  -11.8164	-0.000224628	  -11.8164	  -5.61569	
  -11.8312	-0.000229947	  -11.8209	-0.000224379	   -11.835	-0.000225844	   -11.829	-0.000226723	   -11.829	  -5.66808	
  -11.8435	-0.000231991	   -11.833	-0.00022649	  -11.8473	-0.000227997	  -11.8413	-0.000228826	  -11.8413	  -5.72066	
  -11.8553	-0.000234037	  -11.8447	-0.000228653	   -11.859	-0.000230072	   -11.853	-0.000230921	   -11.853	  -5.77302	
  -11.8665	-0.000236096	  -11.8561	-0.000230807	  -11.8704	-0.000232018	  -11.8643	-0.000232974	  -11.8643	  -5.82435	
  -11.8772	-0.000238166	  -11.8672	-0.00023289	  -11.8816	-0.000233878	  -11.8753	-0.000234978	  -11.8753	  -5.87444	
  -11.8875	-0.000240227	  -11.8781	-0.000234879	  -11.8921	-0.000235716	  -11.8859	-0.000236941	  -11.8859	  -5.92352	
  -11.8976	-0.000242258	  -11.8885	-0.000236802	  -11.9023	-0.000237615	  -11.8961	-0.000238892	  -11.8961	  -5.97229	
  -11.9074	-0.000244246	  -11.8982	-0.000238716	   -11.912	-0.00023963	  -11.9059	-0.000240864	  -11.9059	  -6.02161	
  -11.9166	-0.000246194	  -11.9075	-0.000240675	  -11.9212	-0.000241751	  -11.9151	-0.000242873	  -11.9151	  -6.07183	
  -11.9255	-0.000248114	  -11.9163	-0.000242695	    -11.93	-0.000243931	  -11.9239	-0.000244913	  -11.9239	  -6.12283	
  -11.9338	-0.000250023	  -11.9247	-0.000244751	  -11.9383	-0.000246086	  -11.9323	-0.000246953	  -11.9323	  -6.17383	
  -11.9414	-0.000251937	  -11.9326	-0.000246793	  -11.9462	-0.000248168	  -11.9401	-0.000248966	  -11.9401	  -6.22416	
  -11.9486	-0.000253857	  -11.9399	-0.00024878	  -11.9538	-0.000250152	  -11.9474	-0.00025093	  -11.9474	  -6.27324	
  -11.9551	-0.000255779	  -11.9468	-0.000250698	  -11.9607	-0.000252051	  -11.9542	-0.000252843	  -11.9542	  -6.32107	
  -11.9612	-0.000257688	  -11.9532	-0.000252573	  -11.9672	-0.000253916	  -11.9605	-0.000254726	  -11.9605	  -6.36814	
  -11.9669	-0.000259569	  -11.9591	-0.000254453	  -11.9733	-0.000255807	  -11.9664	-0.00025661	  -11.9664	  -6.41525	
   -11.972	-0.00026141	  -11.9646	-0.000256397	  -11.9789	-0.000257761	  -11.9718	-0.000258523	  -11.9718	  -6.46306	
  -11.9765	-0.000263209	  -11.9695	-0.000258415	  -11.9838	-0.000259772	  -11.9766	-0.000260465	  -11.9766	  -6.51163	
  -11.9806	-0.000264982	   -11.974	-0.000260469	  -11.9881	-0.000261802	  -11.9809	-0.000262418	  -11.9809	  -6.56044	
  -11.9842	-0.00026675	   -11.978	-0.000262493	  -11.9921	-0.000263799	  -11.9848	-0.000264347	  -11.9848	  -6.60868	
  -11.9874	-0.00026853	  -11.9815	-0.000264416	  -11.9956	-0.00026571	  -11.9882	-0.000266219	  -11.9882	  -6.65546	
  -11.9902	-0.000270331	  -11.9845	-0.000266221	  -11.9985	-0.000267544	  -11.9911	-0.000268032	  -11.9911	   -6.7008	
  -11.9926	-0.000272126	  -11.9871	-0.000267946	  -12.0011	-0.000269337	  -11.9936	-0.000269803	  -11.9936	  -6.74507	
  -11.9946	-0.000273888	  -11.9892	-0.000269671	  -12.0032	-0.000271157	  -11.9956	-0.000271572	  -11.9956	   -6.7893	
  -11.9962	-0.000275593	   -11.991	-0.000271479	  -12.0049	-0.000273042	  -11.9974	-0.000273371	  -11.9974	  -6.83429	
  -11.9976	-0.000277251	  -11.9924	-0.000273396	  -12.0062	-0.00027499	  -11.9987	-0.000275212	  -11.9987	   -6.8803	
  -11.9986	-0.000278878	  -11.9935	-0.000275381	  -12.0072	-0.000276955	  -11.9998	-0.000277071	  -11.9998	  -6.92678	
  -11.9994	-0.00028051	  -11.9942	-0.000277358	  -12.0079	-0.000278861	  -12.0005	-0.00027891	  -12.0005	  -6.97274	
  -11.9999	-0.000282171	  -11.9947	-0.000279244	  -12.0083	-0.000280666	   -12.001	-0.000280694	   -12.001	  -7.01735	
  -12.0002	-0.000283857	  -11.9949	-0.000281004	  -12.0084	-0.000282381	  -12.0012	-0.000282414	  -12.0012	  -7.06035	
  -12.0002	-0.000285543	  -11.9949	-0.000282665	  -12.0082	-0.000284068	  -12.0011	-0.000284092	  -12.0011	   -7.1023	
  -11.9998	-0.000287199	  -11.9946	-0.000284297	  -12.0077	-0.000285795	  -12.0007	-0.000285764	  -12.0007	  -7.14409	
   -11.999	-0.000288835	  -11.9939	-0.00028597	  -12.0067	-0.000287592	  -11.9998	-0.000287466	  -11.9998	  -7.18664	
  -11.9978	-0.000290447	  -11.9928	-0.000287724	  -12.0053	-0.000289447	  -11.9986	-0.000289206	  -11.9986	  -7.23015	
  -11.9962	-0.000292031	  -11.9911	-0.000289551	  -12.0033	-0.000291295	  -11.9969	-0.000290959	  -11.9969	  -7.27398	
  -11.9939	-0.000293558	  -11.9888	-0.00029141	  -12.0009	-0.000293074	  -11.9945	-0.000292681	  -11.9945	  -7.31702	
  -11.9911	-0.000295018	  -11.9858	-0.000293227	  -11.9979	-0.000294755	  -11.9916	-0.000294333	  -11.9916	  -7.35833	
  -11.9877	-0.000296421	  -11.9823	-0.000294958	  -11.9943	-0.000296362	  -11.9881	-0.000295914	  -11.9881	  -7.39784	
  -11.9837	-0.000297794	  -11.9783	-0.000296597	  -11.9901	-0.000297965	   -11.984	-0.000297452	   -11.984	   -7.4363	
  -11.9793	-0.000299196	  -11.9737	-0.000298179	  -11.9854	-0.000299625	  -11.9795	 -0.000299	  -11.9795	    -7.475	
  -11.9744	-0.000300667	  -11.9687	-0.000299772	  -11.9803	-0.00030137	  -11.9745	-0.000300603	  -11.9745	  -7.51508	
  -11.9692	-0.000302217	  -11.9633	-0.000301421	  -11.9748	-0.000303166	  -11.9691	-0.000302268	  -11.9691	  -7.55671	
  -11.9636	-0.000303811	  -11.9576	-0.00030314	   -11.969	-0.000304934	  -11.9634	-0.000303961	  -11.9634	  -7.59904	
  -11.9578	-0.000305383	  -11.9514	-0.000304878	  -11.9629	-0.000306616	  -11.9574	-0.000305626	  -11.9574	  -7.64064	
  -11.9516	-0.000306877	  -11.9451	-0.000306573	  -11.9565	-0.000308201	  -11.9511	-0.000307217	  -11.9511	  -7.68042	
  -11.9451	-0.000308271	  -11.9384	-0.000308144	  -11.9494	-0.000309731	  -11.9443	-0.000308715	  -11.9443	  -7.71788	
  -11.9381	-0.000309593	  -11.9314	-0.000309601	  -11.9417	-0.000311286	  -11.9371	-0.00031016	  -11.9371	  -7.75401	
  -11.9303	-0.000310899	  -11.9237	-0.000311027	  -11.9336	-0.000312914	  -11.9292	-0.000311613	  -11.9292	  -7.79033	
  -11.9219	-0.00031224	  -11.9152	-0.000312521	  -11.9248	-0.000314618	  -11.9207	-0.000313127	  -11.9207	  -7.82816	
   -11.913	-0.000313644	  -11.9062	-0.00031414	  -11.9155	-0.000316348	  -11.9116	-0.000314711	  -11.9116	  -7.86777	
  -11.9035	-0.000315097	  -11.8967	-0.000315851	  -11.9057	-0.000318036	   -11.902	-0.000316328	   -11.902	  -7.90819	
  -11.8937	-0.000316554	  -11.8868	-0.000317564	  -11.8955	-0.000319632	   -11.892	-0.000317917	   -11.892	  -7.94792	
  -11.8835	-0.000317965	  -11.8765	-0.000319171	   -11.885	-0.000321129	  -11.8817	-0.000319422	  -11.8817	  -7.98554	
   -11.873	-0.000319304	   -11.866	-0.000320619	  -11.8742	-0.000322583	  -11.8711	-0.000320835	  -11.8711	  -8.02088	
  -11.8622	-0.000320583	  -11.8549	-0.000321977	   -11.863	-0.000324053	    -11.86	-0.000322205	    -11.86	  -8.05511	
  -11.8508	-0.000321848	  -11.8433	-0.000323312	  -11.8511	-0.000325588	  -11.8484	-0.000323583	  -11.8484	  -8.08957	
  -11.8387	-0.000323144	  -11.8309	-0.000324724	  -11.8385	-0.000327183	   -11.836	-0.000325017	   -11.836	  -8.12543	
   -11.826	-0.000324498	  -11.8179	-0.000326219	  -11.8253	-0.000328791	  -11.8231	-0.000326503	  -11.8231	  -8.16258	
  -11.8128	-0.000325898	  -11.8044	-0.000327759	  -11.8116	-0.000330354	  -11.8096	-0.000328004	  -11.8096	   -8.2001	
  -11.7991	-0.000327291	  -11.7905	-0.000329246	  -11.7975	-0.000331832	  -11.7957	-0.000329457	  -11.7957	  -8.23641	
  -11.7851	-0.000328618	  -11.7762	-0.000330626	  -11.7831	-0.000333227	  -11.7815	-0.000330824	  -11.7815	  -8.27059	
  -11.7707	-0.000329844	  -11.7615	-0.000331912	  -11.7685	-0.000334594	  -11.7669	-0.000332116	  -11.7669	  -8.30291	
  -11.7557	-0.000330982	  -11.7461	-0.000333159	  -11.7533	-0.000335985	  -11.7517	-0.000333375	  -11.7517	  -8.33438	
    -11.74	-0.000332091	  -11.7302	-0.000334447	  -11.7373	-0.000337433	  -11.7358	-0.000334657	  -11.7358	  -8.36642	
  -11.7238	-0.000333249	  -11.7138	-0.0003358	  -11.7207	-0.000338917	  -11.7194	-0.000335989	  -11.7194	  -8.39972	
   -11.707	-0.000334501	  -11.6969	-0.000337196	  -11.7036	-0.000340379	  -11.7025	-0.000337359	  -11.7025	  -8.43397	
  -11.6897	-0.000335833	  -11.6795	-0.000338577	  -11.6861	-0.000341756	  -11.6851	-0.000338722	  -11.6851	  -8.46805	
  -11.6721	-0.000337186	  -11.6618	-0.000339893	  -11.6683	-0.00034301	  -11.6674	-0.000340029	  -11.6674	  -8.50074	
  -11.6542	-0.00033848	  -11.6438	-0.000341121	  -11.6503	-0.00034417	  -11.6494	-0.000341257	  -11.6494	  -8.53143	
  -11.6357	-0.000339664	  -11.6253	-0.000342272	  -11.6317	-0.00034531	  -11.6309	-0.000342415	  -11.6309	  -8.56039	
  -11.6165	-0.000340744	  -11.6062	-0.000343394	  -11.6124	-0.000346483	  -11.6117	-0.00034354	  -11.6117	  -8.58851	
  -11.5967	-0.000341777	  -11.5865	-0.000344538	  -11.5926	-0.000347738	  -11.5919	-0.000344684	  -11.5919	  -8.61711	
  -11.5764	-0.000342846	  -11.5663	-0.00034574	  -11.5723	-0.000349054	  -11.5717	-0.00034588	  -11.5717	  -8.64699	
  -11.5558	-0.000344003	  -11.5457	-0.000347005	  -11.5516	-0.000350385	  -11.5511	-0.000347131	  -11.5511	  -8.67828	
  -11.5349	-0.000345243	  -11.5249	-0.000348289	  -11.5307	-0.000351661	  -11.5302	-0.000348398	  -11.5302	  -8.70994	
  -11.5139	-0.000346504	  -11.5036	-0.000349541	  -11.5096	-0.000352825	  -11.5091	-0.000349623	  -11.5091	  -8.74059	
  -11.4922	-0.000347702	  -11.4818	-0.000350712	  -11.4877	-0.000353879	  -11.4872	-0.000350764	  -11.4872	   -8.7691	
  -11.4699	-0.000348785	  -11.4593	-0.000351797	  -11.4652	-0.00035485	  -11.4648	-0.00035181	  -11.4648	  -8.79526	
  -11.4471	-0.000349761	  -11.4364	-0.000352832	  -11.4423	-0.000355802	  -11.4419	-0.000352798	  -11.4419	  -8.81996	
  -11.4238	-0.000350708	  -11.4131	-0.000353879	  -11.4191	-0.000356782	  -11.4187	-0.00035379	  -11.4187	  -8.84474	
  -11.4001	-0.000351705	  -11.3896	-0.000354997	  -11.3955	-0.000357804	  -11.3951	-0.000354835	  -11.3951	  -8.87088	
   -11.376	-0.000352797	  -11.3657	-0.000356182	  -11.3714	-0.000358847	   -11.371	-0.000355942	   -11.371	  -8.89854	
  -11.3512	-0.000353952	   -11.341	-0.000357398	  -11.3466	-0.000359861	  -11.3463	-0.00035707	  -11.3463	  -8.92676	
  -11.3258	-0.000355107	  -11.3159	-0.000358579	  -11.3213	-0.000360812	   -11.321	-0.000358166	   -11.321	  -8.95415	
  -11.3001	-0.000356167	  -11.2903	-0.000359679	  -11.2957	-0.000361688	  -11.2954	-0.000359178	  -11.2954	  -8.97945	
  -11.2742	-0.000357103	  -11.2645	-0.000360704	  -11.2696	-0.000362513	  -11.2694	-0.000360107	  -11.2694	  -9.00266	
  -11.2478	-0.000357946	  -11.2381	-0.000361703	  -11.2431	-0.000363335	   -11.243	-0.000360995	   -11.243	  -9.02487	
  -11.2208	-0.000358776	   -11.211	-0.000362742	   -11.216	-0.00036419	  -11.2159	-0.000361903	  -11.2159	  -9.04757	
  -11.1932	-0.000359685	  -11.1833	-0.000363856	  -11.1884	-0.000365081	  -11.1883	-0.000362874	  -11.1883	  -9.07185	
  -11.1653	-0.000360701	  -11.1553	-0.000365033	  -11.1604	-0.000365984	  -11.1603	-0.000363906	  -11.1603	  -9.09765	
  -11.1371	-0.000361802	  -11.1269	-0.000366222	   -11.132	-0.000366858	   -11.132	-0.000364961	   -11.132	  -9.12402	
  -11.1085	-0.000362907	  -11.0982	-0.000367364	  -11.1032	-0.000367675	  -11.1033	-0.000365982	  -11.1033	  -9.14956	
  -11.0793	-0.000363924	  -11.0688	-0.000368433	  -11.0738	-0.000368434	   -11.074	-0.000366931	   -11.074	  -9.17327	
  -11.0496	-0.000364809	  -11.0389	-0.000369439	  -11.0439	-0.000369163	  -11.0442	-0.000367804	  -11.0442	   -9.1951	
  -11.0196	-0.000365576	  -11.0086	-0.000370432	  -11.0137	-0.000369902	   -11.014	-0.000368636	   -11.014	  -9.21591	
  -10.9891	-0.000366296	   -10.978	-0.00037146	  -10.9833	-0.000370673	  -10.9834	-0.000369477	  -10.9834	  -9.23691	
  -10.9582	-0.000367059	  -10.9471	-0.000372551	  -10.9526	-0.000371478	  -10.9526	-0.000370363	  -10.9526	  -9.25907	
  -10.9267	-0.000367913	  -10.9158	-0.000373693	  -10.9213	-0.000372292	  -10.9213	-0.0003713	  -10.9213	  -9.28249	
  -10.8947	-0.000368856	   -10.884	-0.000374839	  -10.8896	-0.000373082	  -10.8894	-0.000372259	  -10.8894	  -9.30647	
  -10.8624	-0.000369828	  -10.8518	-0.000375939	  -10.8575	-0.000373826	  -10.8573	-0.000373198	  -10.8573	  -9.32994	
    -10.83	-0.000370745	  -10.8192	-0.000376967	   -10.825	-0.000374527	  -10.8248	-0.00037408	  -10.8248	  -9.35199	
   -10.797	-0.000371558	  -10.7861	-0.000377925	   -10.792	-0.000375206	  -10.7917	-0.000374896	  -10.7917	  -9.37241	
  -10.7635	-0.000372276	  -10.7524	-0.000378843	  -10.7584	-0.000375885	  -10.7581	-0.000375668	  -10.7581	   -9.3917	
  -10.7295	-0.000372954	  -10.7183	-0.000379756	  -10.7244	-0.000376582	  -10.7241	-0.000376431	  -10.7241	  -9.41076	
  -10.6952	-0.000373654	   -10.684	-0.000380693	  -10.6903	-0.000377295	  -10.6899	-0.000377214	  -10.6899	  -9.43035	
  -10.6604	-0.000374412	  -10.6493	-0.000381675	  -10.6557	-0.000378009	  -10.6551	-0.000378032	  -10.6551	   -9.4508	
   -10.625	-0.000375218	  -10.6139	-0.000382704	  -10.6205	-0.000378702	  -10.6198	-0.000378875	  -10.6198	  -9.47187	
  -10.5892	-0.000376033	   -10.578	-0.000383772	  -10.5849	-0.000379361	   -10.584	-0.000379722	   -10.584	  -9.49305	
   -10.553	-0.000376805	  -10.5412	-0.00038484	   -10.549	-0.00037999	  -10.5477	-0.000380545	  -10.5477	  -9.51363	
  -10.5165	-0.000377511	  -10.5037	-0.000385857	  -10.5128	-0.00038061	   -10.511	-0.000381326	   -10.511	  -9.53315	
  -10.4795	-0.000378158	  -10.4657	-0.000386776	   -10.476	-0.000381242	  -10.4737	-0.000382059	  -10.4737	  -9.55147	
  -10.4421	-0.000378773	  -10.4276	-0.000387583	  -10.4387	-0.000381894	  -10.4361	-0.00038275	  -10.4361	  -9.56875	
  -10.4045	-0.000379397	  -10.3897	-0.000388318	  -10.4011	-0.000382558	  -10.3984	-0.000383424	  -10.3984	  -9.58561	
  -10.3664	-0.000380054	  -10.3518	-0.000389041	  -10.3632	-0.000383213	  -10.3605	-0.000384103	  -10.3605	  -9.60257	
  -10.3278	-0.000380749	  -10.3138	-0.000389826	  -10.3247	-0.000383841	  -10.3221	-0.000384805	  -10.3221	  -9.62013	
  -10.2888	-0.000381466	  -10.2753	-0.00039071	  -10.2858	-0.000384439	  -10.2833	-0.000385538	  -10.2833	  -9.63845	
  -10.2496	-0.000382179	  -10.2363	-0.000391655	  -10.2467	-0.00038501	  -10.2442	-0.000386281	  -10.2442	  -9.65703	
  -10.2099	-0.000382851	  -10.1965	-0.000392579	  -10.2072	-0.000385569	  -10.2045	 -0.000387	  -10.2045	  -9.67499	
  -10.1697	-0.000383471	  -10.1562	-0.000393398	  -10.1671	-0.000386129	  -10.1643	-0.000387666	  -10.1643	  -9.69165	
  -10.1292	-0.000384043	  -10.1154	-0.00039407	  -10.1266	-0.000386698	  -10.1237	-0.00038827	  -10.1237	  -9.70675	
  -10.0883	-0.000384599	  -10.0745	-0.000394636	  -10.0859	-0.00038727	  -10.0829	-0.000388835	  -10.0829	  -9.72088	
  -10.0468	-0.00038518	  -10.0335	-0.000395178	  -10.0447	-0.000387836	  -10.0417	-0.000389398	  -10.0417	  -9.73494	
  -10.0048	-0.000385798	  -9.99203	-0.000395787	   -10.003	-0.000388385	  -9.99995	-0.00038999	  -9.99995	  -9.74976	
  -9.96254	-0.000386468	  -9.95015	-0.000396499	  -9.96093	-0.000388912	  -9.95787	-0.000390626	  -9.95787	  -9.76566	
  -9.91983	-0.000387146	  -9.90795	-0.000397276	  -9.91871	-0.000389418	  -9.91549	-0.00039128	  -9.91549	    -9.782	
  -9.87676	-0.000387791	  -9.86506	-0.000398032	  -9.87594	-0.000389908	  -9.87259	-0.00039191	  -9.87259	  -9.79775	
  -9.83325	-0.000388348	   -9.8217	-0.000398683	  -9.83269	-0.000390399	  -9.82921	-0.000392477	  -9.82921	  -9.81192	
  -9.78948	-0.000388801	  -9.77807	-0.000399198	  -9.78916	-0.000390899	  -9.78557	-0.000392966	  -9.78557	  -9.82415	
  -9.74551	-0.000389189	  -9.73407	-0.000399623	   -9.7454	-0.000391397	  -9.74166	-0.000393403	  -9.74166	  -9.83507	
  -9.70096	-0.000389563	  -9.68949	-0.000400033	  -9.70102	-0.000391874	  -9.69716	-0.000393823	  -9.69716	  -9.84558	
  -9.65604	-0.000389986	  -9.64453	-0.000400524	  -9.65626	-0.000392309	  -9.65228	-0.000394273	  -9.65228	  -9.85683	
  -9.61054	-0.000390483	   -9.5994	-0.000401123	  -9.61115	-0.000392696	  -9.60703	-0.000394768	  -9.60703	  -9.86919	
  -9.56481	-0.000391033	  -9.55385	-0.000401787	   -9.5655	-0.000393051	  -9.56138	-0.00039529	  -9.56138	  -9.88225	
  -9.51862	-0.000391574	  -9.50795	-0.000402441	   -9.5195	-0.000393408	  -9.51536	-0.000395808	  -9.51536	  -9.89519	
  -9.47219	-0.000392022	  -9.46177	-0.000402985	  -9.47323	-0.000393836	  -9.46906	-0.000396281	  -9.46906	  -9.90702	
  -9.42556	-0.00039236	  -9.41522	-0.000403401	  -9.42646	-0.000394361	  -9.42241	-0.000396707	  -9.42241	  -9.91768	
  -9.37851	-0.000392616	  -9.36809	-0.000403734	  -9.37913	-0.000394958	  -9.37524	-0.000397103	  -9.37524	  -9.92757	
   -9.3311	-0.000392879	  -9.32061	-0.000404067	  -9.33146	-0.000395539	  -9.32772	-0.000397495	  -9.32772	  -9.93737	
  -9.28355	-0.00039321	  -9.27297	-0.000404479	  -9.28365	-0.000396007	  -9.28006	-0.000397899	  -9.28006	  -9.94747	
  -9.23562	-0.000393637	  -9.22481	-0.00040498	  -9.23533	-0.000396323	  -9.23192	-0.000398313	  -9.23192	  -9.95783	
  -9.18726	-0.000394128	  -9.17621	-0.000405518	   -9.1866	-0.00039653	  -9.18336	-0.000398725	  -9.18336	  -9.96813	
  -9.13866	-0.000394595	  -9.12739	-0.000406017	  -9.13766	-0.000396723	  -9.13457	-0.000399112	  -9.13457	  -9.97779	
  -9.08934	-0.000394959	    -9.078	-0.000406414	  -9.08857	-0.000397029	   -9.0853	-0.000399467	   -9.0853	  -9.98669	
  -9.03968	-0.000395181	  -9.02813	-0.000406708	  -9.03897	-0.000397472	  -9.03559	-0.000399787	  -9.03559	  -9.99467	
  -8.98948	-0.000395296	  -8.97799	-0.000406939	  -8.98909	-0.000398003	  -8.98552	-0.000400079	  -8.98552	   -10.002	
  -8.93924	-0.000395392	  -8.92753	-0.000407172	    -8.939	-0.000398493	  -8.93525	-0.000400352	  -8.93525	  -10.0088	
   -8.8886	-0.000395555	  -8.87653	-0.000407457	  -8.88834	-0.000398832	  -8.88449	-0.000400614	  -8.88449	  -10.0154	
  -8.83764	-0.000395823	  -8.82524	-0.000407809	  -8.83736	-0.000399008	  -8.83341	-0.00040088	  -8.83341	   -10.022	
  -8.78616	-0.000396168	  -8.77373	-0.000408201	  -8.78612	-0.000399097	    -8.782	-0.000401155	    -8.782	  -10.0289	
  -8.73426	-0.000396513	  -8.72178	-0.000408562	  -8.73429	-0.00039924	  -8.73011	-0.000401438	  -8.73011	   -10.036	
  -8.68202	-0.000396783	   -8.6695	-0.000408826	   -8.6821	-0.000399518	  -8.67787	-0.000401709	  -8.67787	  -10.0427	
  -8.62966	-0.000396942	  -8.61696	-0.000408965	  -8.62965	-0.000399917	  -8.62542	-0.000401942	  -8.62542	  -10.0485	
   -8.5767	-0.000397015	  -8.56396	-0.000409018	  -8.57672	-0.000400354	  -8.57246	-0.000402129	  -8.57246	  -10.0532	
  -8.52351	-0.000397071	  -8.51032	-0.000409076	  -8.52342	-0.000400707	  -8.51909	-0.000402285	  -8.51909	  -10.0571	
  -8.46991	-0.00039718	  -8.45562	-0.000409222	  -8.46997	-0.000400911	  -8.46517	-0.000402438	  -8.46517	  -10.0609	
  -8.41625	-0.000397374	  -8.40013	-0.000409503	  -8.41617	-0.000400978	  -8.41085	-0.000402618	  -8.41085	  -10.0655	
  -8.36218	-0.000397622	    -8.344	-0.000409861	  -8.36196	-0.000400996	  -8.35605	-0.000402826	  -8.35605	  -10.0707	
  -8.30795	-0.000397865	  -8.28829	-0.000410229	  -8.30745	-0.000401066	  -8.30123	-0.000403053	  -8.30123	  -10.0763	
  -8.25321	-0.00039804	  -8.23222	-0.000410481	  -8.25271	-0.000401249	  -8.24605	-0.000403257	  -8.24605	  -10.0814	
  -8.19806	-0.000398121	  -8.17656	-0.000410556	  -8.19757	-0.000401529	  -8.19073	-0.000403402	  -8.19073	   -10.085	
  -8.14262	-0.000398131	  -8.12081	-0.00041047	  -8.14224	-0.000401826	  -8.13522	-0.000403476	  -8.13522	  -10.0869	
  -8.08682	-0.000398112	  -8.06516	-0.000410322	  -8.08641	-0.000402045	  -8.07946	-0.000403493	  -8.07946	  -10.0873	
  -8.03063	-0.00039813	  -8.00914	-0.000410236	  -8.03018	-0.00040213	  -8.02332	-0.000403498	  -8.02332	  -10.0875	
  -7.97414	-0.00039823	  -7.95298	-0.000410269	  -7.97365	-0.000402092	  -7.96692	-0.00040353	  -7.96692	  -10.0883	
  -7.91719	-0.000398414	   -7.8962	-0.000410429	  -7.91678	-0.000402003	  -7.91005	-0.000403615	  -7.91005	  -10.0904	
  -7.85987	-0.000398632	  -7.83907	-0.000410626	  -7.85953	-0.000401959	  -7.85282	-0.000403739	  -7.85282	  -10.0935	
  -7.80242	-0.000398806	  -7.78141	-0.000410766	  -7.80213	-0.000402012	  -7.79532	-0.000403861	  -7.79532	  -10.0965	
  -7.74466	-0.000398877	  -7.72361	-0.000410784	  -7.74441	-0.000402153	  -7.73756	-0.000403938	  -7.73756	  -10.0985	
  -7.68655	-0.000398836	  -7.66549	-0.000410681	  -7.68632	-0.000402308	  -7.67945	-0.000403942	  -7.67945	  -10.0985	
  -7.62832	-0.000398732	  -7.60714	-0.000410524	   -7.6281	-0.000402388	  -7.62119	-0.000403882	  -7.62119	   -10.097	
  -7.56966	-0.000398647	  -7.54866	-0.00041039	  -7.56957	-0.000402344	  -7.56263	-0.000403794	  -7.56263	  -10.0948	
  -7.51068	-0.000398649	  -7.49013	-0.000410333	  -7.51069	-0.000402193	  -7.50384	-0.000403725	  -7.50384	  -10.0931	
  -7.45161	-0.000398739	  -7.43137	-0.000410346	  -7.45172	-0.000402005	   -7.4449	-0.000403697	   -7.4449	  -10.0924	
  -7.39227	-0.000398849	   -7.3722	-0.000410365	  -7.39217	-0.000401862	  -7.38555	-0.000403692	  -7.38555	  -10.0923	
  -7.33262	-0.000398884	  -7.31272	-0.000410318	  -7.33233	-0.000401806	  -7.32589	-0.000403669	  -7.32589	  -10.0917	
  -7.27277	-0.000398772	  -7.25291	-0.000410159	  -7.27243	-0.000401817	  -7.26604	-0.000403583	  -7.26604	  -10.0896	
   -7.2124	-0.000398534	  -7.19261	-0.000409905	  -7.21214	-0.000401825	  -7.20572	-0.000403421	  -7.20572	  -10.0855	
  -7.15179	-0.000398256	  -7.13206	-0.000409617	  -7.15159	-0.000401758	  -7.14514	-0.00040321	  -7.14514	  -10.0803	
  -7.09102	-0.000398047	  -7.07152	-0.000409372	  -7.09073	-0.000401575	  -7.08442	-0.000402998	  -7.08442	  -10.0749	
  -7.02993	-0.000397952	  -7.01052	-0.000409209	  -7.02954	-0.000401293	  -7.02333	-0.000402818	  -7.02333	  -10.0705	
  -6.96849	-0.000397945	  -6.94931	-0.000409109	  -6.96814	-0.000400978	  -6.96198	-0.000402677	  -6.96198	  -10.0669	
  -6.90667	-0.000397947	  -6.88787	-0.000409006	   -6.9065	-0.000400704	  -6.90035	-0.000402552	  -6.90035	  -10.0638	
  -6.84448	-0.000397848	  -6.82602	-0.000408822	  -6.84444	-0.000400505	  -6.83831	-0.000402392	  -6.83831	  -10.0598	
  -6.78201	-0.000397598	  -6.76403	-0.000408523	  -6.78223	-0.000400359	  -6.77609	-0.00040216	  -6.77609	   -10.054	
  -6.71926	-0.000397223	  -6.70173	-0.000408144	  -6.71969	-0.000400208	  -6.71356	-0.000401858	  -6.71356	  -10.0465	
  -6.65619	-0.000396807	  -6.63908	-0.000407769	  -6.65682	-0.000399988	   -6.6507	-0.000401521	   -6.6507	   -10.038	
  -6.59307	-0.00039645	  -6.57622	-0.000407476	  -6.59371	-0.000399664	  -6.58767	-0.000401197	  -6.58767	  -10.0299	
  -6.52944	-0.000396195	  -6.51324	-0.000407299	  -6.53023	-0.00039925	  -6.52431	-0.000400915	  -6.52431	  -10.0229	
  -6.46558	-0.000396021	  -6.44999	-0.000407196	  -6.46648	-0.000398788	  -6.46068	-0.000400668	  -6.46068	  -10.0167	
  -6.40147	-0.000395862	  -6.38643	-0.000407069	  -6.40259	-0.000398338	  -6.39683	-0.000400423	  -6.39683	  -10.0106	
  -6.33708	-0.000395638	  -6.32242	-0.000406824	  -6.33839	-0.000397944	  -6.33263	-0.000400135	  -6.33263	  -10.0034	
  -6.27253	-0.000395313	  -6.25822	-0.000406419	    -6.274	-0.000397614	  -6.26825	-0.000399782	  -6.26825	  -9.99455	
  -6.20781	-0.000394883	  -6.19394	-0.000405902	  -6.20913	-0.000397319	  -6.20363	-0.000399368	  -6.20363	  -9.98421	
  -6.14274	-0.000394421	  -6.12929	-0.000405369	  -6.14405	-0.000397002	  -6.13869	-0.000398931	  -6.13869	  -9.97327	
  -6.07746	-0.000393978	  -6.06438	-0.000404918	  -6.07889	-0.000396618	  -6.07358	-0.000398505	  -6.07358	  -9.96261	
  -6.01196	-0.000393594	  -5.99921	-0.000404589	  -6.01346	-0.000396131	  -6.00821	-0.000398105	  -6.00821	  -9.95261	
   -5.9462	-0.00039326	  -5.93375	-0.00040434	  -5.94776	-0.000395552	  -5.94257	-0.000397717	  -5.94257	  -9.94293	
  -5.88032	-0.000392922	    -5.868	-0.000404081	  -5.88192	-0.000394922	  -5.87675	-0.000397308	  -5.87675	   -9.9327	
  -5.81415	-0.000392537	  -5.80195	-0.000403722	  -5.81563	-0.000394325	  -5.81058	-0.000396862	  -5.81058	  -9.92154	
  -5.74782	-0.000392078	  -5.73558	-0.000403224	  -5.74905	-0.00039378	  -5.74415	-0.000396361	  -5.74415	  -9.90901	
  -5.68132	-0.000391557	  -5.66889	-0.000402621	  -5.68215	-0.000393284	  -5.67745	-0.000395821	  -5.67745	  -9.89552	
  -5.61449	-0.000391019	  -5.60202	-0.000402001	  -5.61494	-0.000392768	  -5.61048	-0.000395263	  -5.61048	  -9.88157	
  -5.54759	-0.000390501	  -5.53508	-0.000401452	  -5.54768	-0.000392154	  -5.54345	-0.000394702	  -5.54345	  -9.86756	
  -5.48033	-0.000390024	  -5.46791	-0.000401011	  -5.48022	-0.000391433	  -5.47616	-0.000394156	  -5.47616	   -9.8539	
  -5.41286	-0.00038957	  -5.40051	-0.000400639	  -5.41255	-0.000390623	  -5.40864	-0.000393611	  -5.40864	  -9.84027	
  -5.34528	-0.000389108	  -5.33313	-0.000400251	  -5.34479	-0.00038984	  -5.34107	-0.000393066	  -5.34107	  -9.82666	
  -5.27759	-0.000388612	  -5.26548	-0.000399766	  -5.27664	-0.00038913	  -5.27324	-0.000392503	  -5.27324	  -9.81257	
  -5.20977	-0.00038806	  -5.19768	-0.000399162	  -5.20826	-0.0003885	  -5.20524	-0.000391907	  -5.20524	  -9.79768	
   -5.1418	-0.00038745	  -5.12972	-0.000398472	  -5.13962	-0.000387882	  -5.13705	-0.000391268	  -5.13705	   -9.7817	
  -5.07352	-0.000386808	  -5.06159	-0.000397776	  -5.07074	-0.000387175	  -5.06862	-0.000390586	  -5.06862	  -9.76466	
  -5.00522	-0.000386154	  -4.99341	-0.000397124	  -5.00188	-0.000386343	  -5.00017	-0.000389874	  -5.00017	  -9.74684	
  -4.93646	-0.000385533	  -4.92515	-0.00039653	  -4.93288	-0.000385411	   -4.9315	-0.000389158	   -4.9315	  -9.72895	
  -4.86738	-0.00038496	  -4.85667	-0.000395952	  -4.86386	-0.000384464	  -4.86264	-0.000388459	  -4.86264	  -9.71148	
  -4.79787	-0.000384438	  -4.78795	-0.000395336	   -4.7948	-0.000383591	  -4.79354	-0.000387788	  -4.79354	   -9.6947	
  -4.72792	-0.000383944	  -4.71886	-0.000394658	  -4.72569	-0.000382812	  -4.72416	-0.000387138	  -4.72416	  -9.67845	
  -4.65757	-0.000383418	  -4.64968	-0.000393925	   -4.6565	-0.000382085	  -4.65458	-0.000386476	  -4.65458	   -9.6619	
  -4.58723	-0.00038281	  -4.58025	-0.000393187	  -4.58708	-0.000381328	  -4.58486	-0.000385775	  -4.58486	  -9.64438	
  -4.51676	-0.000382093	  -4.51058	-0.000392479	  -4.51744	-0.000380473	  -4.51493	-0.000385015	  -4.51493	  -9.62537	
  -4.44695	-0.00038128	  -4.44081	-0.000391806	  -4.44756	-0.00037951	  -4.44511	-0.000384199	  -4.44511	  -9.60497	
  -4.37747	-0.000380428	  -4.37077	-0.000391138	  -4.37745	-0.000378484	  -4.37523	-0.00038335	  -4.37523	  -9.58375	
  -4.30798	-0.000379586	  -4.30062	-0.000390416	  -4.30725	-0.000377475	  -4.30528	-0.000382492	  -4.30528	   -9.5623	
   -4.2382	-0.000378807	  -4.23047	-0.00038961	  -4.23694	-0.000376541	   -4.2352	-0.000381653	   -4.2352	  -9.54133	
  -4.16813	-0.000378074	  -4.16004	-0.000388728	  -4.16638	-0.000375683	  -4.16485	-0.000380828	  -4.16485	  -9.52071	
  -4.09764	-0.000377346	  -4.08961	-0.000387815	  -4.09584	-0.000374856	  -4.09436	-0.000380006	  -4.09436	  -9.50014	
  -4.02674	-0.000376576	  -4.01875	-0.00038693	   -4.0249	-0.000373986	  -4.02346	-0.000379164	  -4.02346	   -9.4791	
  -3.95574	-0.000375719	  -3.94775	-0.000386101	  -3.95385	-0.000373023	  -3.95245	-0.000378281	  -3.95245	  -9.45702	
  -3.88435	-0.000374785	  -3.87647	-0.000385319	  -3.88268	-0.000371967	  -3.88117	-0.000377357	  -3.88117	  -9.43392	
  -3.81272	-0.000373791	  -3.80492	-0.000384539	  -3.81125	-0.000370868	  -3.80963	-0.0003764	  -3.80963	  -9.40999	
  -3.74113	-0.000372788	  -3.73339	-0.000383703	   -3.7397	-0.000369794	  -3.73807	-0.000375428	  -3.73807	   -9.3857	
  -3.66957	-0.000371812	  -3.66157	-0.000382774	  -3.66789	-0.000368792	  -3.66635	-0.000374459	  -3.66635	  -9.36149	
  -3.59788	-0.000370871	  -3.58949	-0.000381762	  -3.59598	-0.00036786	  -3.59445	-0.000373498	  -3.59445	  -9.33744	
  -3.52619	-0.000369946	  -3.51743	-0.000380721	  -3.52394	-0.00036695	  -3.52252	-0.000372539	  -3.52252	  -9.31348	
  -3.45422	-0.000368995	   -3.4451	-0.000379713	  -3.45179	-0.000365996	  -3.45037	-0.000371568	  -3.45037	   -9.2892	
  -3.38226	-0.000367984	  -3.37264	-0.000378769	  -3.37965	-0.000364954	  -3.37818	-0.000370569	  -3.37818	  -9.26422	
  -3.31002	-0.000366901	  -3.29993	-0.000377872	  -3.30738	-0.000363826	  -3.30577	-0.000369533	  -3.30577	  -9.23832	
  -3.23764	-0.00036577	  -3.22711	-0.000376972	  -3.23497	-0.000362665	  -3.23324	-0.000368469	  -3.23324	  -9.21172	
  -3.16513	-0.00036463	  -3.15404	-0.000376008	  -3.16271	-0.000361538	  -3.16063	-0.000367392	  -3.16063	   -9.1848	
  -3.09235	-0.000363516	  -3.08087	-0.000374961	  -3.09016	-0.000360481	   -3.0878	-0.000366319	   -3.0878	  -9.15798	
  -3.01946	-0.000362435	  -3.00775	-0.000373853	  -3.01746	-0.000359483	  -3.01489	-0.000365257	  -3.01489	  -9.13142	
  -2.94644	-0.000361367	  -2.93451	-0.00037273	  -2.94476	-0.000358489	  -2.94191	-0.000364195	  -2.94191	  -9.10488	
  -2.87331	-0.000360271	  -2.86117	-0.000371635	  -2.87191	-0.000357432	   -2.8688	-0.000363113	   -2.8688	  -9.07782	
  -2.79992	-0.000359116	    -2.788	-0.000370564	  -2.79905	-0.000356279	  -2.79566	-0.000361986	  -2.79566	  -9.04965	
  -2.72643	-0.000357892	  -2.71469	-0.000369483	  -2.72604	-0.000355041	  -2.72239	-0.000360805	  -2.72239	  -9.02014	
  -2.65284	-0.000356624	   -2.6414	-0.000368353	  -2.65301	-0.000353789	  -2.64908	-0.000359589	  -2.64908	  -8.98972	
  -2.57901	-0.00035535	  -2.56824	-0.000367157	  -2.57968	-0.000352574	  -2.57565	-0.00035836	  -2.57565	    -8.959	
  -2.50511	-0.000354105	  -2.49493	-0.000365919	  -2.50622	-0.000351421	  -2.50209	-0.000357149	  -2.50209	  -8.92871	
  -2.43098	-0.000352899	   -2.4212	-0.000364681	  -2.43276	-0.000350291	  -2.42832	-0.000355957	  -2.42832	  -8.89892	
  -2.35665	-0.000351706	  -2.34722	-0.000363449	  -2.35902	-0.000349109	   -2.3543	-0.000354755	   -2.3543	  -8.86887	
  -2.28213	-0.000350486	  -2.27272	-0.000362243	   -2.2853	-0.000347768	  -2.28005	-0.000353499	  -2.28005	  -8.83747	
   -2.2073	-0.00034921	  -2.19858	-0.000361022	  -2.21117	-0.000346308	  -2.20568	-0.00035218	  -2.20568	   -8.8045	
  -2.13245	-0.000347866	  -2.12433	-0.000359771	  -2.13693	-0.000344827	  -2.13124	-0.000350822	  -2.13124	  -8.77054	
  -2.05744	-0.000346469	     -2.05	-0.000358492	  -2.06287	-0.000343467	  -2.05677	-0.000349476	  -2.05677	   -8.7369	
  -1.98229	-0.000345181	  -1.97543	-0.000357209	  -1.98774	-0.000342356	  -1.98182	-0.000348249	  -1.98182	  -8.70621	
  -1.90701	-0.000343824	  -1.90039	-0.00035589	  -1.91218	-0.00034126	  -1.90653	-0.000346991	  -1.90653	  -8.67478	
   -1.8316	-0.00034245	  -1.82545	-0.000354537	  -1.83608	-0.000340091	  -1.83105	-0.000345693	  -1.83105	  -8.64232	
  -1.75609	-0.000341112	  -1.74992	-0.000353156	  -1.76059	-0.000338788	  -1.75553	-0.000344352	  -1.75553	   -8.6088	
