# User: ACHyster
# File name: C:/ACHYSTER/ACHyster SENS/SHAMS/CoFe2O4-1gl-water-60 Glycerol-Sens-08-03-2023/CoFe2O4-1gl-water-60 Glycerol- 10_100F- 12 kAm -Sens-08-03-20230001#1.txt
# Saved at: mi. mar. 8 12:47:25 2023
# Hyster Loop (3 iterations). Intensity: 12.0 kA/m; Tuned frequency: 19.8 kHz
# Units x axis: (kA/m)
# Units y axis: "Repeats y" & "Average y" (10^(-3)Am^2); "Mass avg y" (Am^2/kg)
# Magnetic mass: 4e-05 g
# Parameter      	Repeat   1	Repeat   2	Repeat   3	Average   	Sigma     
# H_C (kA/m)     	      10.3	      10.1	      10.2	      10.2	       0.1
# M_R (Am^2/kg)  	      15.8	      15.4	      16.0	      15.7	       0.3
# M_max (Am^2/kg)	       9.3	       9.2	       9.6	       9.4	       0.1
# Area (mJ/kg)   	     727.4	     709.8	     743.1	     726.8	      13.6
# SAR (W/g)      	      14.4	      14.0	      14.7	      14.4	       0.3
#Repeat 1 x	Repeat 1 y	Repeat 2 x	Repeat 2 y	Repeat 3 x	Repeat 3 y	Average x 	Average y 	Mass avg x 	Mass avg y 
  -1.69421	-0.00067721	  -1.68567	-0.000660736	  -1.69103	-0.000681593	   -1.6903	-0.00067318	   -1.6903	  -16.8295	
  -1.61916	-0.000675669	  -1.61081	-0.000659134	  -1.61625	-0.000679781	  -1.61541	-0.000671528	  -1.61541	  -16.7882	
  -1.54422	-0.000674154	    -1.536	-0.000657483	  -1.54148	-0.000677923	  -1.54057	-0.000669853	  -1.54057	  -16.7463	
  -1.46905	-0.000672506	  -1.46094	-0.00065582	  -1.46655	-0.000676058	  -1.46551	-0.000668128	  -1.46551	  -16.7032	
  -1.39387	-0.000670835	  -1.38586	-0.000654082	  -1.39162	-0.000674127	  -1.39045	-0.000666348	  -1.39045	  -16.6587	
  -1.31862	-0.000669244	  -1.31081	-0.000652272	  -1.31669	-0.000672171	  -1.31537	-0.000664562	  -1.31537	  -16.6141	
  -1.24324	-0.000667542	  -1.23566	-0.000650549	  -1.24167	-0.000670214	  -1.24019	-0.000662768	  -1.24019	  -16.5692	
  -1.16801	-0.000665775	  -1.16051	-0.000648778	   -1.1667	-0.000668165	  -1.16507	-0.000660906	  -1.16507	  -16.5227	
  -1.09256	-0.000664092	  -1.08524	-0.000646849	  -1.09157	-0.000666086	  -1.08979	-0.000659009	  -1.08979	  -16.4752	
  -1.01713	-0.000662346	  -1.01003	-0.000645015	  -1.01645	-0.000664081	  -1.01454	-0.000657147	  -1.01454	  -16.4287	
  -0.94155	-0.000660517	  -0.93474	-0.000643197	 -0.941296	-0.000661975	 -0.939195	-0.00065523	 -0.939195	  -16.3807	
 -0.865872	-0.000658757	 -0.859376	-0.000641227	 -0.866029	-0.000659825	 -0.863759	-0.00065327	 -0.863759	  -16.3317	
 -0.790221	-0.00065696	 -0.784004	-0.0006393	 -0.790829	-0.000657828	 -0.788351	-0.000651363	 -0.788351	  -16.2841	
 -0.714407	-0.000655054	   -0.7086	-0.000637408	 -0.715393	-0.000655689	   -0.7128	-0.000649384	   -0.7128	  -16.2346	
 -0.638656	-0.000653192	 -0.633265	-0.000635409	 -0.639957	-0.000653468	 -0.637293	-0.000647356	 -0.637293	  -16.1839	
 -0.562925	-0.000651333	 -0.557852	-0.000633413	 -0.564482	-0.000651423	 -0.561753	-0.00064539	 -0.561753	  -16.1347	
 -0.487178	-0.000649361	 -0.482433	-0.0006314	 -0.488929	-0.00064928	  -0.48618	-0.000643347	  -0.48618	  -16.0837	
 -0.411578	-0.000647398	  -0.40712	-0.000629319	 -0.413472	-0.000647014	 -0.410723	-0.000641244	 -0.410723	  -16.0311	
 -0.335765	-0.000645454	 -0.331606	-0.000627263	 -0.337858	-0.000644905	 -0.335076	-0.000639207	 -0.335076	  -15.9802	
 -0.260025	-0.000643397	 -0.256175	-0.000625193	 -0.262262	-0.000642741	 -0.259487	-0.00063711	 -0.259487	  -15.9277	
 -0.184213	-0.000641324	 -0.180629	-0.000623051	 -0.186749	-0.00064044	 -0.183864	-0.000634939	 -0.183864	  -15.8735	
 -0.108349	-0.00063928	 -0.105042	-0.000620899	 -0.111173	-0.000638249	 -0.108188	-0.000632809	 -0.108188	  -15.8202	
 -0.032501	-0.000637116	-0.0295819	-0.000618739	-0.0357044	-0.000636057	-0.0325958	-0.000630637	-0.0325958	  -15.7659	
 0.0434213	-0.000634892	  0.046057	-0.000616515	 0.0398585	-0.000633722	 0.0431122	-0.000628376	 0.0431122	  -15.7094	
  0.119246	-0.000632703	  0.121593	-0.000614239	  0.115344	-0.000631429	  0.118728	-0.000626124	  0.118728	  -15.6531	
  0.195071	-0.00063043	  0.197224	-0.000611962	  0.190848	-0.000629183	  0.194381	-0.000623858	  0.194381	  -15.5965	
  0.270882	-0.000628072	  0.272831	-0.000609636	  0.266411	-0.000626794	  0.270041	-0.000621501	  0.270041	  -15.5375	
   0.34652	-0.000625737	  0.348308	-0.000607245	  0.341813	-0.000624394	  0.345547	-0.000619125	  0.345547	  -15.4781	
  0.422237	-0.000623346	  0.423851	-0.000604832	   0.41736	-0.000622062	  0.421149	-0.000616747	  0.421149	  -15.4187	
  0.497863	-0.000620885	  0.499292	-0.000602383	  0.493178	-0.000619662	  0.496778	-0.00061431	  0.496778	  -15.3578	
  0.573304	-0.000618416	  0.574702	-0.00059987	  0.569008	-0.000617223	  0.572338	-0.000611836	  0.572338	  -15.2959	
  0.648649	-0.000615874	  0.650149	-0.00059733	  0.644245	-0.000614797	  0.647681	-0.000609334	  0.647681	  -15.2333	
  0.724048	-0.000613329	  0.725566	-0.000594764	  0.719333	-0.000612355	  0.722982	-0.000606816	  0.722982	  -15.1704	
  0.799472	-0.000610773	  0.800982	-0.000592137	  0.794635	-0.000609911	  0.798363	-0.000604274	  0.798363	  -15.1068	
  0.874871	-0.000608116	  0.876298	-0.000589484	  0.869867	-0.000607468	  0.873679	-0.000601689	  0.873679	  -15.0422	
  0.950262	-0.000605491	  0.951533	-0.000586814	  0.944823	-0.000604999	  0.948872	-0.000599102	  0.948872	  -14.9775	
   1.02571	-0.000602815	   1.02676	-0.000584082	   1.01982	-0.000602515	    1.0241	-0.000596471	    1.0241	  -14.9118	
    1.1009	-0.000600077	   1.10182	-0.00058131	   1.09474	-0.000600017	   1.09915	-0.000593801	   1.09915	   -14.845	
   1.17623	-0.000597359	   1.17691	-0.000578532	   1.16977	-0.000597473	   1.17431	-0.000591121	   1.17431	   -14.778	
   1.25149	-0.000594578	   1.25192	-0.000575691	   1.24477	-0.000594908	   1.24939	-0.000588392	   1.24939	  -14.7098	
   1.32668	-0.000591785	   1.32686	-0.000572805	    1.3198	-0.00059231	   1.32445	-0.000585633	   1.32445	  -14.6408	
   1.40183	-0.000588951	   1.40186	-0.00056992	   1.39492	-0.00058965	   1.39954	-0.00058284	   1.39954	   -14.571	
   1.47688	-0.000586031	   1.47672	-0.000566981	   1.46991	-0.000586956	    1.4745	-0.000579989	    1.4745	  -14.4997	
   1.55194	-0.000583151	   1.55163	-0.000563995	   1.54491	-0.000584218	   1.54949	-0.000577121	   1.54949	   -14.428	
   1.62695	-0.000580206	   1.62648	-0.00056101	   1.61986	-0.000581403	   1.62443	-0.000574206	   1.62443	  -14.3551	
   1.70186	-0.000577158	   1.70127	-0.00055798	   1.69471	-0.000578544	   1.69928	-0.000571227	   1.69928	  -14.2807	
    1.7768	-0.000574089	   1.77604	-0.000554911	   1.76962	-0.000575637	   1.77415	-0.000568212	   1.77415	  -14.2053	
   1.85158	-0.000570998	   1.85063	-0.000551838	   1.84436	-0.000572656	   1.84886	-0.000565164	   1.84886	  -14.1291	
   1.92629	-0.000567803	   1.92511	-0.000548707	   1.91893	-0.000569687	   1.92344	-0.000562066	   1.92344	  -14.0516	
   2.00098	-0.000564582	   1.99968	-0.000545552	    1.9935	-0.000566671	   1.99805	-0.000558935	   1.99805	  -13.9734	
   2.07544	-0.000561336	   2.07427	-0.000542479	   2.06786	-0.000563516	   2.07252	-0.000555777	   2.07252	  -13.8944	
   2.14994	-0.000557993	   2.14851	-0.000539301	   2.14236	-0.000560427	   2.14694	-0.000552574	   2.14694	  -13.8143	
    2.2243	-0.000554616	   2.22219	-0.000536003	   2.21674	-0.000557412	   2.22108	-0.000549344	   2.22108	  -13.7336	
   2.29859	-0.000551235	   2.29589	-0.000532799	    2.2911	-0.000554253	   2.29519	-0.000546096	   2.29519	  -13.6524	
   2.37291	-0.000547767	   2.36965	-0.000529543	   2.36543	-0.00055109	   2.36933	-0.0005428	   2.36933	    -13.57	
   2.44705	-0.000544282	   2.44322	-0.000526186	   2.43953	-0.000548023	   2.44326	-0.000539497	   2.44326	  -13.4874	
   2.52121	-0.000540819	   2.51669	-0.00052286	   2.51361	-0.000544873	   2.51717	-0.000536184	   2.51717	  -13.4046	
   2.59528	-0.000537273	   2.59014	-0.000519457	   2.58761	-0.000541693	   2.59101	-0.000532808	   2.59101	  -13.3202	
   2.66907	-0.000533712	    2.6634	-0.00051594	   2.66134	-0.000538622	    2.6646	-0.000529425	    2.6646	  -13.2356	
   2.74285	-0.00053019	    2.7367	-0.000512515	   2.73516	-0.000535517	   2.73823	-0.000526074	   2.73823	  -13.1518	
   2.81645	-0.000526593	   2.80986	-0.000509074	   2.80882	-0.000532355	   2.81171	-0.000522674	   2.81171	  -13.0668	
   2.88985	-0.000522975	   2.88297	-0.000505481	   2.88244	-0.000529285	   2.88509	-0.000519247	   2.88509	  -12.9812	
   2.96326	-0.000519415	   2.95612	-0.000501936	   2.95604	-0.000526205	   2.95847	-0.000515852	   2.95847	  -12.8963	
    3.0364	-0.00051583	   3.02903	-0.000498459	   3.02937	-0.000523042	    3.0316	-0.000512444	    3.0316	  -12.8111	
   3.10956	-0.000512156	   3.10193	-0.00049482	   3.10261	-0.000519938	    3.1047	-0.000508971	    3.1047	  -12.7243	
   3.18263	-0.000508521	   3.17476	-0.000491226	   3.17574	-0.000516818	   3.17771	-0.000505522	   3.17771	   -12.638	
   3.25541	-0.000504911	   3.24734	-0.000487723	   3.24853	-0.000513626	   3.25043	-0.000502087	   3.25043	  -12.5522	
   3.32823	-0.000501197	   3.31998	-0.000484033	   3.32136	-0.000510451	   3.32319	-0.00049856	   3.32319	   -12.464	
   3.40087	-0.000497529	   3.39247	-0.000480363	   3.39402	-0.000507264	   3.39579	-0.000495052	   3.39579	  -12.3763	
   3.47338	-0.000493897	   3.46473	-0.000476845	   3.46654	-0.000503947	   3.46822	-0.000491563	   3.46822	  -12.2891	
   3.54589	-0.000490111	   3.53703	-0.000473147	   3.53906	-0.000500675	   3.54066	-0.000487978	   3.54066	  -12.1994	
   3.61826	-0.00048632	   3.60916	-0.000469387	   3.61134	-0.000497468	   3.61292	-0.000484392	   3.61292	  -12.1098	
   3.69045	-0.000482597	    3.6812	-0.000465749	   3.68356	-0.00049405	   3.68507	-0.000480799	   3.68507	    -12.02	
   3.76258	-0.000478749	    3.7532	-0.000462046	   3.75566	-0.000490587	   3.75715	-0.000477127	   3.75715	  -11.9282	
   3.83443	-0.00047484	     3.825	-0.000458236	   3.82749	-0.000487221	   3.82897	-0.000473432	   3.82897	  -11.8358	
   3.90622	-0.00047099	   3.89664	-0.000454496	   3.89915	-0.000483685	   3.90067	-0.000469723	   3.90067	  -11.7431	
   3.97787	-0.000467051	   3.96818	-0.00045076	   3.97064	-0.000480046	   3.97223	-0.000465953	   3.97223	  -11.6488	
   4.04919	-0.00046304	   4.03946	-0.00044693	   4.04187	-0.000476474	   4.04351	-0.000462148	   4.04351	  -11.5537	
   4.12042	-0.00045908	   4.11077	-0.00044314	   4.11306	-0.000472773	   4.11475	-0.000458331	   4.11475	  -11.4583	
   4.19146	-0.000455072	   4.18189	-0.000439372	   4.18408	-0.000468977	   4.18581	-0.000454474	   4.18581	  -11.3619	
   4.26225	-0.000450985	   4.25272	-0.000435515	   4.25468	-0.000465224	   4.25655	-0.000450575	   4.25655	  -11.2644	
     4.333	-0.00044694	   4.32351	-0.000431665	    4.3251	-0.000461377	    4.3272	-0.000446661	    4.3272	  -11.1665	
   4.40351	-0.000442877	   4.39408	-0.000427843	   4.39553	-0.000457439	   4.39771	-0.00044272	   4.39771	   -11.068	
   4.47379	-0.000438737	   4.46442	-0.00042395	   4.46578	-0.000453504	     4.468	-0.000438731	     4.468	  -10.9683	
   4.54403	-0.000434628	   4.53463	-0.000420052	   4.53576	-0.00044958	   4.53814	-0.000434753	   4.53814	  -10.8688	
     4.614	-0.000430522	   4.60463	-0.000416189	   4.60584	-0.000445569	   4.60816	-0.00043076	   4.60816	   -10.769	
   4.68386	-0.000426342	   4.67431	-0.000412259	   4.67542	-0.000441546	   4.67786	-0.000426716	   4.67786	  -10.6679	
   4.75364	-0.00042218	   4.74389	-0.000408306	   4.74496	-0.000437554	    4.7475	-0.00042268	    4.7475	   -10.567	
   4.82311	-0.000418038	   4.81319	-0.000404391	   4.81442	-0.00043352	   4.81691	-0.00041865	   4.81691	  -10.4662	
   4.89243	-0.000413833	   4.88226	-0.000400422	   4.88369	-0.000429463	   4.88613	-0.000414573	   4.88613	  -10.3643	
   4.96165	-0.000409632	   4.95122	-0.000396407	   4.95271	-0.000425462	   4.95519	-0.0004105	   4.95519	  -10.2625	
   5.03054	-0.000405468	   5.01988	-0.000392416	   5.02142	-0.000421437	   5.02394	-0.00040644	   5.02394	   -10.161	
   5.09932	-0.000401267	   5.08832	-0.000388388	   5.08996	-0.000417377	   5.09253	-0.000402344	   5.09253	  -10.0586	
   5.16799	-0.000397072	   5.15669	-0.000384312	    5.1584	-0.00041335	   5.16103	-0.000398245	   5.16103	  -9.95612	
    5.2363	-0.000392849	    5.2248	-0.000380262	   5.22652	-0.000409321	   5.22921	-0.000394144	   5.22921	  -9.85359	
   5.30434	-0.000388567	   5.29258	-0.00037619	   5.29456	-0.000405235	   5.29716	-0.000389997	   5.29716	  -9.74994	
   5.37226	-0.00038437	   5.36023	-0.000372068	   5.36248	-0.000401159	   5.36499	-0.000385866	   5.36499	  -9.64665	
   5.43994	-0.000380242	   5.42763	-0.000367967	   5.43006	-0.00039707	   5.43254	-0.00038176	   5.43254	  -9.54399	
   5.50734	-0.000376017	   5.49475	-0.000363861	   5.49745	-0.000392934	   5.49985	-0.000377604	   5.49985	   -9.4401	
   5.57462	-0.000371837	   5.56179	-0.000359709	   5.56472	-0.000388784	   5.56705	-0.000373443	   5.56705	  -9.33608	
   5.64161	-0.000367764	   5.62853	-0.000355516	   5.63165	-0.00038462	   5.63393	-0.0003693	   5.63393	   -9.2325	
   5.70828	-0.000363635	    5.6951	-0.00035137	   5.69835	-0.000380446	   5.70058	-0.00036515	   5.70058	  -9.12875	
   5.77485	-0.000359553	    5.7616	-0.000347189	   5.76494	-0.000376203	   5.76713	-0.000360982	   5.76713	  -9.02454	
   5.84107	-0.000355572	    5.8278	-0.000342916	    5.8312	-0.000371939	   5.83336	-0.000356809	   5.83336	  -8.92023	
   5.90701	-0.000351545	   5.89399	-0.000338732	   5.89714	-0.000367668	   5.89938	-0.000352648	   5.89938	  -8.81621	
   5.97287	-0.000347523	   5.95971	-0.000334572	   5.96295	-0.000363328	   5.96518	-0.000348474	   5.96518	  -8.71186	
   6.03841	-0.000343565	   6.02541	-0.000330266	   6.02846	-0.00035899	   6.03076	-0.000344274	   6.03076	  -8.60684	
   6.10368	-0.000339541	   6.09091	-0.000326096	   6.09372	-0.000354655	    6.0961	-0.000340097	    6.0961	  -8.50244	
   6.16945	-0.000335553	   6.15602	-0.000321962	   6.15882	-0.000350256	   6.16143	-0.000335924	   6.16143	  -8.39809	
   6.23498	-0.000331619	   6.22092	-0.000317696	   6.22365	-0.000345868	   6.22652	-0.000331728	   6.22652	  -8.29319	
    6.2997	-0.00032752	   6.28571	-0.00031353	   6.28811	-0.000341499	   6.29117	-0.000327516	   6.29117	   -8.1879	
   6.36409	-0.000323392	   6.35015	-0.000309406	    6.3525	-0.000337073	   6.35558	-0.00032329	   6.35558	  -8.08226	
   6.42829	-0.000319357	   6.41436	-0.000305177	   6.41667	-0.000332659	   6.41977	-0.000319064	   6.41977	   -7.9766	
   6.49218	-0.000315182	   6.47824	-0.000301001	    6.4804	-0.000328276	   6.48361	-0.00031482	   6.48361	  -7.87049	
   6.55564	-0.000310905	   6.54194	-0.000296869	   6.54389	-0.000323847	   6.54715	-0.000310541	   6.54715	  -7.76352	
   6.61886	-0.000306678	   6.60541	-0.000292669	   6.60716	-0.000319409	   6.61047	-0.000306252	   6.61047	   -7.6563	
    6.6818	-0.000302371	    6.6685	-0.000288465	   6.67006	-0.000315012	   6.67345	-0.000301949	   6.67345	  -7.54873	
   6.74447	-0.000297991	   6.73117	-0.000284312	   6.73265	-0.000310573	   6.73609	-0.000297625	   6.73609	  -7.44063	
   6.80701	-0.000293632	   6.79365	-0.000280104	   6.79504	-0.000306127	   6.79857	-0.000293288	   6.79857	  -7.33219	
   6.86934	-0.000289241	   6.85583	-0.000275843	   6.85714	-0.000301712	   6.86077	-0.000288932	   6.86077	   -7.2233	
   6.93128	-0.000284783	   6.91762	-0.000271679	   6.91884	-0.00029725	   6.92258	-0.000284571	   6.92258	  -7.11426	
   6.99312	-0.000280349	   6.97919	-0.000267458	   6.98038	-0.000292774	   6.98423	-0.000280194	   6.98423	  -7.00485	
   7.05469	-0.000275867	   7.04054	-0.000263097	   7.04169	-0.000288312	   7.04564	-0.000275759	   7.04564	  -6.89396	
    7.1158	-0.000271332	   7.10148	-0.000258848	   7.10264	-0.000283829	   7.10664	-0.000271336	   7.10664	  -6.78341	
   7.17662	-0.000266838	   7.16218	-0.000254593	   7.16334	-0.000279312	   7.16738	-0.000266915	   7.16738	  -6.67286	
   7.23722	-0.00026232	    7.2227	-0.000250178	   7.22391	-0.000274754	   7.22794	-0.000262417	   7.22794	  -6.56044	
   7.29746	-0.000257766	   7.28289	-0.000245834	   7.28414	-0.000270184	   7.28817	-0.000257928	   7.28817	  -6.44819	
   7.35741	-0.000253244	   7.34273	-0.000241496	   7.34411	-0.00026564	   7.34808	-0.00025346	   7.34808	   -6.3365	
   7.41718	-0.000248721	   7.40237	-0.000237002	   7.40387	-0.000261025	   7.40781	-0.000248916	   7.40781	   -6.2229	
   7.47669	-0.000244167	   7.46179	-0.000232568	   7.46338	-0.000256381	   7.46729	-0.000244372	   7.46729	   -6.1093	
   7.53574	-0.000239627	    7.5208	-0.000228171	   7.52247	-0.000251751	   7.52633	-0.00023985	   7.52633	  -5.99624	
   7.59447	-0.000235097	   7.57942	-0.000223602	    7.5811	-0.000247062	     7.585	-0.000235254	     7.585	  -5.88135	
   7.65302	-0.000230532	   7.63779	-0.000219096	   7.63963	-0.000242337	   7.64348	-0.000230655	   7.64348	  -5.76637	
   7.71123	-0.000225967	   7.69588	-0.00021469	   7.69786	-0.000237603	   7.70165	-0.000226087	   7.70165	  -5.65216	
   7.76898	-0.00022141	    7.7535	-0.00021011	   7.75564	-0.000232843	   7.75938	-0.000221454	   7.75938	  -5.53636	
   7.82656	-0.000216817	    7.8108	-0.000205543	   7.81313	-0.000228071	   7.81683	-0.00021681	   7.81683	  -5.42025	
   7.88394	-0.000212209	   7.86796	-0.00020111	   7.87045	-0.00022333	   7.87412	-0.000212216	   7.87412	  -5.30541	
   7.94094	-0.000207603	   7.92478	-0.000196548	   7.92741	-0.000218522	   7.93104	-0.000207558	   7.93104	  -5.18894	
   7.99742	-0.000202954	   7.98125	-0.000191956	   7.98399	-0.000213645	   7.98755	-0.000202851	   7.98755	  -5.07129	
   8.05363	-0.000198255	   8.03754	-0.000187504	   8.04037	-0.000208837	   8.04385	-0.000198199	   8.04385	  -4.95497	
   8.10962	-0.000193566	   8.09358	-0.000182975	   8.09654	-0.000204055	   8.09991	-0.000193532	   8.09991	   -4.8383	
    8.1652	-0.000188884	   8.14924	-0.000178393	   8.15231	-0.00019919	   8.15558	-0.000188822	   8.15558	  -4.72056	
   8.22032	-0.000184134	   8.20443	-0.000173958	   8.20757	-0.000194371	   8.21077	-0.000184154	   8.21077	  -4.60386	
   8.27528	-0.000179323	   8.25953	-0.000169497	   8.26247	-0.000189615	   8.26576	-0.000179478	   8.26576	  -4.48696	
      8.33	-0.000174585	   8.31441	-0.000164961	   8.31717	-0.000184805	   8.32053	-0.000174784	   8.32053	  -4.36959	
   8.38431	-0.000169835	    8.3689	-0.000160544	   8.37147	-0.000180018	   8.37489	-0.000170133	   8.37489	  -4.25332	
   8.43819	-0.000164968	   8.42294	-0.000156133	   8.42527	-0.000175323	    8.4288	-0.000165474	    8.4288	  -4.13686	
   8.49185	-0.000160119	   8.47683	-0.000151641	   8.47882	-0.000170595	    8.4825	-0.000160785	    8.4825	  -4.01962	
   8.54527	-0.000155299	    8.5305	-0.000147237	   8.53217	-0.000165874	   8.53598	-0.000156137	   8.53598	  -3.90341	
   8.59829	-0.000150439	   8.58378	-0.000142859	   8.58515	-0.00016123	   8.58907	-0.000151509	   8.58907	  -3.78774	
   8.65076	-0.000145614	   8.63656	-0.00013839	   8.63765	-0.000156579	   8.64166	-0.000146861	   8.64166	  -3.67153	
   8.70299	-0.000140813	   8.68901	-0.000133955	   8.68994	-0.000151959	   8.69398	-0.000142242	   8.69398	  -3.55606	
   8.75502	-0.000136009	   8.74122	-0.000129602	   8.74204	-0.000147382	   8.74609	-0.000137664	   8.74609	  -3.44161	
   8.80669	-0.000131226	   8.79308	-0.000125184	    8.7938	-0.000142761	   8.79785	-0.000133057	   8.79785	  -3.32642	
   8.85789	-0.000126517	   8.84443	-0.000120721	   8.84511	-0.000138169	   8.84914	-0.000128469	   8.84914	  -3.21172	
   8.90883	-0.000121829	   8.89524	-0.000116316	   8.89602	-0.000133645	   8.90003	-0.00012393	   8.90003	  -3.09825	
   8.95957	-0.000117068	   8.94582	-0.000111902	   8.94669	-0.000129072	   8.95069	-0.000119347	   8.95069	  -2.98368	
   9.00999	-0.00011247	   8.99613	-0.000107435	   8.99708	-0.000124497	   9.00107	-0.000114801	   9.00107	  -2.87002	
      9.06	-0.000107962	   9.04601	-0.000102993	   9.04702	-0.000119991	   9.05101	-0.000110315	   9.05101	  -2.75789	
   9.10955	-0.000103326	   9.09536	-9.85668e-05	   9.09639	-0.000115455	   9.10044	-0.000105782	   9.10044	  -2.64456	
   9.15877	-9.88083e-05	   9.14443	-9.40888e-05	    9.1455	-0.000110907	   9.14957	-0.000101268	   9.14957	   -2.5317	
   9.20737	-9.43764e-05	   9.19326	-8.9638e-05	   9.19431	-0.000106427	   9.19831	-9.68137e-05	   9.19831	  -2.42034	
   9.25567	-8.98364e-05	   9.24174	-8.52191e-05	   9.24278	-0.000101937	   9.24673	-9.23307e-05	   9.24673	  -2.30827	
   9.30357	-8.53944e-05	   9.28975	-8.0749e-05	   9.29076	-9.74201e-05	   9.29469	-8.78545e-05	   9.29469	  -2.19636	
   9.35107	-8.10593e-05	   9.33731	-7.62942e-05	   9.33823	-9.29682e-05	   9.34221	-8.34406e-05	   9.34221	  -2.08601	
   9.39836	-7.66574e-05	    9.3847	-7.18859e-05	   9.38548	-8.85258e-05	   9.38951	-7.9023e-05	   9.38951	  -1.97558	
   9.44525	-7.22616e-05	   9.43185	-6.74436e-05	   9.43245	-8.4045e-05	   9.43652	-7.45834e-05	   9.43652	  -1.86458	
   9.49181	-6.79373e-05	   9.47863	-6.30096e-05	   9.47906	-7.96167e-05	   9.48316	-7.01879e-05	   9.48316	   -1.7547	
   9.53791	-6.36465e-05	   9.52489	-5.86278e-05	   9.52516	-7.52154e-05	   9.52932	-6.58299e-05	   9.52932	  -1.64575	
   9.58361	-5.93239e-05	   9.57063	-5.42066e-05	    9.5708	-7.0784e-05	   9.57501	-6.14382e-05	   9.57501	  -1.53595	
   9.62898	-5.50291e-05	   9.61606	-4.97973e-05	   9.61608	-6.63993e-05	   9.62037	-5.70752e-05	   9.62037	  -1.42688	
     9.674	-5.07616e-05	   9.66121	-4.54398e-05	   9.66115	-6.2059e-05	   9.66545	-5.27535e-05	   9.66545	  -1.31884	
   9.71855	-4.64718e-05	   9.70601	-4.10426e-05	   9.70586	-5.76913e-05	   9.71014	-4.84019e-05	   9.71014	  -1.21005	
    9.7627	-4.22031e-05	   9.75032	-3.66525e-05	    9.7501	-5.33519e-05	   9.75437	-4.40692e-05	   9.75437	  -1.10173	
    9.8065	-3.79672e-05	   9.79413	-3.23222e-05	   9.79394	-4.90647e-05	   9.79819	-3.97847e-05	   9.79819	 -0.994617	
      9.85	-3.37217e-05	   9.83755	-2.79566e-05	   9.83739	-4.4753e-05	   9.84165	-3.54771e-05	   9.84165	 -0.886927	
   9.89314	-2.94802e-05	    9.8807	-2.35835e-05	   9.88056	-4.04727e-05	    9.8848	-3.11788e-05	    9.8848	  -0.77947	
   9.93596	-2.52775e-05	   9.92355	-1.92528e-05	   9.92343	-3.6199e-05	   9.92764	-2.69098e-05	   9.92764	 -0.672745	
   9.97833	-2.10797e-05	   9.96597	-1.4902e-05	   9.96586	-3.18906e-05	   9.97005	-2.26241e-05	   9.97005	 -0.565603	
   10.0202	-1.68694e-05	   10.0079	-1.04689e-05	   10.0078	-2.76532e-05	   10.0119	-1.83305e-05	   10.0119	 -0.458262	
   10.0615	-1.26929e-05	   10.0496	-6.06385e-06	   10.0491	-2.34198e-05	   10.0534	-1.40589e-05	   10.0534	 -0.351472	
   10.1026	-8.52131e-06	   10.0915	-1.74097e-06	     10.09	-1.91334e-05	   10.0947	-9.79855e-06	   10.0947	 -0.244964	
   10.1433	-4.33736e-06	   10.1326	2.62952e-06	   10.1306	-1.49001e-05	   10.1355	-5.53599e-06	   10.1355	   -0.1384	
   10.1837	-1.75096e-07	   10.1726	7.11415e-06	   10.1709	-1.06875e-05	   10.1757	-1.24947e-06	   10.1757	-0.0312367	
   10.2236	3.98437e-06	   10.2123	1.15874e-05	   10.2108	-6.45634e-06	   10.2156	3.03846e-06	   10.2156	 0.0759616	
    10.263	8.16122e-06	   10.2518	1.59555e-05	   10.2502	-2.24412e-06	    10.255	7.29087e-06	    10.255	  0.182272	
    10.302	1.23306e-05	   10.2909	2.03491e-05	   10.2892	1.96213e-06	    10.294	1.15473e-05	    10.294	  0.288682	
   10.3405	1.64986e-05	   10.3293	2.48407e-05	   10.3277	6.17337e-06	   10.3325	1.58376e-05	   10.3325	  0.395939	
   10.3788	2.06927e-05	   10.3676	2.92455e-05	   10.3659	1.03666e-05	   10.3708	2.01016e-05	   10.3708	   0.50254	
   10.4168	2.48948e-05	   10.4055	3.36407e-05	   10.4039	1.45249e-05	   10.4087	2.43535e-05	   10.4087	  0.608837	
   10.4544	2.91075e-05	    10.443	3.80909e-05	   10.4415	1.87431e-05	   10.4463	2.86472e-05	   10.4463	   0.71618	
   10.4915	3.33509e-05	     10.48	4.24696e-05	   10.4786	2.29379e-05	   10.4834	3.29194e-05	   10.4834	  0.822986	
    10.528	3.76047e-05	   10.5165	4.68107e-05	   10.5151	2.70986e-05	   10.5199	3.71713e-05	   10.5199	  0.929283	
   10.5642	4.18589e-05	   10.5526	5.11888e-05	   10.5511	3.13499e-05	   10.5559	4.14659e-05	   10.5559	   1.03665	
   10.6001	4.61628e-05	   10.5882	5.55145e-05	   10.5867	3.55671e-05	   10.5917	4.57481e-05	   10.5917	    1.1437	
   10.6356	5.04735e-05	   10.6236	5.97781e-05	   10.6221	3.9733e-05	   10.6271	4.99949e-05	   10.6271	   1.24987	
   10.6707	5.47584e-05	   10.6587	6.40572e-05	   10.6572	4.40488e-05	   10.6622	5.42881e-05	   10.6622	    1.3572	
   10.7054	 5.909e-05	   10.6934	6.82987e-05	   10.6924	4.82978e-05	   10.6971	5.85622e-05	   10.6971	   1.46405	
   10.7396	6.34141e-05	   10.7276	7.2493e-05	    10.727	5.24201e-05	   10.7314	6.27758e-05	   10.7314	   1.56939	
   10.7732	6.7732e-05	   10.7613	7.67072e-05	   10.7608	5.67726e-05	   10.7651	6.70706e-05	   10.7651	   1.67676	
   10.8062	7.21344e-05	   10.7943	8.08624e-05	   10.7941	6.11611e-05	   10.7982	7.1386e-05	   10.7982	   1.78465	
   10.8387	7.65503e-05	    10.827	8.49711e-05	    10.827	6.53721e-05	   10.8309	7.56312e-05	   10.8309	   1.89078	
    10.871	8.08733e-05	   10.8593	8.91663e-05	   10.8597	6.9756e-05	   10.8633	7.99319e-05	   10.8633	    1.9983	
   10.9029	8.52028e-05	   10.8913	9.33254e-05	   10.8921	7.42252e-05	   10.8955	8.42511e-05	   10.8955	   2.10628	
   10.9346	8.96368e-05	   10.9231	9.73748e-05	   10.9239	7.85272e-05	   10.9272	8.85129e-05	   10.9272	   2.21282	
   10.9659	9.40265e-05	   10.9544	0.000101506	   10.9554	8.29524e-05	   10.9586	9.28283e-05	   10.9586	   2.32071	
   10.9967	9.83682e-05	   10.9853	0.000105716	   10.9863	8.74864e-05	   10.9894	9.71902e-05	   10.9894	   2.42976	
    11.027	0.000102746	   11.0157	0.000109845	   11.0167	9.18596e-05	   11.0198	0.000101484	   11.0198	   2.53709	
   11.0567	0.000107157	   11.0455	0.000113971	   11.0465	9.63095e-05	   11.0496	0.000105812	   11.0496	   2.64531	
   11.0859	0.000111535	   11.0747	0.000118101	   11.0757	0.000100872	   11.0788	0.000110169	   11.0788	   2.75424	
   11.1146	0.000115911	   11.1033	0.000122198	   11.1045	0.000105305	   11.1075	0.000114471	   11.1075	   2.86178	
   11.1429	0.000120336	   11.1316	0.000126309	   11.1328	0.000109743	   11.1358	0.000118796	   11.1358	   2.96989	
    11.171	0.000124732	   11.1596	0.000130407	   11.1607	0.000114285	   11.1637	0.000123141	   11.1637	   3.07853	
   11.1986	0.000129091	   11.1872	0.000134453	   11.1883	0.00011872	   11.1914	0.000127421	   11.1914	   3.18553	
    11.226	0.000133531	   11.2146	0.000138508	   11.2156	0.000123128	   11.2187	0.000131722	   11.2187	   3.29305	
    11.253	0.000137961	   11.2415	0.000142555	   11.2426	0.000127644	   11.2457	0.000136053	   11.2457	   3.40133	
   11.2795	0.000142326	    11.268	0.000146559	   11.2691	0.000132083	   11.2722	0.000140323	   11.2722	   3.50807	
   11.3055	0.000146717	    11.294	0.000150562	   11.2951	0.000136463	   11.2982	0.00014458	   11.2982	   3.61451	
    11.331	0.000151166	   11.3194	0.000154566	   11.3205	0.00014094	   11.3236	0.000148891	   11.3236	   3.72227	
   11.3558	0.000155559	   11.3443	0.000158519	   11.3454	0.000145386	   11.3485	0.000153155	   11.3485	   3.82886	
     11.38	0.000159918	   11.3685	0.000162472	   11.3697	0.000149758	   11.3728	0.000157383	   11.3728	   3.93457	
   11.4036	0.000164282	   11.3922	0.000166452	   11.3936	0.000154199	   11.3965	0.000161644	   11.3965	   4.04111	
   11.4268	0.000168625	   11.4153	0.000170393	   11.4171	0.000158631	   11.4198	0.000165883	   11.4198	   4.14707	
   11.4496	0.000172913	   11.4381	0.000174322	   11.4401	0.00016299	   11.4426	0.000170075	   11.4426	   4.25187	
    11.472	0.00017719	   11.4605	0.000178278	   11.4628	0.000167396	   11.4651	0.000174288	   11.4651	    4.3572	
   11.4939	0.00018146	   11.4828	0.000182219	   11.4851	0.000171817	   11.4873	0.000178499	   11.4873	   4.46247	
   11.5156	0.00018566	   11.5046	0.00018616	   11.5071	0.000176174	   11.5091	0.000182665	   11.5091	   4.56662	
   11.5369	0.000189839	   11.5263	0.000190137	   11.5287	0.000180575	   11.5306	0.00018685	   11.5306	   4.67126	
   11.5579	0.000194024	   11.5475	0.000194098	   11.5499	0.000184985	   11.5518	0.000191035	   11.5518	   4.77589	
   11.5785	0.00019815	   11.5685	0.000198053	   11.5707	0.000189324	   11.5725	0.000195176	   11.5725	   4.87939	
   11.5987	0.000202263	   11.5889	0.000202048	    11.591	0.000193704	   11.5929	0.000199338	   11.5929	   4.98346	
   11.6185	0.000206382	    11.609	0.000206058	   11.6108	0.000198104	   11.6127	0.000203515	   11.6127	   5.08787	
   11.6377	0.000210463	   11.6285	0.00021005	   11.6301	0.000202447	   11.6321	0.000207653	   11.6321	   5.19134	
   11.6565	0.000214526	   11.6476	0.000213968	   11.6489	0.000206817	    11.651	0.00021177	    11.651	   5.29426	
   11.6748	0.000218599	   11.6661	0.000217921	   11.6671	0.000211191	   11.6693	0.000215904	   11.6693	    5.3976	
   11.6925	0.000222698	   11.6836	0.000221982	   11.6849	0.000215499	    11.687	0.00022006	    11.687	   5.50149	
   11.7096	0.000226785	    11.701	0.000225896	   11.7021	0.000219862	   11.7042	0.000224181	   11.7042	   5.60452	
   11.7262	0.000230846	   11.7178	0.000229809	   11.7188	0.000224272	   11.7209	0.000228309	   11.7209	   5.70772	
   11.7423	0.00023493	   11.7342	0.000233835	   11.7348	0.00022865	   11.7371	0.000232472	   11.7371	   5.81179	
   11.7579	0.000239037	   11.7505	0.000237707	   11.7504	0.000232988	   11.7529	0.000236577	   11.7529	   5.91443	
   11.7729	0.000243119	   11.7658	0.000241604	   11.7653	0.000237335	    11.768	0.000240686	    11.768	   6.01715	
   11.7873	0.000247205	   11.7808	0.000245594	   11.7797	0.000241724	   11.7826	0.000244841	   11.7826	   6.12103	
   11.8013	0.000251299	   11.7953	0.000249467	   11.7937	0.000246092	   11.7968	0.000248953	   11.7968	   6.22383	
   11.8146	0.000255375	   11.8092	0.000253339	   11.8071	0.000250457	   11.8103	0.000253057	   11.8103	   6.32643	
   11.8275	0.000259439	   11.8225	0.000257308	   11.8201	0.000254874	   11.8234	0.000257207	   11.8234	   6.43018	
   11.8399	0.000263499	   11.8355	0.00026121	   11.8327	0.000259291	    11.836	0.000261333	    11.836	   6.53333	
   11.8518	0.000267542	    11.848	0.00026507	   11.8448	0.000263726	   11.8482	0.000265446	   11.8482	   6.63615	
   11.8633	0.000271567	     11.86	0.000269021	   11.8564	0.000268198	   11.8599	0.000269595	   11.8599	   6.73988	
   11.8742	0.000275581	   11.8713	0.000272924	   11.8676	0.000272673	    11.871	0.000273726	    11.871	   6.84314	
   11.8847	0.000279574	    11.882	0.000276794	   11.8785	0.000277164	   11.8817	0.000277844	   11.8817	    6.9461	
   11.8946	0.000283556	   11.8922	0.00028076	    11.889	0.000281673	   11.8919	0.000281996	   11.8919	    7.0499	
    11.904	0.000287522	   11.9018	0.000284677	   11.8988	0.000286181	   11.9015	0.000286127	   11.9015	   7.15316	
   11.9129	0.000291452	   11.9108	0.000288583	   11.9079	0.000290758	   11.9105	0.000290264	   11.9105	   7.25661	
   11.9212	0.000295374	   11.9193	0.000292514	   11.9167	0.000295309	   11.9191	0.000294399	   11.9191	   7.35997	
   11.9291	 0.0002993	   11.9273	0.000296424	    11.925	0.000299832	   11.9271	0.000298519	   11.9271	   7.46297	
   11.9365	0.000303173	   11.9349	0.000300375	   11.9331	0.000304394	   11.9348	0.000302647	   11.9348	   7.56618	
   11.9434	0.000307081	   11.9419	0.000304362	   11.9409	0.000308912	   11.9421	0.000306785	   11.9421	   7.66963	
   11.9498	0.000310976	   11.9485	0.00030827	   11.9477	0.000313406	   11.9487	0.000310884	   11.9487	    7.7721	
   11.9557	0.000314796	   11.9545	0.000312145	   11.9546	0.000317909	   11.9549	0.00031495	   11.9549	   7.87374	
   11.9611	0.00031864	     11.96	0.000316102	    11.961	0.000322348	   11.9607	0.00031903	   11.9607	   7.97574	
   11.9661	0.000322469	   11.9651	0.000319996	   11.9667	0.000326763	    11.966	0.000323076	    11.966	    8.0769	
   11.9705	0.000326233	   11.9696	0.00032382	   11.9721	0.000331166	   11.9707	0.000327073	   11.9707	   8.17683	
   11.9746	0.000330009	   11.9737	0.000327736	   11.9772	0.000335513	   11.9751	0.000331086	   11.9751	   8.27715	
   11.9782	0.000333774	   11.9774	0.000331578	   11.9818	0.000339842	   11.9791	0.000335065	   11.9791	   8.37662	
   11.9814	0.000337488	   11.9807	0.000335344	    11.986	0.000344132	   11.9827	0.000338988	   11.9827	    8.4747	
   11.9842	0.000341213	   11.9835	0.000339197	   11.9896	0.000348344	   11.9858	0.000342918	   11.9858	   8.57295	
   11.9867	0.000344954	    11.986	0.00034293	   11.9928	0.000352573	   11.9885	0.000346819	   11.9885	   8.67048	
   11.9889	0.000348649	   11.9882	0.000346562	   11.9955	0.000356794	   11.9909	0.000350668	   11.9909	   8.76671	
   11.9907	0.000352348	     11.99	0.000350313	   11.9978	0.000360929	   11.9929	0.00035453	   11.9929	   8.86325	
   11.9923	0.00035606	   11.9915	0.000353972	   11.9998	0.000365115	   11.9945	0.000358382	   11.9945	   8.95956	
   11.9936	0.000359747	   11.9927	0.00035749	   12.0014	0.000369308	   11.9959	0.000362182	   11.9959	   9.05454	
   11.9946	0.000363433	   11.9937	0.000361102	   12.0027	0.000373415	    11.997	0.000365983	    11.997	   9.14959	
   11.9953	0.000367112	   11.9943	0.000364675	   12.0036	0.000377557	   11.9977	0.000369781	   11.9977	   9.24453	
   11.9956	0.00037076	   11.9946	0.000368103	   12.0041	0.000381727	   11.9981	0.00037353	   11.9981	   9.33825	
   11.9957	0.000374382	   11.9945	0.000371598	   12.0041	0.000385817	   11.9981	0.000377265	   11.9981	   9.43163	
   11.9953	0.000378025	    11.994	0.000375107	   12.0036	0.000389913	   11.9977	0.000381015	   11.9977	   9.52538	
   11.9947	0.000381638	   11.9928	0.000378494	   12.0028	0.000394045	   11.9968	0.000384726	   11.9968	   9.61814	
   11.9936	0.000385162	   11.9911	0.000381924	   12.0013	0.000398085	   11.9953	0.00038839	   11.9953	   9.70976	
   11.9919	0.000388712	   11.9887	 0.0003854	   11.9992	0.000402101	   11.9933	0.000392071	   11.9933	   9.80178	
   11.9898	0.000392268	   11.9858	0.00038878	   11.9969	0.00040614	   11.9908	0.00039573	   11.9908	   9.89324	
   11.9871	0.000395746	   11.9822	0.000392174	   11.9941	0.000410099	   11.9878	0.00039934	   11.9878	   9.98349	
   11.9839	0.000399213	   11.9782	0.000395628	   11.9907	0.000413998	   11.9843	0.000402946	   11.9843	   10.0737	
   11.9805	0.000402629	   11.9738	0.000399028	   11.9869	0.000417908	   11.9804	0.000406522	   11.9804	    10.163	
   11.9763	0.000406026	   11.9689	0.000402401	   11.9827	0.000421746	    11.976	0.000410058	    11.976	   10.2514	
   11.9713	0.000409479	   11.9637	0.000405842	    11.978	0.000425521	    11.971	0.000413614	    11.971	   10.3404	
   11.9659	0.000412851	   11.9583	0.000409253	    11.973	0.00042928	   11.9657	0.000417128	   11.9657	   10.4282	
   11.9603	0.000416174	   11.9525	0.000412612	   11.9675	0.000432942	   11.9601	0.000420576	   11.9601	   10.5144	
   11.9541	0.000419568	   11.9463	0.000416036	   11.9616	0.000436582	    11.954	0.000424062	    11.954	   10.6016	
   11.9475	0.000422922	   11.9398	0.000419467	   11.9552	0.000440199	   11.9475	0.000427529	   11.9475	   10.6882	
   11.9405	0.000426239	   11.9327	0.000422826	   11.9482	0.000443695	   11.9405	0.00043092	   11.9405	    10.773	
    11.933	0.000429604	    11.925	0.000426225	   11.9404	0.000447207	   11.9328	0.000434345	   11.9328	   10.8586	
   11.9249	 0.0004329	   11.9168	0.000429637	   11.9321	0.00045069	   11.9246	0.000437742	   11.9246	   10.9436	
   11.9162	0.000436149	    11.908	0.000432985	   11.9231	0.000454068	   11.9158	0.000441067	   11.9158	   11.0267	
    11.907	0.000439477	   11.8988	0.000436344	   11.9137	0.000457466	   11.9065	0.000444429	   11.9065	   11.1107	
   11.8975	0.000442786	   11.8892	0.000439734	   11.9038	0.000460843	   11.8968	0.000447788	   11.8968	   11.1947	
   11.8876	0.000445997	   11.8792	0.000443062	   11.8936	0.000464144	   11.8868	0.000451068	   11.8868	   11.2767	
   11.8773	0.000449232	   11.8689	0.000446383	    11.883	0.000467458	   11.8764	0.000454357	   11.8764	   11.3589	
   11.8666	0.000452437	   11.8582	0.00044974	   11.8719	0.000470758	   11.8656	0.000457645	   11.8656	   11.4411	
   11.8554	0.000455616	   11.8471	0.000453047	   11.8602	0.000473961	   11.8542	0.000460875	   11.8542	   11.5219	
   11.8438	0.000458838	   11.8354	0.000456325	   11.8479	0.000477174	   11.8424	0.000464112	   11.8424	   11.6028	
   11.8315	0.000461975	   11.8231	0.000459631	   11.8351	0.000480432	   11.8299	0.000467346	   11.8299	   11.6836	
   11.8188	0.000465062	   11.8103	0.000462904	   11.8217	0.000483597	   11.8169	0.000470521	   11.8169	    11.763	
   11.8055	0.000468231	    11.797	0.000466143	   11.8078	0.000486717	   11.8035	0.000473697	   11.8035	   11.8424	
   11.7919	0.000471398	   11.7834	0.000469409	   11.7937	0.000489892	   11.7897	0.000476899	   11.7897	   11.9225	
    11.778	0.00047451	   11.7694	0.000472632	   11.7792	0.000493008	   11.7755	0.00048005	   11.7755	   12.0013	
   11.7636	0.000477641	   11.7551	0.000475795	   11.7641	0.000496065	    11.761	0.000483167	    11.761	   12.0792	
   11.7489	0.000480795	   11.7401	0.000479077	   11.7487	0.000499144	   11.7459	0.000486339	   11.7459	   12.1585	
   11.7334	0.000483934	   11.7245	0.000482319	   11.7326	0.000502191	   11.7302	0.000489481	   11.7302	    12.237	
   11.7174	0.000487089	   11.7083	0.000485375	   11.7159	0.000505208	   11.7139	0.000492557	   11.7139	   12.3139	
   11.7009	0.000490256	   11.6917	0.000488528	   11.6988	0.000508208	   11.6971	0.000495664	   11.6971	   12.3916	
    11.684	0.000493406	   11.6747	0.000491708	   11.6814	0.000511159	     11.68	0.000498758	     11.68	   12.4689	
   11.6668	0.00049656	   11.6574	0.000494702	   11.6636	0.000514102	   11.6626	0.000501788	   11.6626	   12.5447	
   11.6493	0.000499726	   11.6396	0.000497736	   11.6455	0.000517057	   11.6448	0.00050484	   11.6448	    12.621	
   11.6311	0.000502879	   11.6212	0.000500852	   11.6268	0.000519941	   11.6263	0.00050789	   11.6263	   12.6973	
   11.6122	0.000506029	   11.6021	0.00050377	   11.6075	0.000522813	   11.6073	0.00051087	   11.6073	   12.7718	
   11.5928	0.000509177	   11.5826	0.000506634	   11.5878	0.000525711	   11.5877	0.000513841	   11.5877	    12.846	
    11.573	0.00051231	   11.5627	0.000509609	   11.5676	0.00052854	   11.5678	0.00051682	   11.5678	   12.9205	
   11.5529	0.000515436	   11.5423	0.000512439	   11.5471	0.000531334	   11.5474	0.000519736	   11.5474	   12.9934	
   11.5323	0.000518562	   11.5216	0.000515155	   11.5263	0.000534147	   11.5267	0.000522621	   11.5267	   13.0655	
   11.5112	0.000521663	   11.5002	0.00051797	   11.5049	0.000536977	   11.5055	0.000525537	   11.5055	   13.1384	
   11.4895	0.000524745	   11.4783	0.000520727	   11.4831	0.000539751	   11.4836	0.000528408	   11.4836	   13.2102	
   11.4672	0.000527817	   11.4559	0.000523351	   11.4611	0.000542442	   11.4614	0.000531203	   11.4614	   13.2801	
   11.4445	0.000530871	   11.4331	0.000526056	   11.4384	0.000545249	   11.4387	0.000534059	   11.4387	   13.3515	
   11.4215	 0.0005339	     11.41	0.000528738	   11.4148	0.000548068	   11.4154	0.000536902	   11.4154	   13.4225	
   11.3981	0.000536905	   11.3864	0.000531276	   11.3911	0.000550803	   11.3919	0.000539661	   11.3919	   13.4915	
   11.3741	0.00053989	   11.3622	0.000533892	    11.367	0.000553621	   11.3678	0.000542467	   11.3678	   13.5617	
   11.3495	0.000542853	   11.3375	0.000536512	   11.3424	0.00055645	   11.3431	0.000545272	   11.3431	   13.6318	
   11.3244	0.000545771	   11.3123	0.000538994	   11.3173	0.000559242	    11.318	0.000548003	    11.318	   13.7001	
    11.299	0.000548676	   11.2869	0.00054153	   11.2919	0.000562123	   11.2926	0.000550777	   11.2926	   13.7694	
   11.2733	0.000551564	    11.261	0.000544092	   11.2662	0.000565021	   11.2668	0.000553559	   11.2668	    13.839	
   11.2471	0.000554395	   11.2346	0.000546546	   11.2401	0.000567861	   11.2406	0.000556267	   11.2406	   13.9067	
   11.2204	0.00055722	   11.2077	0.000549029	   11.2134	0.000570755	   11.2138	0.000559001	   11.2138	    13.975	
   11.1931	0.00056003	   11.1803	0.000551582	   11.1862	0.00057369	   11.1865	0.000561767	   11.1865	   14.0442	
   11.1655	0.000562743	   11.1526	0.000554049	   11.1587	0.000576562	   11.1589	0.000564451	   11.1589	   14.1113	
   11.1373	0.000565452	   11.1247	0.00055643	   11.1307	0.000579451	   11.1309	0.000567111	   11.1309	   14.1778	
   11.1084	0.000568174	   11.0963	0.000558876	   11.1022	0.000582362	   11.1023	0.000569804	   11.1023	   14.2451	
   11.0792	0.000570766	    11.067	0.000561356	   11.0732	0.000585193	   11.0731	0.000572438	   11.0731	    14.311	
   11.0496	0.000573336	   11.0373	0.00056372	   11.0437	0.000588004	   11.0435	0.00057502	   11.0435	   14.3755	
   11.0195	0.00057593	   11.0075	0.000566046	   11.0139	0.000590777	   11.0136	0.000577585	   11.0136	   14.4396	
   10.9891	0.00057837	    10.977	0.000568456	   10.9837	0.000593541	   10.9833	0.000580122	   10.9833	   14.5031	
   10.9583	0.000580797	    10.946	0.00057085	    10.953	0.000596323	   10.9524	0.000582656	   10.9524	   14.5664	
   10.9268	0.000583234	   10.9145	0.000573164	   10.9218	0.000599001	   10.9211	0.000585133	   10.9211	   14.6283	
   10.8952	0.000585551	   10.8828	0.000575524	   10.8902	0.000601607	   10.8894	0.000587561	   10.8894	    14.689	
   10.8631	0.00058782	   10.8507	0.000577911	   10.8582	0.000604293	   10.8573	0.000590008	   10.8573	   14.7502	
   10.8308	0.000590138	   10.8182	0.000580252	   10.8259	0.000606918	    10.825	0.000592436	    10.825	   14.8109	
   10.7978	0.000592362	   10.7851	0.000582617	    10.793	0.000609449	    10.792	0.000594809	    10.792	   14.8702	
   10.7644	0.000594507	   10.7517	0.000585007	   10.7597	0.000612024	   10.7586	0.000597179	   10.7586	   14.9295	
   10.7307	0.000596713	   10.7179	0.000587346	    10.726	0.000614568	   10.7249	0.000599543	   10.7249	   14.9886	
   10.6967	0.000598848	   10.6838	0.000589694	   10.6919	0.000617021	   10.6908	0.000601855	   10.6908	   15.0464	
   10.6622	0.000600904	    10.649	0.000592057	   10.6574	0.000619472	   10.6562	0.000604144	   10.6562	   15.1036	
   10.6272	0.000603025	   10.6138	0.000594351	   10.6223	0.000621929	   10.6211	0.000606435	   10.6211	   15.1609	
   10.5918	0.000605121	   10.5784	0.000596606	   10.5869	0.000624313	   10.5857	0.00060868	   10.5857	    15.217	
   10.5561	0.000607133	   10.5426	0.000598908	   10.5512	0.000626637	     10.55	0.000610892	     10.55	   15.2723	
   10.5198	0.000609174	   10.5062	0.000601186	    10.515	0.000628966	   10.5137	0.000613109	   10.5137	   15.3277	
   10.4831	0.000611207	   10.4695	0.000603356	   10.4782	0.000631269	   10.4769	0.000615277	   10.4769	   15.3819	
   10.4459	0.000613207	   10.4324	0.000605563	    10.441	0.000633531	   10.4398	0.000617434	   10.4398	   15.4358	
   10.4084	0.000615234	    10.395	0.000607823	   10.4035	0.000635764	   10.4023	0.000619607	   10.4023	   15.4902	
   10.3705	0.000617235	   10.3571	0.000609937	   10.3655	0.00063796	   10.3644	0.000621711	   10.3644	   15.5428	
    10.332	0.000619234	   10.3187	0.000612071	   10.3269	0.000640167	   10.3259	0.000623824	   10.3259	   15.5956	
   10.2932	0.00062125	   10.2801	0.000614274	   10.2881	0.000642324	   10.2871	0.000625949	   10.2871	   15.6487	
   10.2541	0.000623265	   10.2411	0.000616305	   10.2489	0.000644457	    10.248	0.000628009	    10.248	   15.7002	
   10.2145	0.000625269	   10.2016	0.000618351	   10.2093	0.000646604	   10.2084	0.000630075	   10.2084	   15.7519	
   10.1743	0.000627253	   10.1616	0.000620466	   10.1692	0.00064871	   10.1684	0.000632143	   10.1684	   15.8036	
   10.1339	0.000629252	   10.1214	0.000622489	   10.1287	0.000650788	    10.128	0.000634176	    10.128	   15.8544	
   10.0931	0.000631229	   10.0808	0.000624489	   10.0879	0.000652889	   10.0873	0.000636202	   10.0873	   15.9051	
   10.0519	0.000633179	   10.0396	0.00062652	   10.0465	0.000654949	    10.046	0.000638216	    10.046	   15.9554	
   10.0102	0.00063513	   9.99805	0.000628506	   10.0047	0.000656979	   10.0043	0.000640205	   10.0043	   16.0051	
   9.96827	0.00063706	   9.95625	0.000630455	   9.96262	0.000659014	   9.96238	0.000642176	   9.96238	   16.0544	
   9.92596	0.000638928	   9.91406	0.000632423	   9.92009	0.00066102	   9.92003	0.000644124	   9.92003	   16.1031	
   9.88319	0.000640776	   9.87132	0.000634397	   9.87701	0.000662989	   9.87717	0.000646054	   9.87717	   16.1514	
   9.84005	0.00064266	   9.82823	0.000636308	    9.8336	0.000664948	   9.83396	0.000647972	   9.83396	   16.1993	
   9.79667	0.000644478	   9.78481	0.000638235	   9.78985	0.000666861	   9.79044	0.000649858	   9.79044	   16.2465	
   9.75287	0.00064623	   9.74094	0.000640169	   9.74551	0.000668772	   9.74644	0.000651724	   9.74644	   16.2931	
   9.70859	0.000648034	   9.69662	0.000642058	   9.70078	0.000670667	     9.702	0.000653586	     9.702	   16.3397	
   9.66402	0.000649794	   9.65203	0.00064394	   9.65597	0.00067248	   9.65734	0.000655405	   9.65734	   16.3851	
   9.61913	0.000651436	   9.60711	0.000645832	   9.61068	0.000674326	    9.6123	0.000657198	    9.6123	   16.4299	
   9.57372	0.000653125	   9.56168	0.00064767	   9.56522	0.000676154	   9.56687	0.000658983	   9.56687	   16.4746	
   9.52792	0.000654835	   9.51589	0.000649489	   9.51945	0.000677887	   9.52109	0.000660737	   9.52109	   16.5184	
   9.48179	0.000656407	   9.46989	0.000651313	   9.47304	0.000679615	   9.47491	0.000662445	   9.47491	   16.5611	
   9.43533	0.000657975	   9.42346	0.000653092	   9.42645	0.000681371	   9.42841	0.000664146	   9.42841	   16.6036	
   9.38841	0.00065958	   9.37659	0.00065483	   9.37945	0.00068307	   9.38148	0.000665827	   9.38148	   16.6457	
   9.34117	0.000661076	   9.32937	0.000656561	   9.33212	0.000684763	   9.33422	0.000667466	   9.33422	   16.6867	
   9.29349	0.000662541	   9.28155	0.000658247	   9.28445	0.000686508	    9.2865	0.000669099	    9.2865	   16.7275	
   9.24533	0.000664045	   9.23324	0.000659866	   9.23642	0.000688161	   9.23833	0.00067069	   9.23833	   16.7673	
   9.19685	0.000665469	    9.1845	0.000661509	   9.18803	0.000689792	   9.18979	0.000672256	   9.18979	   16.8064	
   9.14815	0.00066684	   9.13552	0.000663128	   9.13929	0.000691501	   9.14099	0.000673823	   9.14099	   16.8456	
   9.09902	0.000668252	   9.08636	0.000664647	   9.09014	0.000693178	   9.09184	0.000675359	   9.09184	    16.884	
    9.0495	0.000669603	   9.03674	0.000666202	   9.04061	0.000694811	   9.04228	0.000676872	   9.04228	   16.9218	
   8.99965	0.000670886	   8.98698	0.00066774	   8.99093	0.00069649	   8.99252	0.000678372	   8.99252	   16.9593	
   8.94921	0.000672205	   8.93681	0.000669179	   8.94086	0.000698191	   8.94229	0.000679858	   8.94229	   16.9965	
   8.89837	0.000673505	   8.88608	0.000670627	   8.89036	0.000699805	    8.8916	0.000681312	    8.8916	   17.0328	
   8.84729	0.000674699	   8.83517	0.000672087	   8.83965	0.000701422	    8.8407	0.000682736	    8.8407	   17.0684	
   8.79587	0.000675875	   8.78377	0.000673448	   8.78852	0.000703089	   8.78939	0.000684137	   8.78939	   17.1034	
   8.74401	0.000677067	     8.732	0.000674802	   8.73692	0.000704658	   8.73764	0.000685509	   8.73764	   17.1377	
   8.69187	0.000678176	   8.67993	0.000676188	   8.68509	0.000706212	   8.68563	0.000686859	   8.68563	   17.1715	
   8.63942	0.000679243	   8.62745	0.000677472	   8.63286	0.000707818	   8.63324	0.000688178	   8.63324	   17.2044	
   8.58655	0.00068033	   8.57453	0.000678742	    8.5802	0.000709311	   8.58043	0.000689461	   8.58043	   17.2365	
   8.53345	0.000681351	   8.52135	0.00068001	   8.52728	0.00071078	   8.52736	0.000690714	   8.52736	   17.2678	
    8.4799	0.000682312	   8.46774	0.000681178	   8.47396	0.000712292	   8.47386	0.000691927	   8.47386	   17.2982	
   8.42587	0.000683289	   8.41375	0.000682381	   8.42024	0.000713703	   8.41996	0.000693124	   8.41996	   17.3281	
   8.37161	0.000684218	   8.35954	0.000683598	   8.36626	0.000715048	    8.3658	0.000694288	    8.3658	   17.3572	
   8.31715	0.000685044	   8.30498	0.000684694	   8.31195	0.000716437	   8.31136	0.000695392	   8.31136	   17.3848	
    8.2622	0.000685947	   8.24997	0.000685845	   8.25723	0.000717764	   8.25647	0.000696519	   8.25647	    17.413	
   8.20701	 0.0006869	   8.19468	0.000687047	   8.20224	0.000719003	   8.20131	0.00069765	   8.20131	   17.4413	
   8.15151	0.000687675	   8.13906	0.00068811	   8.14708	0.000720277	   8.14588	0.000698687	   8.14588	   17.4672	
   8.09558	0.000688451	   8.08306	0.000689164	   8.09151	0.000721526	   8.09005	0.000699713	   8.09005	   17.4928	
   8.03941	0.000689354	   8.02684	0.000690323	   8.03567	0.000722667	   8.03398	0.000700781	   8.03398	   17.5195	
    7.9829	0.000690186	   7.97041	0.000691374	    7.9796	0.000723838	   7.97764	0.000701799	   7.97764	    17.545	
   7.92648	0.000690933	   7.91355	0.000692344	   7.92313	0.000725005	   7.92106	0.000702761	   7.92106	    17.569	
   7.86996	0.000691728	   7.85648	0.000693389	   7.86639	0.000726076	   7.86428	0.000703731	   7.86428	   17.5933	
   7.81272	0.000692562	   7.79915	0.00069438	   7.80938	0.000727145	   7.80708	0.000704696	   7.80708	   17.6174	
   7.75486	0.000693361	    7.7414	0.000695258	   7.75189	0.000728227	   7.74938	0.000705615	   7.74938	   17.6404	
   7.69681	0.000694165	   7.68341	0.000696178	   7.69415	0.000729213	   7.69146	0.000706519	   7.69146	    17.663	
   7.63861	0.000694981	   7.62508	0.00069707	   7.63606	0.00073018	   7.63325	0.00070741	   7.63325	   17.6853	
   7.58003	0.000695777	   7.56637	0.000697826	   7.57757	0.00073121	   7.57466	0.000708271	   7.57466	   17.7068	
   7.52116	0.000696582	   7.50751	0.000698605	   7.51887	0.000732156	   7.51585	0.000709114	   7.51585	   17.7279	
   7.46218	0.000697376	   7.44831	0.000699378	   7.45988	0.000733014	   7.45679	0.000709923	   7.45679	   17.7481	
    7.4028	0.00069815	   7.38877	0.000700006	   7.40049	0.000733947	   7.39735	0.000710701	   7.39735	   17.7675	
   7.34327	0.000698912	   7.32911	0.000700639	   7.34081	0.000734851	   7.33773	0.000711467	   7.33773	   17.7867	
   7.28335	0.000699656	   7.26901	0.000701289	    7.2809	0.000735695	   7.27775	0.000712213	   7.27775	   17.8053	
   7.22308	0.000700373	    7.2086	0.000701814	   7.22062	0.000736596	   7.21743	0.000712928	   7.21743	   17.8232	
   7.16249	0.000701085	   7.14801	0.000702326	   7.16017	0.000737452	   7.15689	0.000713621	   7.15689	   17.8405	
   7.10151	0.000701795	   7.08718	0.000702883	   7.09931	0.000738231	     7.096	0.000714303	     7.096	   17.8576	
   7.04026	0.000702452	   7.02608	0.000703346	   7.03815	0.000739065	   7.03483	0.000714954	   7.03483	   17.8739	
   6.97874	0.000703116	   6.96479	0.000703768	   6.97692	0.000739875	   6.97348	0.000715586	   6.97348	   17.8897	
    6.9169	0.000703771	    6.9031	0.000704288	   6.91534	0.00074058	   6.91178	0.000716213	   6.91178	   17.9053	
   6.85485	0.000704388	    6.8412	0.000704748	   6.85344	0.000741301	   6.84983	0.000716812	   6.84983	   17.9203	
   6.79265	0.000704992	   6.77922	0.000705101	   6.79126	0.000742007	   6.78771	0.000717367	   6.78771	   17.9342	
   6.73003	0.000705586	   6.71693	0.000705547	   6.72869	0.000742611	   6.72522	0.000717915	   6.72522	   17.9479	
   6.66726	0.000706161	   6.65438	0.000705983	   6.66594	0.00074319	   6.66253	0.000718445	   6.66253	   17.9611	
   6.60431	0.000706694	   6.59156	0.000706306	     6.603	0.000743773	   6.59962	0.000718924	   6.59962	   17.9731	
   6.54102	0.000707194	   6.52845	0.000706674	   6.53969	0.000744259	   6.53639	0.000719376	   6.53639	   17.9844	
   6.47763	0.000707666	   6.46525	0.000707059	   6.47627	0.000744684	   6.47305	0.000719803	   6.47305	   17.9951	
   6.41392	0.000708085	   6.40174	0.000707338	   6.41261	0.000745129	   6.40942	0.000720184	   6.40942	   18.0046	
   6.34993	0.000708488	   6.33796	0.000707635	   6.34866	0.000745495	   6.34552	0.00072054	   6.34552	   18.0135	
   6.28581	0.000708842	   6.27399	0.00070796	    6.2846	0.000745798	   6.28147	0.000720867	   6.28147	   18.0217	
   6.22128	0.00070915	   6.20958	0.000708191	   6.22017	0.000746124	   6.21701	0.000721155	   6.21701	   18.0289	
   6.15657	0.00070944	   6.14499	0.000708409	   6.15552	0.000746394	   6.15236	0.000721414	   6.15236	   18.0354	
    6.0918	0.000709676	   6.08019	0.000708655	   6.09063	0.000746603	   6.08754	0.000721645	   6.08754	   18.0411	
   6.02666	0.000709869	    6.0151	0.000708826	   6.02536	0.000746848	   6.02237	0.000721848	   6.02237	   18.0462	
   5.96136	0.000710053	    5.9498	0.000708972	   5.95996	0.000747027	   5.95704	0.000722017	   5.95704	   18.0504	
   5.89569	0.000710185	    5.8841	0.000709137	   5.89431	0.000747143	   5.89137	0.000722155	   5.89137	   18.0539	
   5.82975	0.000710246	   5.81816	0.000709242	   5.82837	0.000747286	   5.82543	0.000722258	   5.82543	   18.0564	
   5.76375	0.00071031	   5.75206	0.000709313	   5.76223	0.000747395	   5.75935	0.000722339	   5.75935	   18.0585	
   5.69736	0.000710336	   5.68555	0.000709391	    5.6958	0.000747419	    5.6929	0.000722382	    5.6929	   18.0596	
    5.6308	0.000710277	    5.6189	0.00070942	   5.62919	0.000747465	    5.6263	0.000722387	    5.6263	   18.0597	
   5.56399	0.000710207	   5.55214	0.000709422	   5.56242	 0.0007475	   5.55952	0.000722376	   5.55952	   18.0594	
   5.49685	0.000710136	   5.48508	0.000709401	   5.49535	0.000747428	   5.49242	0.000722322	   5.49242	    18.058	
   5.42964	0.000710054	   5.41786	0.000709335	    5.4282	0.000747371	   5.42523	0.000722253	   5.42523	   18.0563	
   5.36207	0.000709876	   5.35035	0.000709248	   5.36077	0.00074734	   5.35773	0.000722154	   5.35773	   18.0539	
   5.29429	0.000709659	   5.28264	0.000709125	    5.2931	0.000747195	   5.29001	0.000721993	   5.29001	   18.0498	
   5.22645	0.000709546	   5.21474	0.000708974	   5.22529	0.000747018	   5.22216	0.000721846	   5.22216	   18.0461	
   5.15834	0.000709381	   5.14655	0.000708833	   5.15714	0.000746867	   5.15401	0.000721694	   5.15401	   18.0423	
   5.09013	0.000709089	   5.07822	0.000708621	   5.08886	0.000746624	   5.08574	0.000721445	   5.08574	   18.0361	
   5.02175	0.000708934	   5.00971	0.000708364	   5.02036	0.000746324	   5.01728	0.000721207	   5.01728	   18.0302	
   4.95311	0.000708835	   4.94097	0.000708142	   4.95158	0.000746039	   4.94855	0.000721005	   4.94855	   18.0251	
   4.88441	0.000708604	   4.87215	0.000707879	   4.88269	0.000745672	   4.87975	0.000720718	   4.87975	    18.018	
   4.81534	0.00070836	     4.803	0.000707574	   4.81343	0.00074524	   4.81059	0.000720391	   4.81059	   18.0098	
   4.74613	0.000708219	   4.73373	0.000707288	   4.74403	0.000744823	    4.7413	0.00072011	    4.7413	   18.0028	
   4.67678	0.000707967	    4.6642	0.000707001	   4.67434	0.000744337	   4.67177	0.000719768	   4.67177	   17.9942	
    4.6072	0.00070763	   4.59442	0.000706675	   4.60437	0.000743789	   4.60199	0.000719365	   4.60199	   17.9841	
   4.53737	0.000707401	   4.52455	0.000706352	   4.53434	0.000743259	   4.53209	0.000719004	   4.53209	   17.9751	
   4.46708	0.000707102	   4.45433	0.000706018	   4.46404	0.000742656	   4.46182	0.000718592	   4.46182	   17.9648	
    4.3967	0.000706657	     4.384	0.000705626	    4.3936	0.000741988	   4.39143	0.00071809	   4.39143	   17.9523	
   4.32614	0.000706295	   4.31355	0.000705306	   4.32312	0.000741351	   4.32094	0.000717651	   4.32094	   17.9413	
   4.25566	0.000705884	   4.24289	0.000704984	   4.25234	0.000740635	    4.2503	0.000717168	    4.2503	   17.9292	
   4.18508	0.000705311	   4.17223	0.000704461	   4.18154	0.000739837	   4.17962	0.000716536	   4.17962	   17.9134	
   4.11401	0.000704802	   4.10131	0.00070398	   4.11051	0.000739069	   4.10861	0.00071595	   4.10861	   17.8988	
    4.0432	0.000704266	   4.03021	0.000703544	   4.03932	0.000738261	   4.03758	0.000715357	   4.03758	   17.8839	
   3.97219	0.00070357	   3.95896	0.00070294	   3.96806	0.000737388	    3.9664	0.000714633	    3.9664	   17.8658	
   3.90077	0.000702905	   3.88749	0.00070228	   3.89655	0.000736502	   3.89493	0.000713896	   3.89493	   17.8474	
   3.82909	0.000702245	    3.8158	0.00070168	   3.82496	0.00073552	   3.82328	0.000713148	   3.82328	   17.8287	
   3.75735	0.000701445	   3.74392	0.000700952	   3.75319	0.000734517	   3.75149	0.000712305	   3.75149	   17.8076	
   3.68551	0.000700658	   3.67218	0.000700138	   3.68125	0.000733547	   3.67965	0.000711448	   3.67965	   17.7862	
   3.61355	0.000699898	   3.60034	0.000699379	   3.60931	0.000732438	   3.60773	0.000710571	   3.60773	   17.7643	
   3.54134	0.000699007	   3.52822	0.000698531	   3.53711	0.000731292	   3.53556	0.00070961	   3.53556	   17.7403	
   3.46912	0.000698158	   3.45605	0.000697593	   3.46489	0.000730217	   3.46335	0.000708656	   3.46335	   17.7164	
   3.39674	0.000697372	   3.38381	0.000696679	   3.39245	0.000729024	     3.391	0.000707692	     3.391	   17.6923	
   3.32421	0.000696423	   3.31137	0.000695694	   3.31985	0.00072778	   3.31848	0.000706632	   3.31848	   17.6658	
   3.25163	0.000695471	    3.2387	0.000694643	   3.24716	0.000726606	   3.24583	0.000705573	   3.24583	   17.6393	
   3.17882	0.000694614	     3.166	0.000693586	   3.17429	0.000725359	   3.17304	0.00070452	   3.17304	    17.613	
     3.106	0.000693626	    3.0932	0.000692495	    3.1014	0.000724054	    3.1002	0.000703392	    3.1002	   17.5848	
   3.03302	0.000692595	   3.02021	0.000691325	   3.02835	0.000722797	   3.02719	0.000702239	   3.02719	    17.556	
   2.95988	0.000691637	   2.94709	0.000690102	   2.95516	0.000721463	   2.95405	0.000701068	   2.95405	   17.5267	
   2.88678	0.000690586	   2.87392	0.000688904	   2.88198	0.000720095	   2.88089	0.000699861	   2.88089	   17.4965	
   2.81338	0.000689464	   2.80061	0.000687715	   2.80858	0.000718773	   2.80752	0.000698651	   2.80752	   17.4663	
   2.73999	0.000688388	   2.72736	0.000686441	   2.73517	0.00071736	   2.73418	0.000697396	   2.73418	   17.4349	
    2.6664	0.000687229	   2.65469	0.000685051	   2.66161	0.000715876	    2.6609	0.000696052	    2.6609	   17.4013	
   2.59269	0.000685983	   2.58162	0.000683729	   2.58792	0.000714444	   2.58741	0.000694719	   2.58741	    17.368	
   2.51896	0.000684763	   2.50763	0.000682393	    2.5142	0.000712947	    2.5136	0.000693368	    2.5136	   17.3342	
   2.44498	0.000683481	   2.43364	0.000680898	   2.44027	0.000711353	   2.43963	0.00069191	   2.43963	   17.2978	
   2.37102	0.000682106	   2.35985	0.000679419	   2.36636	0.000709795	   2.36574	0.00069044	   2.36574	    17.261	
   2.29684	0.000680753	   2.28595	0.000677904	   2.29242	0.000708203	   2.29174	0.000688953	   2.29174	   17.2238	
   2.22256	0.000679354	   2.21179	0.000676184	   2.21835	0.000706503	   2.21757	0.000687347	   2.21757	   17.1837	
    2.1483	0.000677862	   2.13748	0.000674515	   2.14427	0.000704813	   2.14335	0.00068573	   2.14335	   17.1433	
    2.0738	0.000676387	   2.06306	0.000672864	   2.06998	0.000703121	   2.06895	0.000684124	   2.06895	   17.1031	
   1.99931	0.000674891	   1.98866	0.000670971	   1.99567	0.00070136	   1.99455	0.000682407	   1.99455	   17.0602	
   1.92458	0.000673303	    1.9142	0.000669065	   1.92116	0.000699581	   1.91998	0.00068065	   1.91998	   17.0162	
   1.84978	0.000671759	   1.83967	0.000667247	   1.84655	0.000697804	   1.84533	0.000678937	   1.84533	   16.9734	
   1.77487	0.000670201	   1.76518	0.00066525	   1.77201	0.000695988	   1.77069	0.000677146	   1.77069	   16.9287	
   1.69988	0.000668525	   1.69058	0.000663203	   1.69725	0.000694116	    1.6959	0.000675281	    1.6959	    16.882	
   1.62493	0.000666892	   1.61606	0.000661256	    1.6225	0.000692283	   1.62116	0.000673477	   1.62116	   16.8369	
      1.55	0.000665293	   1.54138	0.000659178	   1.54764	0.000690432	   1.54634	0.000671634	   1.54634	   16.7909	
   1.47503	0.000663587	   1.46663	0.000657022	   1.47271	0.000688497	   1.47146	0.000669702	   1.47146	   16.7425	
   1.40009	0.000661893	   1.39186	0.000654976	   1.39784	0.000686592	   1.39659	0.00066782	   1.39659	   16.6955	
   1.32496	0.000660177	   1.31689	0.000652864	   1.32277	0.000684714	   1.32154	0.000665919	   1.32154	    16.648	
   1.24994	0.000658355	   1.24203	0.000650624	   1.24799	0.000682746	   1.24665	0.000663908	   1.24665	   16.5977	
   1.17488	0.000656591	   1.16691	0.000648462	   1.17358	0.00068069	   1.17179	0.000661914	   1.17179	   16.5479	
   1.09978	0.000654832	   1.09177	0.000646279	   1.09863	0.00067867	   1.09673	0.000659927	   1.09673	   16.4982	
   1.02455	0.000652922	   1.01662	0.000643989	   1.02312	0.000676659	   1.02143	0.000657857	   1.02143	   16.4464	
  0.949177	0.000651044	  0.941425	0.000641749	  0.947612	0.000674491	  0.946071	0.000655761	  0.946071	    16.394	
  0.873873	0.000649187	  0.866346	0.000639504	  0.872171	0.000672295	  0.870797	0.000653662	  0.870797	   16.3415	
  0.798448	0.000647197	  0.791183	0.000637139	  0.796706	0.000670208	  0.795446	0.000651515	  0.795446	   16.2879	
  0.723026	0.000645235	  0.716005	0.000634783	  0.721175	0.000667991	  0.720069	0.000649336	  0.720069	   16.2334	
  0.647618	 0.0006433	  0.640875	0.000632449	  0.645804	0.000665658	  0.644766	0.000647136	  0.644766	   16.1784	
  0.572131	0.00064125	  0.565646	0.000630049	  0.570386	0.000663471	  0.569388	0.000644923	  0.569388	   16.1231	
  0.496679	0.000639184	  0.490486	0.000627611	  0.495089	0.000661254	  0.494085	0.000642683	  0.494085	   16.0671	
  0.421176	0.000637167	  0.415253	0.000625223	   0.41976	 0.0006589	   0.41873	0.00064043	   0.41873	   16.0108	
  0.345688	0.000635059	  0.340011	0.000622828	  0.344412	0.000656666	   0.34337	0.000638184	   0.34337	   15.9546	
  0.270313	0.000632903	  0.264809	0.000620355	  0.269038	0.000654469	  0.268053	0.000635909	  0.268053	   15.8977	
  0.194811	 0.0006308	  0.189515	0.000617918	  0.193518	0.000652135	  0.192615	0.000633618	  0.192615	   15.8404	
  0.119359	0.000628628	  0.114303	0.000615483	  0.118131	0.00064988	  0.117264	0.00063133	  0.117264	   15.7833	
  0.043823	0.000626401	 0.0390419	0.000612972	 0.0425824	0.000647706	 0.0418158	0.000629027	 0.0418158	   15.7257	
-0.0316874	0.000624231	-0.0362204	0.00061048	 -0.032958	0.000645394	-0.0336219	0.000626702	-0.0336219	   15.6675	
 -0.107073	0.000621985	 -0.111437	  0.000608	 -0.108501	0.000643112	 -0.109004	0.000624366	 -0.109004	   15.6091	
 -0.182524	0.000619668	  -0.18674	0.000605447	 -0.184165	 0.0006409	 -0.184476	0.000622005	 -0.184476	   15.5501	
 -0.257922	0.000617437	 -0.261955	0.000602891	 -0.259675	0.000638551	 -0.259851	0.000619626	 -0.259851	   15.4907	
 -0.333456	0.000615157	 -0.337216	0.000600356	 -0.335328	0.000636172	 -0.335333	0.000617228	 -0.335333	   15.4307	
 -0.408959	0.000612764	 -0.412477	0.000597765	 -0.410956	0.000633875	 -0.410797	0.000614801	 -0.410797	     15.37	
  -0.48442	0.000610436	 -0.487623	0.00059515	 -0.486395	0.000631441	 -0.486146	0.000612342	 -0.486146	   15.3086	
 -0.559986	0.000608107	 -0.562853	0.00059255	 -0.561957	0.00062894	 -0.561599	0.000609866	 -0.561599	   15.2466	
 -0.635431	0.000605639	    -0.638	0.000589899	 -0.637365	0.00062651	 -0.636932	0.000607349	 -0.636932	   15.1837	
 -0.710854	0.000603185	 -0.713263	0.00058723	 -0.712822	0.000623957	 -0.712313	0.000604791	 -0.712313	   15.1198	
 -0.786246	0.000600771	 -0.788521	0.000584579	 -0.788261	0.000621333	 -0.787676	0.000602228	 -0.787676	   15.0557	
 -0.861497	0.000598219	 -0.863608	0.00058186	 -0.863518	0.00061878	 -0.862875	0.000599619	 -0.862875	   14.9905	
 -0.936811	0.000595652	 -0.938786	0.000579132	 -0.938855	0.000616093	 -0.938151	0.000596959	 -0.938151	    14.924	
  -1.01197	0.000593121	  -1.01383	0.000576401	  -1.01405	0.000613269	  -1.01328	0.000594264	  -1.01328	   14.8566	
  -1.08713	0.000590457	  -1.08905	0.000573622	  -1.08915	0.000610542	  -1.08844	0.00059154	  -1.08844	   14.7885	
  -1.16222	0.000587762	  -1.16422	0.000570829	  -1.16426	0.000607743	  -1.16357	0.000588778	  -1.16357	   14.7195	
  -1.23719	0.000585097	  -1.23937	0.000568049	  -1.23927	0.000604784	  -1.23861	0.000585977	  -1.23861	   14.6494	
   -1.3122	0.000582333	  -1.31466	0.000565204	  -1.31433	0.000601918	  -1.31373	0.000583152	  -1.31373	   14.5788	
  -1.38707	0.000579522	  -1.39025	0.000562382	  -1.38926	0.000599019	  -1.38886	0.000580308	  -1.38886	   14.5077	
  -1.46192	0.000576747	  -1.46555	0.000559565	  -1.46413	0.000595966	  -1.46387	0.000577426	  -1.46387	   14.4357	
  -1.53679	0.000573891	  -1.54069	0.000556694	  -1.53903	0.00059298	  -1.53883	0.000574522	  -1.53883	    14.363	
  -1.61151	0.000570971	  -1.61573	0.00055384	  -1.61375	0.000589997	  -1.61366	0.000571603	  -1.61366	   14.2901	
  -1.68624	0.000568078	  -1.69034	0.000550977	  -1.68853	0.000586866	  -1.68837	0.000568641	  -1.68837	    14.216	
  -1.76086	0.000565163	  -1.76538	0.000548086	  -1.76323	0.000583784	  -1.76316	0.000565678	  -1.76316	   14.1419	
  -1.83541	0.000562201	  -1.84013	0.000545228	  -1.83774	0.000580737	  -1.83776	0.000562722	  -1.83776	    14.068	
  -1.90995	0.000559206	  -1.91467	0.000542342	  -1.91232	0.000577572	  -1.91231	0.000559706	  -1.91231	   13.9927	
  -1.98427	0.000556177	  -1.98925	0.00053944	  -1.98669	0.000574419	  -1.98674	0.000556678	  -1.98674	    13.917	
  -2.05864	0.000553128	  -2.06369	0.000536557	    -2.061	0.000571315	  -2.06111	0.000553667	  -2.06111	   13.8417	
  -2.13294	0.000550044	   -2.1381	0.000533666	  -2.13527	0.000568117	  -2.13544	0.000550609	  -2.13544	   13.7652	
  -2.20715	0.000546919	  -2.21242	0.000530704	   -2.2094	0.000564905	  -2.20965	0.00054751	  -2.20965	   13.6877	
  -2.28139	0.00054377	  -2.28676	0.000527747	  -2.28364	0.000561745	  -2.28393	0.000544421	  -2.28393	   13.6105	
  -2.35545	0.000540592	  -2.36092	0.000524835	  -2.35777	0.000558497	  -2.35805	0.000541308	  -2.35805	   13.5327	
  -2.42937	0.000537387	  -2.43481	0.000521851	  -2.43177	0.000555213	  -2.43198	0.00053815	  -2.43198	   13.4538	
  -2.50328	0.000534164	  -2.50864	0.000518824	   -2.5057	0.00055198	  -2.50587	0.000534989	  -2.50587	   13.3747	
  -2.57696	0.000530893	  -2.58237	0.000515805	  -2.57939	0.000548667	  -2.57957	0.000531788	  -2.57957	   13.2947	
  -2.65064	0.000527633	  -2.65597	0.000512745	  -2.65301	0.000545312	  -2.65321	0.000528563	  -2.65321	   13.2141	
  -2.72415	0.000524352	  -2.72942	0.000509637	   -2.7265	0.000541982	  -2.72669	0.000525324	  -2.72669	   13.1331	
  -2.79757	0.000521014	  -2.80272	0.000506503	  -2.79995	0.000538527	  -2.80008	0.000522014	  -2.80008	   13.0504	
  -2.87098	0.000517689	  -2.87604	0.00050336	   -2.8737	0.000535111	  -2.87358	0.00051872	  -2.87358	    12.968	
   -2.9442	0.000514344	  -2.94917	0.000500177	  -2.94713	0.000531682	  -2.94683	0.000515401	  -2.94683	    12.885	
  -3.01733	0.000510939	  -3.02223	0.000496934	  -3.02031	0.000528082	  -3.01996	0.000511985	  -3.01996	   12.7996	
  -3.09043	0.000507562	  -3.09526	0.000493716	  -3.09347	0.000524568	  -3.09305	0.000508615	  -3.09305	   12.7154	
  -3.16329	0.000504167	  -3.16801	0.000490455	  -3.16609	0.000521008	   -3.1658	0.00050521	   -3.1658	   12.6303	
  -3.23606	0.00050072	  -3.24064	0.000487151	  -3.23861	0.000517276	  -3.23844	0.000501716	  -3.23844	   12.5429	
  -3.30873	0.000497291	  -3.31317	0.000483869	  -3.31136	0.000513603	  -3.31108	0.000498254	  -3.31108	   12.4564	
  -3.38108	0.000493846	   -3.3854	0.000480565	   -3.3838	0.000509909	  -3.38343	0.000494773	  -3.38343	   12.3693	
  -3.45345	0.000490376	  -3.45756	0.000477254	   -3.4561	0.000506073	  -3.45571	0.000491234	  -3.45571	   12.2809	
  -3.52565	0.000486921	  -3.52956	0.000473941	  -3.52834	0.000502262	  -3.52785	0.000487708	  -3.52785	   12.1927	
  -3.59772	0.000483401	  -3.60132	0.000470578	  -3.60053	0.000498463	  -3.59985	0.000484147	  -3.59985	   12.1037	
  -3.66973	0.000479846	  -3.67299	0.000467232	  -3.67238	0.00049455	   -3.6717	0.000480543	   -3.6717	   12.0136	
  -3.74149	0.000476329	  -3.74445	0.000463935	   -3.7441	0.000490637	  -3.74335	0.000476967	  -3.74335	   11.9242	
  -3.81318	0.000472764	  -3.81571	0.000460573	  -3.81587	0.000486752	  -3.81492	0.000473363	  -3.81492	   11.8341	
  -3.88479	0.000469162	  -3.88695	0.000457188	  -3.88751	0.000482788	  -3.88642	0.000469713	  -3.88642	   11.7428	
  -3.95618	0.000465589	  -3.95797	0.000453847	   -3.9589	0.000478775	  -3.95768	0.00046607	  -3.95768	   11.6518	
  -4.02759	0.000461988	  -4.02893	0.000450463	  -4.03026	0.000474777	  -4.02892	0.000462409	  -4.02892	   11.5602	
  -4.09885	0.000458366	  -4.09981	0.000447031	  -4.10149	0.00047078	  -4.10005	0.000458726	  -4.10005	   11.4681	
  -4.16983	0.000454754	  -4.17046	0.000443634	  -4.17241	0.000466724	   -4.1709	0.000455037	   -4.1709	   11.3759	
  -4.24076	0.000451131	  -4.24098	0.000440207	  -4.24329	0.000462656	  -4.24168	0.000451332	  -4.24168	   11.2833	
  -4.31149	0.000447498	  -4.31137	0.000436724	  -4.31399	0.000458587	  -4.31229	0.000447603	  -4.31229	   11.1901	
  -4.38201	0.000443874	  -4.38149	0.000433262	   -4.3845	0.000454468	  -4.38267	0.000443868	  -4.38267	   11.0967	
  -4.45248	0.000440271	  -4.45156	0.000429779	  -4.45492	0.00045031	  -4.45298	0.00044012	  -4.45298	    11.003	
  -4.52271	0.000436655	  -4.52145	0.000426237	  -4.52511	0.000446156	  -4.52309	0.000436349	  -4.52309	   10.9087	
  -4.59247	0.000432968	  -4.59108	0.000422696	  -4.59502	0.000441968	  -4.59286	0.000432544	  -4.59286	   10.8136	
  -4.66206	0.000429295	  -4.66073	0.000419136	   -4.6648	0.000437727	  -4.66253	0.000428719	  -4.66253	    10.718	
  -4.73202	0.00042569	  -4.73017	0.000415515	  -4.73434	0.000433456	  -4.73218	0.000424887	  -4.73218	   10.6222	
  -4.80171	0.000421979	   -4.7994	0.000411885	  -4.80371	0.000429165	  -4.80161	0.00042101	  -4.80161	   10.5252	
  -4.87099	0.000418202	  -4.86852	0.00040824	  -4.87299	0.000424861	  -4.87083	0.000417101	  -4.87083	   10.4275	
  -4.94003	0.000414492	  -4.93738	0.000404529	  -4.94199	0.000420511	   -4.9398	0.000413177	   -4.9398	   10.3294	
  -5.00911	0.000410699	  -5.00603	0.000400796	   -5.0107	0.000416101	  -5.00861	0.000409199	  -5.00861	     10.23	
  -5.07809	0.000406814	  -5.07465	0.000397061	  -5.07936	0.000411745	  -5.07737	0.000405207	  -5.07737	   10.1302	
  -5.14674	0.000402978	  -5.14299	0.000393269	  -5.14773	0.000407344	  -5.14582	0.000401197	  -5.14582	   10.0299	
  -5.21518	0.000399117	  -5.21107	0.000389437	  -5.21588	0.000402849	  -5.21404	0.000397134	  -5.21404	   9.92836	
   -5.2835	0.000395146	   -5.2791	0.000385605	  -5.28396	0.000398397	  -5.28218	0.000393049	  -5.28218	   9.82623	
  -5.35148	0.000391179	  -5.34685	0.000381726	  -5.35173	0.000393956	  -5.35002	0.000388954	  -5.35002	   9.72384	
  -5.41918	0.000387239	  -5.41427	0.000377798	  -5.41922	0.000389445	  -5.41756	0.000384827	  -5.41756	   9.62068	
  -5.48678	0.000383251	  -5.48155	0.000373876	  -5.48659	0.000384964	  -5.48497	0.000380697	  -5.48497	   9.51742	
  -5.55404	0.000379236	  -5.54855	0.000369913	  -5.55376	0.000380505	  -5.55212	0.000376551	  -5.55212	   9.41378	
  -5.62108	0.000375246	  -5.61534	0.00036589	  -5.62064	0.00037599	  -5.61902	0.000372376	  -5.61902	   9.30939	
  -5.68803	0.000371197	  -5.68209	0.000361859	  -5.68746	0.000371494	  -5.68586	0.000368183	  -5.68586	   9.20458	
  -5.75464	0.000367145	  -5.74857	0.000357796	  -5.75398	0.000367031	   -5.7524	0.000363991	   -5.7524	   9.09977	
  -5.82093	0.000363129	  -5.81474	0.000353684	  -5.82027	0.00036253	  -5.81865	0.000359781	  -5.81865	   8.99452	
  -5.88709	0.000359028	  -5.88087	0.000349546	  -5.88646	0.000358042	  -5.88481	0.000355539	  -5.88481	   8.88847	
  -5.95301	0.000354939	  -5.94675	0.000345405	  -5.95236	0.000353596	   -5.9507	0.000351313	   -5.9507	   8.78284	
  -6.01856	0.000350878	  -6.01225	0.00034123	  -6.01798	0.000349124	  -6.01626	0.000347077	  -6.01626	   8.67693	
    -6.084	0.000346716	   -6.0777	0.000336995	  -6.08341	0.000344658	   -6.0817	0.00034279	   -6.0817	   8.56974	
  -6.14917	0.000342568	  -6.14291	0.000332761	  -6.14859	0.000340241	  -6.14689	0.000338523	  -6.14689	   8.46308	
  -6.21396	0.000338432	  -6.20778	0.000328569	  -6.21341	0.000335794	  -6.21172	0.000334265	  -6.21172	   8.35662	
  -6.27862	0.000334214	  -6.27247	0.000324308	  -6.27808	0.000331367	  -6.27639	0.000329963	  -6.27639	   8.24908	
  -6.34305	0.000330037	  -6.33695	0.000319933	  -6.34243	0.000326958	  -6.34081	0.000325643	  -6.34081	   8.14107	
  -6.40713	0.000325868	  -6.40108	0.000315622	  -6.40641	0.000322455	  -6.40488	0.000321315	  -6.40488	   8.03288	
  -6.47088	0.000321584	  -6.46502	0.000311336	   -6.4704	0.000318038	  -6.46877	0.000316986	  -6.46877	   7.92465	
  -6.53445	0.000317317	   -6.5288	0.000306917	  -6.53433	0.000313721	  -6.53252	0.000312652	  -6.53252	   7.81629	
  -6.59764	0.000313104	  -6.59222	0.000302523	  -6.59786	0.000309241	   -6.5959	0.000308289	   -6.5959	   7.70723	
   -6.6606	0.000308809	  -6.65539	0.000298178	  -6.66101	0.000304785	    -6.659	0.000303924	    -6.659	    7.5981	
  -6.72345	0.000304499	  -6.71841	0.00029374	  -6.72405	0.00030048	  -6.72197	0.000299573	  -6.72197	   7.48933	
  -6.78597	0.000300249	  -6.78112	0.000289316	  -6.78677	0.00029603	  -6.78462	0.000295198	  -6.78462	   7.37996	
  -6.84802	0.000295953	  -6.84311	0.000284881	  -6.84903	0.000291538	  -6.84672	0.000290791	  -6.84672	   7.26977	
  -6.90988	0.000291646	  -6.90485	0.000280348	  -6.91109	0.000287196	  -6.90861	0.000286397	  -6.90861	   7.15992	
   -6.9715	0.000287404	  -6.96685	0.000275961	  -6.97291	0.000282733	  -6.97042	0.000282033	  -6.97042	   7.05082	
  -7.03274	0.000283116	  -7.02847	0.000271609	   -7.0343	0.000278194	  -7.03184	0.00027764	  -7.03184	   6.94099	
   -7.0937	0.000278819	  -7.08953	0.000267079	  -7.09537	0.000273782	  -7.09287	0.000273227	  -7.09287	   6.83067	
  -7.15451	0.000274581	   -7.1504	0.000262659	   -7.1563	 0.0002693	  -7.15374	0.000268847	  -7.15374	   6.72117	
  -7.21497	0.000270311	  -7.21095	0.000258394	  -7.21687	0.000264719	  -7.21426	0.000264475	  -7.21426	   6.61187	
  -7.27509	0.000266042	  -7.27108	0.000253968	  -7.27707	0.000260251	  -7.27441	0.000260087	  -7.27441	   6.50217	
  -7.33504	0.000261805	  -7.33094	0.000249583	  -7.33711	0.000255694	  -7.33436	0.000255694	  -7.33436	   6.39236	
  -7.39474	0.000257561	  -7.39058	0.000245352	  -7.39684	0.000251084	  -7.39405	0.000251333	  -7.39405	   6.28332	
  -7.45409	0.00025331	  -7.44986	0.000240998	  -7.45614	0.000246615	  -7.45336	0.000246974	  -7.45336	   6.17435	
  -7.51317	0.00024909	   -7.5088	0.000236647	  -7.51504	0.000241984	  -7.51233	0.000242574	  -7.51233	   6.06434	
  -7.57204	0.000244858	  -7.56759	0.000232442	  -7.57375	0.000237239	  -7.57113	0.00023818	  -7.57113	   5.95449	
  -7.63057	0.000240613	  -7.62607	0.000228154	  -7.63216	0.000232711	   -7.6296	0.000233826	   -7.6296	   5.84565	
  -7.68874	0.000236384	  -7.68419	0.000223815	  -7.69013	0.000228084	  -7.68769	0.000229428	  -7.68769	   5.73569	
  -7.74668	0.000232148	  -7.74211	0.000219592	   -7.7478	0.000223294	  -7.74553	0.000225011	  -7.74553	   5.62528	
   -7.8043	0.000227882	   -7.7998	0.00021531	  -7.80529	0.000218688	  -7.80313	0.000220627	  -7.80313	   5.51567	
  -7.86152	0.000223615	  -7.85718	0.000210871	  -7.86241	0.000214085	  -7.86037	0.00021619	  -7.86037	   5.40475	
  -7.91854	0.000219341	  -7.91407	0.00020659	  -7.91906	0.000209311	  -7.91722	0.000211747	  -7.91722	   5.29369	
  -7.97547	0.000215082	  -7.97072	0.00020234	  -7.97541	0.000204708	  -7.97386	0.000207376	  -7.97386	   5.18441	
  -8.03212	0.000210781	  -8.02715	0.000197865	   -8.0315	0.000200136	  -8.03026	0.000202927	  -8.03026	   5.07318	
  -8.08831	0.00020647	  -8.08318	0.000193465	  -8.08721	0.000195376	  -8.08623	0.000198437	  -8.08623	   4.96092	
   -8.1442	0.000202209	  -8.13875	0.000189176	  -8.14257	0.000190778	  -8.14184	0.000194054	  -8.14184	   4.85135	
  -8.19985	0.000197878	  -8.19409	0.000184714	  -8.19765	0.00018631	   -8.1972	0.000189634	   -8.1972	   4.74085	
  -8.25504	0.000193556	   -8.2492	0.000180258	  -8.25252	0.000181649	  -8.25225	0.000185154	  -8.25225	   4.62886	
  -8.30993	0.000189291	  -8.30389	0.000175911	  -8.30699	0.000177066	  -8.30694	0.000180756	  -8.30694	    4.5189	
  -8.36458	0.000184971	  -8.35813	0.000171431	  -8.36106	0.00017265	  -8.36126	0.000176351	  -8.36126	   4.40876	
  -8.41893	0.000180638	  -8.41206	0.000166917	  -8.41498	0.000168072	  -8.41533	0.000171875	  -8.41533	   4.29689	
  -8.47299	0.000176363	  -8.46576	0.000162515	  -8.46867	0.000163502	  -8.46914	0.00016746	  -8.46914	    4.1865	
  -8.52662	0.000172046	  -8.51908	0.000158028	  -8.52196	0.000159109	  -8.52255	0.000163061	  -8.52255	   4.07652	
  -8.57974	0.000167733	  -8.57199	0.000153491	   -8.5748	0.000154572	  -8.57551	0.000158599	  -8.57551	   3.96496	
  -8.63264	0.000163451	  -8.62459	0.000149061	  -8.62738	0.000149997	   -8.6282	0.00015417	   -8.6282	   3.85424	
  -8.68526	0.000159133	  -8.67694	0.000144581	  -8.67975	0.000145592	  -8.68065	0.000149769	  -8.68065	   3.74422	
  -8.73746	0.000154815	  -8.72892	0.00014004	  -8.73175	0.000141091	  -8.73271	0.000145315	  -8.73271	   3.63288	
  -8.78923	0.000150506	  -8.78045	0.000135596	  -8.78323	0.000136512	   -8.7843	0.000140871	   -8.7843	   3.52178	
  -8.84084	0.000146191	  -8.83152	0.000131127	   -8.8344	0.000132068	  -8.83558	0.000136462	  -8.83558	   3.41155	
  -8.89215	0.000141843	  -8.88229	0.000126588	  -8.88536	0.00012758	   -8.8866	0.000132004	   -8.8866	    3.3001	
  -8.94307	0.000137522	  -8.93278	0.000122124	  -8.93601	0.000122993	  -8.93728	0.000127547	  -8.93728	   3.18866	
  -8.99349	0.000133235	  -8.98281	0.000117668	  -8.98618	0.000118508	  -8.98749	0.000123137	  -8.98749	   3.07842	
  -9.04349	0.00012888	  -9.03241	0.000113161	  -9.03595	0.000114008	  -9.03728	0.000118683	  -9.03728	   2.96707	
  -9.09328	0.000124571	  -9.08183	0.000108674	  -9.08547	0.000109386	  -9.08686	0.000114211	  -9.08686	   2.85526	
  -9.14276	0.000120309	  -9.13098	0.000104204	  -9.13469	0.000104841	  -9.13614	0.000109785	  -9.13614	   2.74462	
  -9.19177	0.000115976	  -9.17976	9.97391e-05	  -9.18352	0.00010031	  -9.18502	0.000105342	  -9.18502	   2.63354	
  -9.24029	0.000111695	  -9.22813	9.52365e-05	  -9.23193	9.5671e-05	  -9.23345	0.000100867	  -9.23345	   2.52169	
  -9.28859	0.000107463	  -9.27605	9.07709e-05	  -9.28028	9.11159e-05	  -9.28164	 9.645e-05	  -9.28164	   2.41125	
  -9.33662	0.000103167	  -9.32357	 8.633e-05	  -9.32824	8.65629e-05	  -9.32948	9.20198e-05	  -9.32948	    2.3005	
  -9.38428	9.88924e-05	  -9.37079	8.18308e-05	  -9.37565	8.1912e-05	  -9.37691	8.75451e-05	  -9.37691	   2.18863	
  -9.43145	9.46674e-05	  -9.41761	7.74022e-05	  -9.42268	7.73462e-05	  -9.42391	8.31386e-05	  -9.42391	   2.07846	
  -9.47816	9.03569e-05	  -9.46391	7.29489e-05	  -9.46936	7.2769e-05	  -9.47048	7.86916e-05	  -9.47048	   1.96729	
  -9.52467	8.60477e-05	  -9.51007	6.84503e-05	  -9.51551	6.81362e-05	  -9.51675	7.42114e-05	  -9.51675	   1.85528	
  -9.57095	8.18036e-05	  -9.55609	6.40585e-05	  -9.56135	6.35487e-05	   -9.5628	6.98036e-05	   -9.5628	   1.74509	
  -9.61685	7.75261e-05	  -9.60172	5.96483e-05	  -9.60679	5.89804e-05	  -9.60846	6.53849e-05	  -9.60846	   1.63462	
  -9.66224	7.32059e-05	  -9.64694	5.51596e-05	  -9.65187	5.43642e-05	  -9.65368	6.09099e-05	  -9.65368	   1.52275	
  -9.70726	6.89016e-05	  -9.69177	5.07798e-05	  -9.69651	4.97754e-05	  -9.69851	5.64856e-05	  -9.69851	   1.41214	
  -9.75191	6.45889e-05	  -9.73626	4.63974e-05	  -9.74087	4.52247e-05	  -9.74301	5.20703e-05	  -9.74301	   1.30176	
  -9.79628	6.02273e-05	  -9.78026	4.19647e-05	  -9.78483	4.06284e-05	  -9.78713	4.76068e-05	  -9.78713	   1.19017	
   -9.8403	5.59059e-05	  -9.82391	3.76078e-05	  -9.82849	3.60126e-05	   -9.8309	4.31754e-05	   -9.8309	   1.07939	
  -9.88384	5.15851e-05	  -9.86734	3.32315e-05	  -9.87176	3.1479e-05	  -9.87431	3.87652e-05	  -9.87431	   0.96913	
  -9.92683	4.71877e-05	  -9.91041	2.88262e-05	  -9.91452	2.69439e-05	  -9.91726	3.43193e-05	  -9.91726	  0.857982	
   -9.9694	4.28181e-05	  -9.95297	2.45045e-05	  -9.95673	2.2366e-05	   -9.9597	2.98962e-05	   -9.9597	  0.747405	
  -10.0116	3.84869e-05	  -9.99514	2.0129e-05	  -9.99867	1.77949e-05	  -10.0018	2.54702e-05	  -10.0018	  0.636756	
  -10.0535	3.40791e-05	   -10.037	1.56994e-05	  -10.0404	1.32752e-05	  -10.0437	2.10179e-05	  -10.0437	  0.525448	
   -10.095	2.96322e-05	  -10.0786	1.13472e-05	  -10.0819	8.72947e-06	  -10.0852	1.65696e-05	  -10.0852	   0.41424	
  -10.1361	2.52553e-05	  -10.1197	6.95225e-06	  -10.1229	4.18014e-06	  -10.1262	1.21292e-05	  -10.1262	  0.303231	
  -10.1765	2.08581e-05	  -10.1603	2.48523e-06	  -10.1634	-2.82717e-07	  -10.1668	7.68688e-06	  -10.1668	  0.192172	
  -10.2167	1.63845e-05	  -10.2005	-1.92207e-06	  -10.2035	-4.78821e-06	  -10.2069	3.22475e-06	  -10.2069	 0.0806188	
  -10.2567	1.19681e-05	  -10.2402	-6.342e-06	   -10.243	-9.30465e-06	  -10.2467	-1.22619e-06	  -10.2467	-0.0306547	
  -10.2964	7.57181e-06	  -10.2797	-1.08269e-05	  -10.2824	-1.37316e-05	  -10.2862	-5.66222e-06	  -10.2862	 -0.141555	
  -10.3357	3.06867e-06	  -10.3188	-1.52837e-05	  -10.3214	-1.82162e-05	  -10.3253	-1.01438e-05	  -10.3253	 -0.253594	
  -10.3745	-1.41702e-06	  -10.3576	-1.97352e-05	    -10.36	-2.27328e-05	   -10.364	-1.46283e-05	   -10.364	 -0.365709	
  -10.4128	-5.82961e-06	  -10.3958	-2.42401e-05	  -10.3981	-2.71585e-05	  -10.4023	-1.90761e-05	  -10.4023	 -0.476902	
  -10.4507	-1.03284e-05	  -10.4335	-2.87332e-05	  -10.4357	-3.16443e-05	    -10.44	-2.35686e-05	    -10.44	 -0.589215	
  -10.4882	-1.48551e-05	  -10.4706	-3.32186e-05	  -10.4729	-3.62313e-05	  -10.4772	-2.81017e-05	  -10.4772	 -0.702542	
  -10.5254	-1.93105e-05	  -10.5074	-3.77266e-05	    -10.51	-4.07303e-05	  -10.5143	-3.25891e-05	  -10.5143	 -0.814728	
  -10.5623	-2.38359e-05	  -10.5439	-4.22539e-05	  -10.5467	-4.52366e-05	   -10.551	-3.71088e-05	   -10.551	  -0.92772	
  -10.5988	-2.83993e-05	  -10.5801	-4.6769e-05	  -10.5832	-4.98782e-05	  -10.5873	-4.16822e-05	  -10.5873	  -1.04205	
  -10.6347	-3.28976e-05	  -10.6158	-5.13081e-05	  -10.6192	-5.44343e-05	  -10.6232	-4.62133e-05	  -10.6232	  -1.15533	
  -10.6701	-3.74403e-05	  -10.6511	-5.58763e-05	  -10.6546	-5.89432e-05	  -10.6586	-5.07533e-05	  -10.6586	  -1.26883	
  -10.7048	-4.20248e-05	  -10.6858	-6.04369e-05	  -10.6895	-6.36318e-05	  -10.6934	-5.53645e-05	  -10.6934	  -1.38411	
  -10.7392	-4.65532e-05	    -10.72	-6.50129e-05	  -10.7238	-6.82644e-05	  -10.7276	-5.99435e-05	  -10.7276	  -1.49859	
  -10.7732	-5.10977e-05	  -10.7538	-6.96181e-05	  -10.7577	-7.27912e-05	  -10.7615	-6.45023e-05	  -10.7615	  -1.61256	
  -10.8069	-5.56835e-05	  -10.7871	-7.42099e-05	  -10.7913	-7.74445e-05	  -10.7951	-6.91126e-05	  -10.7951	  -1.72782	
  -10.8402	-6.02215e-05	  -10.8201	-7.88209e-05	  -10.8246	-8.21043e-05	  -10.8283	-7.37156e-05	  -10.8283	  -1.84289	
   -10.873	-6.4756e-05	  -10.8528	-8.34606e-05	  -10.8575	-8.66539e-05	  -10.8611	-7.82902e-05	  -10.8611	  -1.95725	
  -10.9054	-6.93377e-05	   -10.885	-8.80428e-05	    -10.89	-9.1274e-05	  -10.8934	-8.28848e-05	  -10.8934	  -2.07212	
  -10.9371	-7.38814e-05	  -10.9167	-9.26338e-05	  -10.9219	-9.59182e-05	  -10.9252	-8.74778e-05	  -10.9252	  -2.18694	
  -10.9682	-7.8409e-05	  -10.9479	-9.73058e-05	  -10.9533	-0.000100445	  -10.9565	-9.20532e-05	  -10.9565	  -2.30133	
  -10.9988	-8.29889e-05	  -10.9787	-0.000101919	  -10.9841	 -0.000105	  -10.9872	-9.66361e-05	  -10.9872	   -2.4159	
  -11.0291	-8.75373e-05	  -11.0089	-0.000106492	  -11.0144	-0.000109594	  -11.0175	-0.000101207	  -11.0175	  -2.53019	
  -11.0589	-9.20615e-05	  -11.0387	-0.000111142	  -11.0442	-0.000114081	  -11.0473	-0.000105761	  -11.0473	  -2.64404	
   -11.088	-9.6651e-05	  -11.0681	-0.000115767	  -11.0737	-0.00011858	  -11.0766	-0.000110333	  -11.0766	  -2.75832	
  -11.1163	-0.000101211	  -11.0972	-0.000120329	   -11.103	-0.000123123	  -11.1055	-0.000114888	  -11.1055	   -2.8722	
  -11.1445	-0.000105702	  -11.1259	-0.000124946	  -11.1319	-0.000127585	  -11.1341	-0.000119411	  -11.1341	  -2.98528	
  -11.1727	-0.000110259	  -11.1542	-0.000129553	  -11.1603	-0.000132063	  -11.1624	-0.000123958	  -11.1624	  -3.09896	
  -11.2004	-0.000114816	   -11.182	-0.000134054	  -11.1883	-0.000136555	  -11.1902	-0.000128475	  -11.1902	  -3.21188	
  -11.2275	-0.000119293	  -11.2093	-0.000138603	  -11.2157	-0.000140962	  -11.2175	-0.000132953	  -11.2175	  -3.32382	
  -11.2541	-0.000123807	  -11.2361	-0.000143152	  -11.2426	-0.000145429	  -11.2443	-0.000137463	  -11.2443	  -3.43657	
  -11.2804	-0.000128338	  -11.2623	-0.0001476	  -11.2689	-0.000149955	  -11.2705	-0.000141964	  -11.2705	  -3.54911	
  -11.3063	-0.000132796	  -11.2881	-0.000152083	  -11.2947	-0.00015438	  -11.2964	-0.000146419	  -11.2964	  -3.66048	
   -11.332	-0.000137282	  -11.3134	-0.000156563	  -11.3201	-0.000158839	  -11.3218	-0.000150895	  -11.3218	  -3.77237	
  -11.3574	-0.000141798	  -11.3383	-0.000160967	  -11.3452	-0.000163383	   -11.347	-0.000155383	   -11.347	  -3.88457	
  -11.3825	-0.000146252	  -11.3628	-0.000165362	    -11.37	-0.000167856	  -11.3718	-0.000159823	  -11.3718	  -3.99557	
  -11.4072	-0.000150723	  -11.3871	-0.000169734	  -11.3944	-0.000172338	  -11.3962	-0.000164265	  -11.3962	  -4.10662	
  -11.4315	-0.000155229	   -11.411	-0.000174081	  -11.4184	-0.000176902	  -11.4203	-0.000168738	  -11.4203	  -4.21844	
  -11.4553	-0.000159684	  -11.4345	-0.000178423	  -11.4421	-0.000181409	   -11.444	-0.000173172	   -11.444	   -4.3293	
  -11.4786	-0.000164135	  -11.4576	-0.000182698	  -11.4654	-0.000185888	  -11.4672	-0.000177574	  -11.4672	  -4.43935	
  -11.5014	-0.000168634	  -11.4803	-0.00018694	  -11.4881	-0.000190445	  -11.4899	-0.000182006	  -11.4899	  -4.55015	
  -11.5236	-0.000173093	  -11.5025	-0.000191211	  -11.5104	-0.000194952	  -11.5121	-0.000186418	  -11.5121	  -4.66046	
  -11.5451	-0.000177514	  -11.5242	-0.000195421	  -11.5321	-0.000199392	  -11.5338	-0.000190776	  -11.5338	  -4.76939	
   -11.566	-0.000181982	  -11.5453	-0.000199595	  -11.5532	-0.000203915	  -11.5548	-0.000195164	  -11.5548	   -4.8791	
  -11.5864	-0.00018641	  -11.5659	-0.000203821	  -11.5738	-0.000208396	  -11.5753	-0.000199542	  -11.5753	  -4.98856	
  -11.6062	-0.000190795	  -11.5859	-0.000207999	  -11.5937	-0.000212794	  -11.5953	-0.000203863	  -11.5953	  -5.09657	
  -11.6254	-0.000195246	  -11.6053	-0.000212143	   -11.613	-0.000217252	  -11.6146	-0.000208213	  -11.6146	  -5.20534	
  -11.6442	-0.000199653	  -11.6242	-0.000216341	  -11.6318	-0.000221677	  -11.6334	-0.000212557	  -11.6334	  -5.31393	
  -11.6628	-0.000204055	  -11.6425	-0.000220509	  -11.6499	-0.000226015	  -11.6517	-0.000216859	  -11.6517	  -5.42148	
  -11.6809	-0.000208478	  -11.6606	-0.000224628	  -11.6677	-0.00023039	  -11.6697	-0.000221166	  -11.6697	  -5.52914	
  -11.6986	-0.000212879	  -11.6783	-0.000228792	  -11.6852	-0.00023475	  -11.6874	-0.000225473	  -11.6874	  -5.63683	
  -11.7161	-0.000217262	  -11.6956	-0.000232919	  -11.7024	-0.000239012	  -11.7047	-0.000229731	  -11.7047	  -5.74328	
  -11.7333	-0.000221668	  -11.7126	-0.000236996	  -11.7191	-0.000243342	  -11.7217	-0.000234002	  -11.7217	  -5.85004	
  -11.7502	-0.000226109	   -11.729	-0.000241116	  -11.7356	-0.000247672	  -11.7383	-0.000238299	  -11.7383	  -5.95748	
  -11.7667	-0.000230438	  -11.7451	-0.000245213	  -11.7519	-0.000251835	  -11.7545	-0.000242495	  -11.7545	  -6.06238	
  -11.7829	-0.000234719	  -11.7608	-0.00024925	  -11.7678	-0.000256077	  -11.7705	-0.000246682	  -11.7705	  -6.16705	
  -11.7986	-0.000239127	  -11.7762	-0.000253315	  -11.7834	-0.00026038	  -11.7861	-0.000250941	  -11.7861	  -6.27352	
   -11.814	-0.000243473	  -11.7913	-0.000257369	  -11.7987	-0.000264512	  -11.8014	-0.000255118	  -11.8014	  -6.37795	
   -11.829	-0.000247698	  -11.8061	-0.000261359	  -11.8137	-0.000268685	  -11.8163	-0.000259247	  -11.8163	  -6.48118	
  -11.8436	-0.000252017	  -11.8205	-0.000265412	  -11.8282	-0.000272943	  -11.8308	-0.000263457	  -11.8308	  -6.58643	
  -11.8577	-0.000256343	  -11.8346	-0.000269406	  -11.8424	-0.000277074	  -11.8449	-0.000267607	  -11.8449	  -6.69019	
  -11.8713	-0.000260546	  -11.8482	-0.000273269	  -11.8561	-0.000281201	  -11.8586	-0.000271672	  -11.8586	   -6.7918	
  -11.8845	-0.000264813	  -11.8615	-0.000277249	  -11.8694	-0.000285416	  -11.8718	-0.000275826	  -11.8718	  -6.89564	
  -11.8973	-0.000269126	  -11.8743	-0.000281279	  -11.8823	-0.000289543	  -11.8846	-0.000279983	  -11.8846	  -6.99956	
  -11.9095	-0.000273329	  -11.8867	-0.000285144	  -11.8947	-0.000293641	   -11.897	-0.000284038	   -11.897	  -7.10094	
  -11.9213	-0.000277566	  -11.8985	-0.00028907	  -11.9067	-0.000297838	  -11.9088	-0.000288158	  -11.9088	  -7.20395	
  -11.9326	-0.000281871	    -11.91	-0.000293084	  -11.9182	-0.000301961	  -11.9202	-0.000292305	  -11.9202	  -7.30763	
  -11.9434	-0.00028609	   -11.921	-0.000296965	  -11.9292	-0.000306005	  -11.9312	-0.000296354	  -11.9312	  -7.40884	
  -11.9537	-0.000290313	  -11.9316	-0.000300881	  -11.9399	-0.00031016	  -11.9417	-0.000300451	  -11.9417	  -7.51129	
  -11.9635	-0.000294597	  -11.9418	-0.000304944	  -11.9501	-0.0003143	  -11.9518	-0.000304613	  -11.9518	  -7.61534	
  -11.9729	-0.000298811	  -11.9514	-0.000308884	  -11.9598	-0.000318315	  -11.9614	-0.00030867	  -11.9614	  -7.71676	
  -11.9818	-0.000303041	  -11.9605	-0.000312808	  -11.9692	-0.000322422	  -11.9705	-0.000312757	  -11.9705	  -7.81893	
  -11.9903	-0.000307308	  -11.9692	-0.000316861	  -11.9781	-0.00032654	  -11.9792	-0.000316903	  -11.9792	  -7.92258	
  -11.9983	-0.000311467	  -11.9773	-0.000320837	  -11.9865	-0.000330575	  -11.9874	-0.00032096	  -11.9874	    -8.024	
  -12.0058	-0.000315619	  -11.9849	-0.000324773	  -11.9945	-0.000334655	  -11.9951	-0.000325016	  -11.9951	  -8.12539	
  -12.0126	-0.000319824	   -11.992	-0.000328775	  -12.0021	-0.000338677	  -12.0022	-0.000329092	  -12.0022	   -8.2273	
  -12.0189	-0.000323967	  -11.9987	-0.000332748	  -12.0091	-0.000342656	  -12.0089	-0.000333124	  -12.0089	   -8.3281	
  -12.0248	-0.00032805	  -12.0046	-0.000336665	  -12.0156	-0.000346723	   -12.015	-0.000337146	   -12.015	  -8.42864	
  -12.0305	-0.00033205	  -12.0101	-0.000340633	  -12.0214	-0.000350741	  -12.0207	-0.000341142	  -12.0207	  -8.52854	
  -12.0355	-0.000336101	  -12.0149	-0.000344577	  -12.0268	-0.000354674	  -12.0257	-0.000345118	  -12.0257	  -8.62794	
  -12.0398	-0.000340145	   -12.019	-0.000348457	  -12.0315	-0.000358702	  -12.0301	-0.000349101	  -12.0301	  -8.72753	
  -12.0437	-0.000344072	  -12.0225	-0.000352407	  -12.0355	-0.00036271	  -12.0339	-0.000353063	  -12.0339	  -8.82658	
  -12.0466	-0.00034809	  -12.0253	-0.000356323	  -12.0387	-0.000366623	  -12.0369	-0.000357012	  -12.0369	   -8.9253	
   -12.049	-0.000352064	  -12.0275	-0.000360123	  -12.0411	-0.000370614	  -12.0392	-0.000360934	  -12.0392	  -9.02335	
  -12.0513	-0.000355966	  -12.0289	-0.000363985	  -12.0428	-0.000374597	   -12.041	-0.000364849	   -12.041	  -9.12123	
  -12.0528	-0.000359946	  -12.0298	-0.000367851	  -12.0437	-0.000378489	  -12.0421	-0.000368762	  -12.0421	  -9.21904	
  -12.0536	-0.00036388	    -12.03	-0.000371587	   -12.044	-0.000382442	  -12.0425	-0.000372636	  -12.0425	  -9.31591	
  -12.0539	-0.000367739	  -12.0298	-0.00037538	  -12.0437	-0.000386408	  -12.0424	-0.000376509	  -12.0424	  -9.41273	
  -12.0537	-0.000371647	   -12.029	-0.000379228	  -12.0429	-0.000390286	  -12.0419	-0.000380387	  -12.0419	  -9.50968	
  -12.0531	-0.000375531	  -12.0278	-0.00038288	  -12.0416	-0.000394192	  -12.0408	-0.000384201	  -12.0408	  -9.60503	
  -12.0519	-0.000379338	  -12.0261	-0.000386564	  -12.0398	-0.000398122	  -12.0393	-0.000388008	  -12.0393	  -9.70019	
  -12.0501	-0.00038316	  -12.0241	-0.000390361	  -12.0376	-0.000401962	  -12.0373	-0.000391827	  -12.0373	  -9.79569	
  -12.0479	-0.00038697	  -12.0218	-0.000393995	   -12.035	-0.000405799	  -12.0349	-0.000395588	  -12.0349	   -9.8897	
  -12.0453	-0.000390687	  -12.0192	-0.000397598	  -12.0322	-0.000409683	  -12.0322	-0.000399323	  -12.0322	  -9.98307	
  -12.0422	-0.000394403	  -12.0162	-0.000401302	   -12.029	-0.000413492	  -12.0291	-0.000403066	  -12.0291	  -10.0766	
  -12.0388	-0.000398108	  -12.0126	-0.000404887	  -12.0255	-0.000417256	  -12.0256	-0.00040675	  -12.0256	  -10.1688	
  -12.0349	-0.000401718	  -12.0085	-0.000408359	  -12.0213	-0.000421072	  -12.0216	-0.000410383	  -12.0216	  -10.2596	
  -12.0307	-0.000405305	  -12.0038	-0.000411951	  -12.0167	-0.000424877	  -12.0171	-0.000414044	  -12.0171	  -10.3511	
  -12.0257	-0.000408884	  -11.9985	-0.000415509	  -12.0114	-0.000428581	  -12.0119	-0.000417658	  -12.0119	  -10.4414	
  -12.0201	-0.000412406	  -11.9926	-0.000418928	  -12.0056	-0.000432288	  -12.0061	-0.000421207	  -12.0061	  -10.5302	
  -12.0138	-0.000415898	  -11.9862	-0.000422424	  -11.9991	-0.000436068	  -11.9997	-0.000424797	  -11.9997	  -10.6199	
  -12.0069	-0.000419346	  -11.9793	-0.00042592	  -11.9921	-0.000439749	  -11.9928	-0.000428338	  -11.9928	  -10.7085	
  -11.9995	-0.00042276	   -11.972	-0.000429295	  -11.9846	-0.000443336	  -11.9854	-0.000431797	  -11.9854	  -10.7949	
  -11.9916	-0.000426188	  -11.9642	-0.000432721	  -11.9768	-0.000447029	  -11.9775	-0.000435313	  -11.9775	  -10.8828	
  -11.9832	-0.000429542	  -11.9562	-0.000436158	  -11.9686	-0.000450712	  -11.9693	-0.000438804	  -11.9693	  -10.9701	
  -11.9743	-0.000432863	  -11.9478	-0.000439482	    -11.96	-0.000454239	  -11.9607	-0.000442194	  -11.9607	  -11.0549	
  -11.9649	-0.000436197	  -11.9389	-0.0004428	  -11.9512	-0.000457809	  -11.9517	-0.000445602	  -11.9517	  -11.1401	
  -11.9549	-0.00043943	  -11.9297	-0.000446132	  -11.9419	-0.000461428	  -11.9422	-0.000448996	  -11.9422	  -11.2249	
  -11.9445	-0.000442657	  -11.9195	-0.000449436	  -11.9321	-0.000464897	   -11.932	-0.00045233	   -11.932	  -11.3083	
  -11.9337	-0.000445881	   -11.909	-0.000452696	  -11.9216	-0.000468335	  -11.9214	-0.000455637	  -11.9214	  -11.3909	
  -11.9223	-0.000449041	  -11.8985	-0.000455908	  -11.9105	-0.000471853	  -11.9105	-0.000458934	  -11.9105	  -11.4734	
  -11.9104	-0.000452154	  -11.8877	-0.000459107	   -11.899	-0.000475242	   -11.899	-0.000462168	   -11.899	  -11.5542	
  -11.8981	-0.000455275	  -11.8763	-0.000462257	   -11.887	-0.000478571	  -11.8871	-0.000465368	  -11.8871	  -11.6342	
  -11.8855	-0.00045839	  -11.8643	-0.000465399	  -11.8747	-0.000481973	  -11.8748	-0.000468587	  -11.8748	  -11.7147	
  -11.8725	-0.000461459	  -11.8518	-0.000468509	  -11.8621	-0.000485273	  -11.8621	-0.000471747	  -11.8621	  -11.7937	
  -11.8592	-0.000464483	  -11.8389	-0.00047156	  -11.8491	-0.000488504	  -11.8491	-0.000474849	  -11.8491	  -11.8712	
  -11.8455	-0.000467499	  -11.8255	-0.000474657	  -11.8356	-0.000491797	  -11.8355	-0.000477984	  -11.8355	  -11.9496	
  -11.8313	-0.000470491	  -11.8115	-0.000477744	  -11.8214	-0.000494988	  -11.8214	-0.000481074	  -11.8214	  -12.0269	
  -11.8165	-0.000473441	  -11.7969	-0.000480748	  -11.8067	-0.000498117	  -11.8067	-0.000484102	  -11.8067	  -12.1025	
  -11.8012	-0.000476377	  -11.7819	-0.000483784	  -11.7914	-0.000501296	  -11.7915	-0.000487152	  -11.7915	  -12.1788	
  -11.7855	-0.000479298	  -11.7665	-0.00048688	  -11.7758	-0.000504404	  -11.7759	-0.000490194	  -11.7759	  -12.2549	
  -11.7694	-0.000482178	  -11.7508	-0.000489909	  -11.7599	-0.000507448	    -11.76	-0.000493178	    -11.76	  -12.3295	
  -11.7531	-0.000485103	  -11.7348	-0.000492889	  -11.7437	-0.000510545	  -11.7439	-0.000496179	  -11.7439	  -12.4045	
  -11.7364	-0.000488011	  -11.7183	-0.000495973	  -11.7271	-0.000513597	  -11.7273	-0.000499194	  -11.7273	  -12.4798	
  -11.7194	-0.000490832	  -11.7014	-0.000499014	  -11.7099	-0.000516579	  -11.7102	-0.000502142	  -11.7102	  -12.5535	
  -11.7019	-0.000493705	  -11.6838	-0.000501982	  -11.6921	-0.000519606	  -11.6926	-0.000505098	  -11.6926	  -12.6274	
  -11.6837	-0.000496605	  -11.6658	-0.000505023	  -11.6739	-0.000522634	  -11.6745	-0.000508088	  -11.6745	  -12.7022	
  -11.6652	-0.000499423	  -11.6474	-0.000508022	  -11.6553	-0.000525592	  -11.6559	-0.000511012	  -11.6559	  -12.7753	
  -11.6463	-0.00050229	  -11.6287	-0.000510935	  -11.6363	-0.000528567	  -11.6371	-0.00051393	  -11.6371	  -12.8483	
  -11.6271	-0.000505191	  -11.6095	-0.000513892	  -11.6171	-0.00053156	  -11.6179	-0.000516881	  -11.6179	   -12.922	
  -11.6074	-0.000508015	  -11.5899	-0.000516802	  -11.5972	-0.000534465	  -11.5982	-0.000519761	  -11.5982	   -12.994	
  -11.5871	-0.000510847	  -11.5697	-0.000519616	  -11.5767	-0.000537376	  -11.5778	-0.000522613	  -11.5778	  -13.0653	
  -11.5663	-0.000513763	  -11.5489	-0.000522466	  -11.5551	-0.000540445	  -11.5568	-0.000525558	  -11.5568	  -13.1389	
   -11.545	-0.000516613	  -11.5277	-0.000525287	  -11.5335	-0.00054341	  -11.5354	-0.000528437	  -11.5354	  -13.2109	
  -11.5233	-0.00051946	  -11.5062	 -0.000528	   -11.512	-0.000546283	  -11.5139	-0.000531248	  -11.5139	  -13.2812	
  -11.5013	-0.000522365	  -11.4843	-0.000530755	    -11.49	-0.000549321	  -11.4919	-0.000534147	  -11.4919	  -13.3537	
  -11.4789	-0.000525209	  -11.4619	-0.000533477	  -11.4672	-0.000552349	  -11.4693	-0.000537012	  -11.4693	  -13.4253	
   -11.456	-0.000528051	  -11.4389	-0.000536098	  -11.4439	-0.000555266	  -11.4463	-0.000539805	  -11.4463	  -13.4951	
  -11.4325	-0.000530939	  -11.4155	-0.000538725	  -11.4202	-0.000558275	  -11.4227	-0.000542646	  -11.4227	  -13.5662	
  -11.4086	-0.000533782	  -11.3917	-0.000541375	  -11.3961	-0.000561287	  -11.3988	-0.000545481	  -11.3988	   -13.637	
  -11.3844	-0.000536601	  -11.3676	-0.000543931	  -11.3718	-0.000564183	  -11.3746	-0.000548238	  -11.3746	   -13.706	
  -11.3598	-0.000539456	   -11.343	-0.000546472	  -11.3471	-0.000567119	    -11.35	-0.000551016	    -11.35	  -13.7754	
  -11.3348	-0.000542281	  -11.3179	-0.00054906	  -11.3219	-0.00057008	  -11.3248	-0.000553807	  -11.3248	  -13.8452	
  -11.3092	-0.000545065	  -11.2923	-0.000551569	  -11.2961	-0.000572938	  -11.2992	-0.000556524	  -11.2992	  -13.9131	
  -11.2832	-0.000547866	  -11.2663	-0.000554064	    -11.27	-0.00057575	  -11.2732	-0.000559227	  -11.2732	  -13.9807	
  -11.2568	-0.000550642	    -11.24	-0.000556613	  -11.2435	-0.000578556	  -11.2468	-0.000561937	  -11.2468	  -14.0484	
    -11.23	-0.000553364	  -11.2134	-0.000559104	  -11.2166	-0.000581321	    -11.22	-0.000564596	    -11.22	  -14.1149	
  -11.2028	-0.000556099	  -11.1862	-0.000561596	  -11.1891	-0.000584032	  -11.1927	-0.000567243	  -11.1927	  -14.1811	
  -11.1752	-0.000558852	  -11.1585	-0.0005641	  -11.1612	-0.000586692	   -11.165	-0.000569881	   -11.165	   -14.247	
  -11.1472	-0.000561511	  -11.1303	-0.000566577	   -11.133	-0.000589291	  -11.1368	-0.00057246	  -11.1368	  -14.3115	
  -11.1185	-0.000564135	  -11.1019	-0.000569048	  -11.1043	-0.000591861	  -11.1082	-0.000575015	  -11.1082	  -14.3754	
  -11.0894	-0.000566808	  -11.0729	-0.000571512	  -11.0753	-0.000594383	  -11.0792	-0.000577568	  -11.0792	  -14.4392	
  -11.0599	-0.000569414	  -11.0434	-0.000573971	  -11.0459	-0.000596825	  -11.0497	-0.00058007	  -11.0497	  -14.5017	
    -11.03	-0.000571958	  -11.0133	-0.000576417	  -11.0158	-0.000599274	  -11.0197	-0.00058255	  -11.0197	  -14.5637	
  -10.9996	-0.000574541	  -10.9828	-0.000578846	  -10.9854	-0.000601657	  -10.9893	-0.000585015	  -10.9893	  -14.6254	
  -10.9688	-0.000577086	   -10.952	-0.000581275	  -10.9547	-0.000603969	  -10.9585	-0.000587443	  -10.9585	  -14.6861	
  -10.9374	-0.000579585	  -10.9207	-0.000583668	  -10.9236	-0.000606287	  -10.9272	-0.000589847	  -10.9272	  -14.7462	
  -10.9055	-0.000582084	  -10.8889	-0.000586034	  -10.8918	-0.000608542	  -10.8954	-0.00059222	  -10.8954	  -14.8055	
   -10.873	-0.000584559	  -10.8566	-0.000588411	  -10.8596	-0.000610721	  -10.8631	-0.000594564	  -10.8631	  -14.8641	
  -10.8401	-0.000586973	  -10.8241	-0.000590733	  -10.8271	-0.000612914	  -10.8304	-0.000596873	  -10.8304	  -14.9218	
   -10.807	-0.000589358	  -10.7911	-0.000593011	  -10.7942	-0.000615073	  -10.7974	-0.000599147	  -10.7974	  -14.9787	
  -10.7734	-0.000591754	  -10.7577	-0.000595302	  -10.7607	-0.000617161	  -10.7639	-0.000601406	  -10.7639	  -15.0351	
  -10.7393	-0.000594095	  -10.7237	-0.000597535	  -10.7266	-0.000619242	  -10.7299	-0.000603624	  -10.7299	  -15.0906	
  -10.7048	-0.000596404	  -10.6898	-0.000599671	  -10.6922	-0.000621306	  -10.6956	-0.000605794	  -10.6956	  -15.1448	
    -10.67	-0.000598753	  -10.6551	-0.000601853	  -10.6577	-0.000623294	  -10.6609	-0.000607967	  -10.6609	  -15.1992	
  -10.6349	-0.000601042	    -10.62	-0.000603965	  -10.6226	-0.000625273	  -10.6258	-0.000610093	  -10.6258	  -15.2523	
  -10.5992	-0.000603297	  -10.5842	-0.000606001	  -10.5869	-0.000627249	  -10.5901	-0.000612182	  -10.5901	  -15.3046	
  -10.5631	-0.000605601	  -10.5484	-0.000608135	  -10.5509	-0.000629162	  -10.5541	-0.000614299	  -10.5541	  -15.3575	
  -10.5266	-0.000607854	  -10.5119	-0.000610173	  -10.5146	-0.000631055	  -10.5177	-0.000616361	  -10.5177	   -15.409	
  -10.4898	-0.000610088	  -10.4748	-0.000612096	  -10.4778	-0.000632953	  -10.4808	-0.000618379	  -10.4808	  -15.4595	
  -10.4524	-0.000612375	  -10.4377	-0.000614125	  -10.4404	-0.000634791	  -10.4435	-0.00062043	  -10.4435	  -15.5108	
  -10.4146	-0.000614614	  -10.4003	-0.000616118	  -10.4026	-0.000636619	  -10.4058	-0.00062245	  -10.4058	  -15.5613	
  -10.3765	-0.000616795	  -10.3622	-0.000617985	  -10.3645	-0.00063848	  -10.3677	-0.00062442	  -10.3677	  -15.6105	
   -10.338	-0.000619063	  -10.3238	-0.000619901	  -10.3261	-0.000640268	  -10.3293	-0.000626411	  -10.3293	  -15.6603	
   -10.299	-0.000621346	   -10.285	-0.000621834	  -10.2872	-0.000642009	  -10.2904	-0.000628396	  -10.2904	  -15.7099	
  -10.2596	-0.000623521	  -10.2459	-0.000623638	  -10.2479	-0.00064381	  -10.2511	-0.000630323	  -10.2511	  -15.7581	
  -10.2199	-0.000625757	  -10.2063	-0.000625476	  -10.2084	-0.000645563	  -10.2115	-0.000632266	  -10.2115	  -15.8066	
    -10.18	-0.00062804	  -10.1665	-0.000627348	  -10.1684	-0.00064721	  -10.1716	-0.000634199	  -10.1716	   -15.855	
  -10.1395	-0.00063019	  -10.1261	-0.00062909	   -10.128	-0.000648917	  -10.1312	-0.000636066	  -10.1312	  -15.9016	
  -10.0986	-0.000632414	  -10.0854	-0.000630841	  -10.0872	-0.000650639	  -10.0904	-0.000637965	  -10.0904	  -15.9491	
  -10.0574	-0.00063472	  -10.0445	-0.000632632	  -10.0462	-0.00065225	  -10.0494	-0.000639867	  -10.0494	  -15.9967	
  -10.0157	-0.000636875	   -10.003	-0.000634322	  -10.0047	-0.000653868	  -10.0078	-0.000641689	  -10.0078	  -16.0422	
  -9.97347	-0.000639061	  -9.96109	-0.000635993	  -9.96282	-0.000655541	  -9.96579	-0.000643532	  -9.96579	  -16.0883	
   -9.9309	-0.000641351	  -9.91877	-0.000637714	  -9.92053	-0.000657131	   -9.9234	-0.000645398	   -9.9234	   -16.135	
  -9.88806	-0.000643518	  -9.87603	-0.000639358	  -9.87782	-0.000658708	  -9.88063	-0.000647194	  -9.88063	  -16.1799	
  -9.84473	-0.000645677	  -9.83269	-0.000640969	  -9.83471	-0.000660354	  -9.83738	 -0.000649	  -9.83738	   -16.225	
  -9.80094	-0.000647933	  -9.78897	-0.000642632	  -9.79129	-0.000661933	  -9.79373	-0.000650833	  -9.79373	  -16.2708	
  -9.75689	-0.000650095	  -9.74488	-0.000644246	  -9.74785	-0.000663436	  -9.74987	-0.000652592	  -9.74987	  -16.3148	
  -9.71251	-0.000652213	  -9.70037	-0.000645815	  -9.70376	-0.000665048	  -9.70555	-0.000654359	  -9.70555	   -16.359	
  -9.66767	-0.000654403	  -9.65543	-0.000647425	   -9.6593	-0.000666625	   -9.6608	-0.000656151	   -9.6608	  -16.4038	
  -9.62246	-0.000656512	  -9.61019	-0.000649009	  -9.61445	-0.000668141	   -9.6157	-0.000657887	   -9.6157	  -16.4472	
  -9.57698	-0.000658551	  -9.56469	-0.000650599	  -9.56939	-0.000669754	  -9.57036	-0.000659635	  -9.57036	  -16.4909	
  -9.53096	-0.000660627	  -9.51866	-0.000652208	  -9.52381	-0.000671322	  -9.52448	-0.000661386	  -9.52448	  -16.5346	
  -9.48449	-0.000662641	  -9.47225	-0.000653759	  -9.47758	-0.000672835	  -9.47811	-0.000663078	  -9.47811	   -16.577	
  -9.43778	-0.000664571	   -9.4256	-0.000655307	  -9.43125	-0.000674433	  -9.43154	-0.00066477	  -9.43154	  -16.6193	
   -9.3907	-0.000666511	  -9.37844	-0.000656898	  -9.38452	-0.000675989	  -9.38455	-0.000666466	  -9.38455	  -16.6617	
  -9.34311	-0.000668414	  -9.33083	-0.000658455	  -9.33728	-0.000677508	  -9.33707	-0.000668126	  -9.33707	  -16.7031	
   -9.2952	-0.000670242	  -9.28297	-0.00065998	  -9.28969	-0.000679091	  -9.28928	-0.000669771	  -9.28928	  -16.7443	
  -9.24707	-0.000672067	   -9.2348	-0.000661531	  -9.24174	-0.000680642	   -9.2412	-0.000671414	   -9.2412	  -16.7853	
  -9.19845	-0.000673876	  -9.18615	-0.000663057	  -9.19337	-0.000682144	  -9.19266	-0.000673026	  -9.19266	  -16.8256	
  -9.14946	-0.000675613	  -9.13719	-0.000664532	  -9.14465	-0.000683633	  -9.14377	-0.000674593	  -9.14377	  -16.8648	
  -9.10018	-0.000677293	  -9.08807	-0.000666017	  -9.09557	-0.000685098	  -9.09461	-0.000676136	  -9.09461	  -16.9034	
  -9.05032	-0.000679002	  -9.03857	-0.000667477	  -9.04597	-0.000686608	  -9.04495	-0.000677695	  -9.04495	  -16.9424	
  -8.99999	-0.000680737	  -8.98868	-0.000668884	  -8.99597	-0.000688096	  -8.99488	-0.000679239	  -8.99488	   -16.981	
  -8.94966	-0.000682346	  -8.93857	-0.00067029	  -8.94568	-0.000689487	  -8.94464	-0.000680708	  -8.94464	  -17.0177	
  -8.89911	-0.000683924	  -8.88807	-0.000671675	   -8.8949	-0.000690897	  -8.89403	-0.000682165	  -8.89403	  -17.0541	
  -8.84802	-0.000685586	  -8.83714	-0.000673015	  -8.84369	-0.000692316	  -8.84295	-0.000683639	  -8.84295	   -17.091	
  -8.79662	-0.000687175	    -8.786	-0.000674343	  -8.79228	-0.000693659	  -8.79163	-0.000685059	  -8.79163	  -17.1265	
  -8.74512	-0.000688679	  -8.73446	-0.000675641	  -8.74052	-0.000694988	  -8.74003	-0.000686436	  -8.74003	  -17.1609	
   -8.6933	-0.000690241	  -8.68251	-0.000676892	   -8.6883	-0.000696336	  -8.68804	-0.000687823	  -8.68804	  -17.1956	
  -8.64116	-0.000691757	  -8.63032	-0.000678133	  -8.63584	-0.00069761	  -8.63577	-0.000689167	  -8.63577	  -17.2292	
   -8.5887	-0.000693167	  -8.57781	-0.000679343	  -8.58312	-0.000698842	  -8.58321	-0.000690451	  -8.58321	  -17.2613	
  -8.53579	-0.00069461	  -8.52491	-0.000680496	  -8.53002	-0.000700097	  -8.53024	-0.000691734	  -8.53024	  -17.2934	
  -8.48255	-0.000696011	  -8.47174	-0.00068164	  -8.47665	-0.000701292	  -8.47698	-0.000692981	  -8.47698	  -17.3245	
  -8.42898	-0.000697336	  -8.41818	-0.000682768	    -8.423	-0.000702433	  -8.42338	-0.000694179	  -8.42338	  -17.3545	
  -8.37495	-0.0006987	  -8.36411	-0.00068384	  -8.36889	-0.000703571	  -8.36932	-0.00069537	  -8.36932	  -17.3843	
  -8.32059	-0.00069997	  -8.30978	-0.000684902	  -8.31434	-0.000704668	   -8.3149	-0.000696513	   -8.3149	  -17.4128	
  -8.26595	-0.000701136	  -8.25512	-0.000685959	  -8.25914	-0.000705791	  -8.26007	-0.000697629	  -8.26007	  -17.4407	
  -8.21081	-0.000702402	  -8.20006	-0.000686882	  -8.20384	-0.000706881	   -8.2049	-0.000698722	   -8.2049	   -17.468	
  -8.15535	-0.000703615	  -8.14459	-0.000687843	  -8.14868	-0.00070784	  -8.14954	-0.000699766	  -8.14954	  -17.4942	
  -8.09963	-0.000704679	  -8.08858	-0.000688899	  -8.09312	-0.000708836	  -8.09378	-0.000700805	  -8.09378	  -17.5201	
  -8.04342	-0.00070582	  -8.03257	-0.000689768	  -8.03705	-0.000709885	  -8.03768	-0.000701824	  -8.03768	  -17.5456	
  -7.98691	-0.000706949	  -7.97659	-0.000690507	  -7.98071	-0.000710794	   -7.9814	-0.00070275	   -7.9814	  -17.5688	
  -7.93017	-0.000707925	  -7.92008	-0.000691373	  -7.92423	-0.000711661	  -7.92482	-0.000703653	  -7.92482	  -17.5913	
  -7.87296	-0.00070899	  -7.86308	-0.000692175	   -7.8673	-0.000712603	  -7.86778	-0.000704589	  -7.86778	  -17.6147	
  -7.81547	-0.000710069	  -7.80585	-0.000692784	  -7.81011	-0.000713457	  -7.81048	-0.000705437	  -7.81048	  -17.6359	
  -7.75783	-0.00071096	  -7.74835	-0.000693457	  -7.75273	-0.000714232	  -7.75297	-0.000706216	  -7.75297	  -17.6554	
  -7.69979	-0.00071192	  -7.69039	-0.000694052	  -7.69492	-0.000715054	  -7.69503	-0.000707009	  -7.69503	  -17.6752	
   -7.6415	-0.000712923	  -7.63222	-0.000694463	  -7.63688	-0.000715796	  -7.63686	-0.000707727	  -7.63686	  -17.6932	
  -7.58296	-0.000713775	   -7.5738	-0.000694999	  -7.57841	-0.000716452	  -7.57839	-0.000708409	  -7.57839	  -17.7102	
  -7.52397	-0.000714633	  -7.51501	-0.000695469	  -7.51956	-0.00071722	  -7.51951	-0.000709107	  -7.51951	  -17.7277	
  -7.46475	-0.00071553	  -7.45603	-0.000695706	  -7.46052	-0.000717909	  -7.46043	-0.000709715	  -7.46043	  -17.7429	
  -7.40518	-0.000716351	  -7.39674	-0.000696026	  -7.40115	-0.000718413	  -7.40102	-0.000710263	  -7.40102	  -17.7566	
   -7.3452	-0.00071712	  -7.33706	-0.00069641	  -7.34138	-0.000719028	  -7.34121	-0.000710853	  -7.34121	  -17.7713	
    -7.285	-0.000717923	  -7.27713	-0.000696625	  -7.28142	-0.000719665	  -7.28118	-0.000711404	  -7.28118	  -17.7851	
  -7.22435	-0.000718691	  -7.21688	-0.000696885	  -7.22107	-0.000720085	  -7.22077	-0.000711887	  -7.22077	  -17.7972	
  -7.16336	-0.000719395	   -7.1563	-0.000697233	  -7.16039	-0.000720533	  -7.16001	-0.000712387	  -7.16001	  -17.8097	
  -7.10205	-0.000720129	  -7.09547	-0.000697448	  -7.09961	-0.000721024	  -7.09904	-0.000712867	  -7.09904	  -17.8217	
  -7.04047	-0.000720806	  -7.03427	-0.000697716	  -7.03844	-0.000721335	  -7.03772	-0.000713286	  -7.03772	  -17.8321	
  -6.97866	-0.000721427	  -6.97279	-0.000698118	  -6.97698	-0.000721649	  -6.97615	-0.000713731	  -6.97615	  -17.8433	
  -6.91675	-0.000722104	  -6.91123	-0.000698409	  -6.91538	-0.000722017	  -6.91445	-0.000714177	  -6.91445	  -17.8544	
  -6.85447	-0.000722744	  -6.84925	-0.000698693	  -6.85334	-0.000722246	  -6.85235	-0.000714561	  -6.85235	   -17.864	
  -6.79195	-0.000723288	  -6.78706	-0.000699111	  -6.79108	-0.00072244	  -6.79003	-0.000714946	  -6.79003	  -17.8737	
  -6.72924	-0.000723854	  -6.72468	-0.000699472	  -6.72864	-0.000722694	  -6.72752	-0.00071534	  -6.72752	  -17.8835	
  -6.66616	-0.000724387	  -6.66199	-0.000699811	  -6.66578	-0.000722848	  -6.66464	-0.000715682	  -6.66464	   -17.892	
  -6.60293	-0.000724823	  -6.59915	-0.000700241	  -6.60276	-0.000722951	  -6.60161	-0.000716005	  -6.60161	  -17.9001	
  -6.53951	-0.000725258	  -6.53603	-0.000700646	  -6.53957	-0.000723122	  -6.53837	-0.000716342	  -6.53837	  -17.9086	
  -6.47575	-0.00072566	  -6.47256	-0.000700988	  -6.47609	-0.000723224	   -6.4748	-0.000716624	   -6.4748	  -17.9156	
  -6.41184	-0.000725962	  -6.40901	-0.000701396	  -6.41242	-0.000723269	  -6.41109	-0.000716876	  -6.41109	  -17.9219	
  -6.34762	-0.000726246	  -6.34514	-0.000701816	  -6.34842	-0.00072338	  -6.34706	-0.000717147	  -6.34706	  -17.9287	
  -6.28313	-0.000726514	  -6.28101	-0.000702132	  -6.28417	-0.000723433	  -6.28277	-0.000717359	  -6.28277	   -17.934	
  -6.21852	-0.000726692	  -6.21676	-0.000702467	  -6.21974	-0.000723423	  -6.21834	-0.000717527	  -6.21834	  -17.9382	
  -6.15372	-0.000726837	  -6.15211	-0.000702824	  -6.15497	-0.000723482	   -6.1536	-0.000717714	   -6.1536	  -17.9429	
  -6.08873	-0.00072697	  -6.08728	-0.000703076	  -6.09003	-0.000723494	  -6.08868	-0.000717847	  -6.08868	  -17.9462	
  -6.02359	-0.000727032	  -6.02216	-0.000703311	  -6.02475	-0.000723444	   -6.0235	-0.000717929	   -6.0235	  -17.9482	
  -5.95833	-0.000727014	  -5.95669	-0.000703547	  -5.95912	-0.000723447	  -5.95805	-0.000718003	  -5.95805	  -17.9501	
  -5.89283	-0.000726996	  -5.89097	-0.00070369	  -5.89337	-0.000723426	  -5.89239	-0.000718037	  -5.89239	  -17.9509	
    -5.827	-0.000726939	  -5.82496	-0.000703792	  -5.82721	-0.000723315	  -5.82639	-0.000718015	  -5.82639	  -17.9504	
  -5.76094	-0.000726785	  -5.75872	-0.000703886	  -5.76083	-0.000723257	  -5.76016	-0.000717976	  -5.76016	  -17.9494	
  -5.69423	-0.00072664	  -5.69221	-0.000703897	  -5.69424	-0.000723203	  -5.69356	-0.000717913	  -5.69356	  -17.9478	
  -5.62749	-0.000726487	  -5.62536	-0.000703855	  -5.62737	-0.000723067	  -5.62674	-0.000717803	  -5.62674	  -17.9451	
  -5.56053	-0.000726228	  -5.55838	-0.000703812	  -5.56032	-0.000722959	  -5.55974	-0.000717667	  -5.55974	  -17.9417	
  -5.49325	-0.000725994	  -5.49122	-0.000703706	  -5.49298	-0.000722849	  -5.49248	-0.000717517	  -5.49248	  -17.9379	
  -5.42577	-0.000725759	  -5.42383	-0.000703559	  -5.42541	-0.000722654	    -5.425	-0.000717324	    -5.425	  -17.9331	
  -5.35819	-0.000725437	  -5.35629	-0.000703421	  -5.35766	-0.000722473	  -5.35738	-0.00071711	  -5.35738	  -17.9278	
  -5.29029	-0.000725115	  -5.28847	-0.000703226	  -5.28954	-0.000722294	  -5.28943	-0.000716878	  -5.28943	   -17.922	
  -5.22214	-0.000724818	  -5.22047	-0.000702989	  -5.22126	-0.000722038	  -5.22129	-0.000716615	  -5.22129	  -17.9154	
  -5.15389	-0.000724448	  -5.15232	-0.00070276	  -5.15302	-0.000721822	  -5.15308	-0.000716343	  -5.15308	  -17.9086	
  -5.08539	-0.00072405	  -5.08389	-0.000702532	  -5.08476	-0.000721601	  -5.08468	-0.000716061	  -5.08468	  -17.9015	
   -5.0167	-0.000723686	  -5.01539	-0.000702276	  -5.01637	-0.000721293	  -5.01616	-0.000715752	  -5.01616	  -17.8938	
  -4.94774	-0.000723255	  -4.94691	-0.000701937	  -4.94766	-0.000721005	  -4.94743	-0.000715399	  -4.94743	   -17.885	
  -4.87855	-0.000722785	  -4.87818	-0.000701594	  -4.87877	-0.000720727	   -4.8785	-0.000715035	   -4.8785	  -17.8759	
   -4.8093	-0.000722335	  -4.80907	-0.000701251	  -4.80966	-0.000720429	  -4.80934	-0.000714672	  -4.80934	  -17.8668	
  -4.73967	-0.000721827	  -4.73975	-0.000700817	  -4.74024	-0.000720112	  -4.73989	-0.000714252	  -4.73989	  -17.8563	
  -4.66995	-0.000721259	  -4.67023	-0.00070036	  -4.67057	-0.000719806	  -4.67025	-0.000713808	  -4.67025	  -17.8452	
  -4.60016	-0.000720714	  -4.60065	-0.000699923	  -4.60074	-0.000719483	  -4.60052	-0.000713373	  -4.60052	  -17.8343	
  -4.53028	-0.000720116	  -4.53067	-0.000699351	  -4.53069	-0.00071914	  -4.53054	-0.000712869	  -4.53054	  -17.8217	
  -4.46034	-0.000719466	   -4.4605	-0.000698808	  -4.46026	-0.000718813	  -4.46037	-0.000712362	  -4.46037	  -17.8091	
   -4.3901	-0.000718792	  -4.39024	-0.00069831	  -4.38971	-0.000718437	  -4.39002	-0.000711846	  -4.39002	  -17.7962	
  -4.31973	-0.000718097	  -4.31982	-0.000697619	  -4.31902	-0.000717995	  -4.31952	-0.000711237	  -4.31952	  -17.7809	
  -4.24917	-0.000717352	  -4.24913	-0.000696956	  -4.24809	-0.000717576	   -4.2488	-0.000710628	   -4.2488	  -17.7657	
  -4.17834	-0.000716572	  -4.17825	-0.000696388	  -4.17695	-0.000717127	  -4.17785	-0.000710029	  -4.17785	  -17.7507	
   -4.1075	-0.00071578	  -4.10724	-0.00069563	  -4.10581	-0.000716626	  -4.10685	-0.000709345	  -4.10685	  -17.7336	
  -4.03636	-0.000714941	  -4.03606	-0.000694868	  -4.03446	-0.000716104	  -4.03562	-0.000708638	  -4.03562	  -17.7159	
  -3.96508	-0.000714077	  -3.96476	-0.000694189	  -3.96302	-0.000715527	  -3.96429	-0.000707931	  -3.96429	  -17.6983	
  -3.89367	-0.000713211	  -3.89321	-0.000693398	  -3.89124	-0.000714868	  -3.89271	-0.000707159	  -3.89271	   -17.679	
  -3.82199	-0.000712311	  -3.82147	-0.000692561	  -3.81926	-0.000714187	   -3.8209	-0.000706353	   -3.8209	  -17.6588	
  -3.75025	-0.000711383	  -3.74964	-0.000691867	  -3.74728	-0.00071346	  -3.74906	-0.00070557	  -3.74906	  -17.6393	
  -3.67832	-0.000710453	  -3.67765	-0.000691078	  -3.67505	-0.000712629	  -3.67701	-0.00070472	  -3.67701	   -17.618	
  -3.60626	-0.000709509	   -3.6055	-0.000690201	  -3.60275	-0.000711749	  -3.60484	-0.000703819	  -3.60484	  -17.5955	
  -3.53417	-0.000708537	  -3.53326	-0.000689441	  -3.53048	-0.000710879	  -3.53264	-0.000702952	  -3.53264	  -17.5738	
  -3.46182	-0.000707533	  -3.46078	-0.000688611	    -3.458	-0.000709947	   -3.4602	-0.00070203	   -3.4602	  -17.5508	
  -3.38941	-0.000706493	  -3.38835	-0.000687696	  -3.38556	-0.000708963	  -3.38777	-0.00070105	  -3.38777	  -17.5263	
  -3.31676	-0.000705475	  -3.31574	-0.000686879	  -3.31297	-0.000707996	  -3.31516	-0.000700117	  -3.31516	  -17.5029	
  -3.24399	-0.000704451	  -3.24304	-0.000685995	   -3.2403	-0.000706992	  -3.24244	-0.000699146	  -3.24244	  -17.4787	
   -3.1712	-0.000703299	  -3.17017	-0.000685032	  -3.16752	-0.000705943	  -3.16963	-0.000698091	  -3.16963	  -17.4523	
  -3.09821	-0.000702141	  -3.09713	-0.000684148	  -3.09452	-0.000704913	  -3.09662	-0.000697067	  -3.09662	  -17.4267	
  -3.02519	-0.000701053	  -3.02403	-0.000683231	  -3.02142	-0.000703868	  -3.02355	-0.00069605	  -3.02355	  -17.4013	
  -2.95189	-0.000699883	  -2.95074	-0.000682204	  -2.94804	-0.000702786	  -2.95022	-0.000694958	  -2.95022	  -17.3739	
  -2.87848	-0.000698624	  -2.87738	-0.000681229	   -2.8746	-0.000701721	  -2.87682	-0.000693858	  -2.87682	  -17.3464	
  -2.80499	-0.000697393	  -2.80389	-0.000680235	  -2.80111	-0.000700651	  -2.80333	-0.00069276	  -2.80333	   -17.319	
  -2.73133	-0.000696242	  -2.73026	-0.000679115	  -2.72742	-0.000699554	  -2.72967	-0.000691637	  -2.72967	  -17.2909	
  -2.65765	-0.00069499	  -2.65664	-0.00067802	  -2.65377	-0.000698472	  -2.65602	-0.000690494	  -2.65602	  -17.2623	
  -2.58384	-0.000693671	  -2.58285	-0.000676933	  -2.58001	-0.000697384	  -2.58223	-0.000689329	  -2.58223	  -17.2332	
  -2.50995	-0.000692436	  -2.50899	-0.000675734	  -2.50621	-0.000696249	  -2.50838	-0.00068814	  -2.50838	  -17.2035	
  -2.43594	-0.00069116	  -2.43514	-0.000674528	  -2.43236	-0.000695121	  -2.43448	-0.000686936	  -2.43448	  -17.1734	
  -2.36172	-0.000689808	  -2.36109	-0.000673354	  -2.35833	-0.000693992	  -2.36038	-0.000685718	  -2.36038	   -17.143	
  -2.28757	-0.000688514	  -2.28712	-0.000672087	  -2.28439	-0.000692794	  -2.28636	-0.000684465	  -2.28636	  -17.1116	
  -2.21319	-0.0006872	  -2.21293	-0.000670788	  -2.21029	-0.000691586	  -2.21213	-0.000683192	  -2.21213	  -17.0798	
  -2.13875	-0.00068581	  -2.13869	-0.000669509	  -2.13614	-0.000690376	  -2.13786	-0.000681898	  -2.13786	  -17.0475	
  -2.06428	-0.000684453	  -2.06436	-0.000668146	  -2.06201	-0.000689092	  -2.06355	-0.000680564	  -2.06355	  -17.0141	
  -1.98962	-0.000683097	  -1.98995	-0.000666732	  -1.98774	-0.000687771	   -1.9891	-0.0006792	   -1.9891	    -16.98	
  -1.91495	-0.000681654	  -1.91559	-0.000665335	  -1.91341	-0.000686445	  -1.91465	-0.000677811	  -1.91465	  -16.9453	
  -1.84018	-0.00068022	  -1.84102	-0.000663884	  -1.83888	-0.000685048	  -1.84002	-0.000676384	  -1.84002	  -16.9096	
  -1.76538	-0.00067876	  -1.76642	-0.000662315	  -1.76427	-0.000683325	  -1.76536	-0.0006748	  -1.76536	    -16.87	
