# User: ACHyster
# File name: C:/ACHYSTER/ACHyster SENS/SHAMS/CoFe2O4-1gl-water-60 Glycerol-Sens-08-03-2023/CoFe2O4-1gl-water-60 Glycerol- 10_100F- 24 kAm -Sens-08-03-20230007#1.txt
# Saved at: mi. mar. 8 13:31:35 2023
# Hyster Loop (3 iterations). Intensity: 24.0 kA/m; Tuned frequency: 101.8 kHz
# Units x axis: (kA/m)
# Units y axis: "Repeats y" & "Average y" (10^(-3)Am^2); "Mass avg y" (Am^2/kg)
# Magnetic mass: 4e-05 g
# Parameter      	Repeat   1	Repeat   2	Repeat   3	Average   	Sigma     
# H_C (kA/m)     	      18.5	      17.8	      18.2	      18.2	       0.3
# M_R (Am^2/kg)  	      13.5	      12.1	      12.7	      12.8	       0.6
# M_max (Am^2/kg)	      10.6	      10.5	      10.5	      10.5	       0.1
# Area (mJ/kg)   	    1206.6	    1075.0	    1135.7	    1139.1	      53.8
# SAR (W/g)      	     122.8	     109.4	     115.6	     116.0	       5.5
#Repeat 1 x	Repeat 1 y	Repeat 2 x	Repeat 2 y	Repeat 3 x	Repeat 3 y	Average x 	Average y 	Mass avg x 	Mass avg y 
  -3.67563	-0.000583504	  -3.71751	-0.000528406	  -3.72841	-0.00054853	  -3.70718	-0.00055348	  -3.70718	   -13.837	
  -3.52601	-0.000582101	  -3.56838	-0.000527048	  -3.58082	-0.0005472	   -3.5584	-0.000552116	   -3.5584	  -13.8029	
  -3.37613	-0.0005806	  -3.41922	-0.000525575	  -3.43345	-0.000545995	   -3.4096	-0.000550723	   -3.4096	  -13.7681	
  -3.22549	-0.000579023	  -3.26904	-0.000523985	  -3.28649	-0.000544899	  -3.26034	-0.000549302	  -3.26034	  -13.7326	
  -3.07487	-0.000577396	  -3.11911	-0.000522299	  -3.13843	-0.000543878	   -3.1108	-0.000547857	   -3.1108	  -13.6964	
  -2.92447	-0.000575745	  -2.96915	-0.000520542	  -2.98981	-0.00054288	  -2.96114	-0.000546389	  -2.96114	  -13.6597	
  -2.77426	-0.000574099	  -2.81889	-0.00051875	  -2.84041	-0.000541848	  -2.81119	-0.000544899	  -2.81119	  -13.6225	
  -2.62397	-0.000572482	  -2.66809	-0.000516962	  -2.69146	-0.000540729	  -2.66118	-0.000543391	  -2.66118	  -13.5848	
  -2.47381	-0.000570908	  -2.51726	-0.000515211	  -2.54243	-0.000539476	  -2.51117	-0.000541865	  -2.51117	  -13.5466	
  -2.32304	-0.000569381	  -2.36686	-0.000513521	   -2.3933	-0.000538064	  -2.36107	-0.000540322	  -2.36107	   -13.508	
  -2.17193	-0.000567893	  -2.21588	-0.0005119	  -2.24356	-0.000536488	  -2.21046	-0.000538761	  -2.21046	   -13.469	
  -2.02119	-0.000566429	  -2.06482	-0.000510348	  -2.09397	-0.00053476	  -2.05999	-0.000537179	  -2.05999	  -13.4295	
  -1.87007	-0.000564961	  -1.91367	-0.000508846	  -1.94377	-0.000532916	  -1.90917	-0.000535574	  -1.90917	  -13.3894	
  -1.72026	-0.00056346	  -1.76193	-0.000507364	   -1.7925	-0.000531005	  -1.75823	-0.000533943	  -1.75823	  -13.3486	
  -1.57042	-0.0005619	   -1.6106	-0.000505868	  -1.64167	-0.000529077	  -1.60756	-0.000532282	  -1.60756	   -13.307	
  -1.42054	-0.000560256	  -1.45963	-0.000504321	  -1.49147	-0.000527179	  -1.45721	-0.000530585	  -1.45721	  -13.2646	
  -1.27156	-0.000558511	  -1.30849	-0.000502687	   -1.3411	-0.000525353	  -1.30705	-0.00052885	  -1.30705	  -13.2212	
  -1.12266	-0.00055666	  -1.15717	-0.000500936	  -1.19152	-0.000523623	  -1.15712	-0.000527073	  -1.15712	  -13.1768	
 -0.974298	-0.000554711	  -1.00543	-0.000499055	  -1.04241	-0.000521989	  -1.00738	-0.000525252	  -1.00738	  -13.1313	
 -0.826152	-0.000552679	 -0.853522	-0.000497046	 -0.893452	-0.000520432	 -0.857709	-0.000523386	 -0.857709	  -13.0846	
 -0.677944	-0.000550587	 -0.702171	-0.000494921	 -0.744378	-0.000518924	 -0.708164	-0.000521477	 -0.708164	  -13.0369	
 -0.529407	-0.000548464	 -0.551069	-0.000492705	 -0.595894	-0.000517418	  -0.55879	-0.000519529	  -0.55879	  -12.9882	
 -0.380303	-0.000546335	 -0.400659	-0.000490431	 -0.447441	-0.000515869	 -0.409468	-0.000517545	 -0.409468	  -12.9386	
 -0.231373	-0.000544229	 -0.250386	-0.000488134	 -0.298994	-0.000514232	 -0.260251	-0.000515532	 -0.260251	  -12.8883	
-0.0820936	-0.000542164	 -0.100217	-0.00048585	 -0.150766	-0.000512474	 -0.111025	-0.000513496	 -0.111025	  -12.8374	
 0.0675292	-0.000540143	  0.048916	-0.000483603	-0.00246708	-0.000510569	 0.0379927	-0.000511438	 0.0379927	   -12.786	
  0.217976	-0.000538164	  0.197838	-0.000481407	  0.145443	-0.000508516	  0.187086	-0.000509362	  0.187086	  -12.7341	
  0.368241	-0.000536212	  0.346835	-0.000479267	   0.29302	-0.000506327	  0.336032	-0.000507269	  0.336032	  -12.6817	
   0.51836	-0.000534264	  0.495445	-0.000477174	  0.440804	-0.000504029	  0.484869	-0.000505156	  0.484869	  -12.6289	
  0.667164	-0.000532296	  0.643962	-0.000475105	  0.588326	-0.000501659	  0.633151	-0.00050302	  0.633151	  -12.5755	
  0.816466	-0.000530278	  0.793141	-0.000473032	  0.736117	-0.000499261	  0.781908	-0.000500857	  0.781908	  -12.5214	
  0.965771	-0.000528187	  0.941998	-0.000470926	  0.884186	-0.000496875	  0.930652	-0.000498663	  0.930652	  -12.4666	
    1.1151	-0.000526007	   1.09106	-0.000468756	   1.03254	-0.000494535	   1.07957	-0.000496433	   1.07957	  -12.4108	
   1.26496	-0.000523731	   1.24034	-0.000466497	   1.18093	-0.000492263	   1.22874	-0.000494164	   1.22874	  -12.3541	
   1.41436	-0.000521361	   1.38937	-0.000464137	   1.32868	-0.000490066	   1.37747	-0.000491855	   1.37747	  -12.2964	
    1.5641	-0.000518908	   1.53842	-0.000461674	   1.47778	-0.000487933	   1.52677	-0.000489505	   1.52677	  -12.2376	
   1.71296	-0.000516391	   1.68777	-0.000459115	   1.62623	-0.000485844	   1.67565	-0.000487117	   1.67565	  -12.1779	
     1.862	-0.000513838	   1.83693	-0.00045648	   1.77435	-0.000483766	   1.82443	-0.000484695	   1.82443	  -12.1174	
   2.01028	-0.000511274	   1.98547	-0.000453792	   1.92291	-0.000481655	   1.97289	-0.00048224	   1.97289	   -12.056	
   2.15931	-0.000508716	   2.13513	-0.000451081	   2.07166	-0.000479471	   2.12204	-0.000479756	   2.12204	  -11.9939	
   2.30931	-0.000506182	   2.28394	-0.000448375	   2.21942	-0.000477183	   2.27089	-0.000477246	   2.27089	  -11.9312	
   2.45806	-0.000503677	   2.43222	-0.000445696	   2.36678	-0.000474769	   2.41902	-0.000474714	   2.41902	  -11.8678	
   2.60543	-0.00050119	   2.58101	-0.00044306	   2.51523	-0.000472217	   2.56722	-0.000472156	   2.56722	  -11.8039	
    2.7523	-0.000498715	   2.73029	-0.000440467	   2.66327	-0.000469536	   2.71529	-0.000469573	   2.71529	  -11.7393	
   2.89849	-0.000496228	   2.87909	-0.000437909	   2.81145	-0.000466752	   2.86301	-0.000466963	   2.86301	  -11.6741	
   3.04434	-0.000493703	   3.02746	-0.00043537	    2.9593	-0.000463895	   3.01037	-0.000464323	   3.01037	  -11.6081	
   3.19086	-0.000491124	   3.17668	-0.000432825	   3.10712	-0.000460997	   3.15822	-0.000461649	   3.15822	  -11.5412	
   3.33707	-0.000488478	   3.32597	-0.000430246	   3.25519	-0.000458099	   3.30608	-0.000458941	   3.30608	  -11.4735	
   3.48375	-0.00048576	   3.47441	-0.000427607	   3.40302	-0.000455238	   3.45372	-0.000456202	   3.45372	   -11.405	
   3.63017	-0.000482968	   3.62255	-0.000424892	   3.55066	-0.000452434	   3.60113	-0.000453431	   3.60113	  -11.3358	
   3.77544	-0.000480116	   3.77118	-0.000422088	   3.69792	-0.00044969	   3.74818	-0.000450631	   3.74818	  -11.2658	
   3.92063	-0.000477216	   3.91836	-0.000419194	   3.84511	-0.000447003	    3.8947	-0.000447804	    3.8947	  -11.1951	
   4.06628	-0.00047428	   4.06543	-0.000416217	   3.99225	-0.000444357	   4.04132	-0.000444951	   4.04132	  -11.1238	
   4.21165	-0.000471322	   4.21172	-0.000413176	   4.13986	-0.000441721	   4.18774	-0.000442073	   4.18774	  -11.0518	
   4.35705	-0.000468351	   4.35756	-0.000410094	   4.28745	-0.000439058	   4.33402	-0.000439168	   4.33402	  -10.9792	
   4.50204	-0.000465378	   4.50325	-0.000406997	   4.43531	-0.000436328	    4.4802	-0.000436234	    4.4802	  -10.9059	
   4.64715	-0.00046242	    4.6491	-0.000403905	   4.58366	-0.000433502	   4.62664	-0.000433276	   4.62664	  -10.8319	
   4.79243	-0.000459474	   4.79535	-0.000400835	   4.73131	-0.000430565	   4.77303	-0.000430291	   4.77303	  -10.7573	
   4.93789	-0.000456531	   4.94178	-0.000397797	   4.87857	-0.000427503	   4.91941	-0.000427277	   4.91941	  -10.6819	
   5.08331	-0.000453577	    5.0884	-0.000394788	   5.02648	-0.000424321	   5.06606	-0.000424229	   5.06606	  -10.6057	
    5.2285	-0.00045061	   5.23475	-0.0003918	     5.175	-0.000421038	   5.21275	-0.000421149	   5.21275	  -10.5287	
   5.37422	-0.000447623	   5.38041	-0.000388817	   5.32387	-0.00041768	    5.3595	-0.00041804	    5.3595	   -10.451	
      5.52	-0.00044458	   5.52642	-0.000385816	   5.47189	-0.000414284	    5.5061	-0.000414893	    5.5061	  -10.3723	
   5.66513	-0.000441463	   5.67183	-0.000382774	   5.61916	-0.000410885	   5.65204	-0.000411707	   5.65204	  -10.2927	
    5.8102	-0.000438263	     5.816	-0.00037967	   5.76625	-0.000407517	   5.79748	-0.000408483	   5.79748	  -10.2121	
   5.95428	-0.000434971	   5.96075	-0.000376492	   5.91368	-0.000404201	   5.94291	-0.000405221	   5.94291	  -10.1305	
    6.0975	-0.000431568	    6.1056	-0.000373231	   6.06002	-0.000400951	    6.0877	-0.000401916	    6.0877	  -10.0479	
   6.23947	-0.000428065	   6.24961	-0.000369888	   6.20537	-0.000397765	   6.23149	-0.000398573	   6.23149	  -9.96432	
   6.38131	-0.000424482	   6.39433	-0.000366474	   6.35251	-0.000394626	   6.37605	-0.000395194	   6.37605	  -9.87985	
   6.52404	-0.000420834	   6.53879	-0.000363003	   6.49867	-0.00039151	    6.5205	-0.000391782	    6.5205	  -9.79456	
   6.66642	-0.000417151	   6.68304	-0.000359499	    6.6435	-0.000388384	   6.66432	-0.000388345	   6.66432	  -9.70863	
   6.80974	-0.000413457	   6.82617	-0.000355985	   6.78808	-0.000385214	     6.808	-0.000384885	     6.808	  -9.62214	
   6.95396	-0.000409797	   6.96904	-0.000352479	   6.93273	-0.000381971	   6.95191	-0.000381415	   6.95191	  -9.53539	
   7.09808	-0.000406177	   7.11148	-0.000348998	   7.07675	-0.000378627	   7.09544	-0.000377934	   7.09544	  -9.44835	
   7.24217	-0.000402609	   7.25356	-0.000345546	    7.2207	-0.000375169	   7.23881	-0.000374441	   7.23881	  -9.36103	
    7.3865	-0.000399119	   7.39559	-0.000342122	   7.36417	-0.000371598	   7.38209	-0.000370947	   7.38209	  -9.27366	
   7.53133	-0.000395672	   7.53691	-0.000338717	   7.50819	-0.000367927	   7.52548	-0.000367439	   7.52548	  -9.18598	
   7.67545	-0.000392233	   7.67737	-0.000335315	   7.65228	-0.00036418	   7.66837	-0.000363909	   7.66837	  -9.09773	
   7.81922	-0.00038879	   7.81879	-0.000331895	   7.79551	-0.000360387	   7.81117	-0.000360357	   7.81117	  -9.00894	
   7.96293	-0.000385311	   7.95993	-0.000328438	   7.93799	-0.000356578	   7.95362	-0.000356776	   7.95362	   -8.9194	
    8.1059	-0.00038175	   8.10063	-0.000324928	    8.0803	-0.000352787	   8.09561	-0.000353155	   8.09561	  -8.82887	
   8.24801	-0.00037808	   8.24096	-0.00032135	   8.22323	-0.000349037	    8.2374	-0.000349489	    8.2374	  -8.73723	
   8.39008	-0.000374309	   8.38102	-0.000317699	   8.36508	-0.000345346	   8.37873	-0.000345785	   8.37873	  -8.64462	
   8.53265	-0.000370435	   8.51991	-0.000313978	   8.50744	-0.000341714	      8.52	-0.000342042	      8.52	  -8.55106	
   8.67475	-0.000366457	   8.65874	-0.000310193	   8.64934	-0.000338132	   8.66095	-0.00033826	   8.66095	  -8.45651	
   8.81649	-0.000362411	   8.79781	-0.000306358	   8.79088	-0.000334577	   8.80172	-0.000334449	   8.80172	  -8.36122	
   8.95816	-0.000358335	   8.93668	-0.000302493	   8.93164	-0.000331021	   8.94216	-0.000330616	   8.94216	  -8.26541	
   9.10006	-0.000354236	   9.07518	-0.000298619	   9.07173	-0.000327432	   9.08233	-0.000326763	   9.08233	  -8.16906	
   9.24103	-0.000350141	   9.21412	-0.000294749	   9.21247	-0.000323779	   9.22254	-0.00032289	   9.22254	  -8.07224	
   9.37998	-0.000346083	   9.35232	-0.000290904	    9.3536	-0.000320039	   9.36197	-0.000319008	   9.36197	  -7.97521	
   9.51881	-0.000342057	   9.48941	-0.000287087	   9.49444	-0.000316201	   9.50089	-0.000315115	   9.50089	  -7.87787	
   9.65686	-0.00033806	   9.62603	-0.000283299	   9.63433	-0.000312263	   9.63907	-0.000311207	   9.63907	  -7.78019	
     9.794	-0.000334085	   9.76227	-0.00027953	   9.77387	-0.000308238	   9.77672	-0.000307284	   9.77672	  -7.68211	
   9.93015	-0.000330116	   9.89775	-0.000275765	   9.91364	-0.000304148	   9.91385	-0.000303343	   9.91385	  -7.58357	
   10.0661	-0.000326128	   10.0328	-0.000271987	   10.0529	-0.00030002	   10.0506	-0.000299378	   10.0506	  -7.48446	
   10.2023	-0.000322105	   10.1683	-0.000268172	   10.1912	-0.000295887	   10.1873	-0.000295388	   10.1873	   -7.3847	
   10.3361	-0.000318038	    10.304	-0.000264306	   10.3289	-0.000291774	    10.323	-0.000291373	    10.323	  -7.28432	
   10.4694	-0.000313911	   10.4388	-0.000260378	   10.4665	-0.000287706	   10.4582	-0.000287332	   10.4582	  -7.18329	
   10.6028	-0.000309721	   10.5733	-0.000256377	   10.6033	-0.000283697	   10.5931	-0.000283265	   10.5931	  -7.08162	
   10.7363	-0.000305476	   10.7075	-0.000252306	   10.7393	-0.000279745	   10.7277	-0.000279176	   10.7277	  -6.97939	
   10.8697	-0.00030118	   10.8417	-0.000248176	   10.8747	-0.00027584	    10.862	-0.000275065	    10.862	  -6.87663	
   11.0017	-0.000296844	   10.9755	-0.000243997	   11.0092	-0.000271962	   10.9954	-0.000270935	   10.9954	  -6.77336	
   11.1332	-0.000292492	   11.1089	-0.000239792	   11.1429	-0.000268085	   11.1283	-0.00026679	   11.1283	  -6.66974	
   11.2656	-0.000288133	   11.2419	-0.000235582	   11.2751	-0.000264183	   11.2609	-0.000262633	   11.2609	  -6.56582	
   11.3967	-0.00028378	   11.3757	-0.000231383	   11.4073	-0.000260228	   11.3933	-0.000258464	   11.3933	  -6.46159	
   11.5272	-0.000279444	    11.509	-0.000227208	   11.5387	-0.000256198	    11.525	-0.000254283	    11.525	  -6.35708	
   11.6567	-0.000275131	   11.6423	-0.000223065	   11.6694	-0.00025208	   11.6562	-0.000250092	   11.6562	  -6.25231	
   11.7857	-0.00027084	   11.7757	-0.000218958	   11.7993	-0.000247878	   11.7869	-0.000245892	   11.7869	  -6.14729	
   11.9152	-0.000266566	   11.9104	-0.000214879	   11.9288	-0.000243601	   11.9181	-0.000241682	   11.9181	  -6.04205	
    12.044	-0.000262312	   12.0441	-0.000210814	   12.0581	-0.000239267	   12.0487	-0.000237464	   12.0487	  -5.93661	
   12.1725	-0.00025806	   12.1768	-0.000206739	   12.1861	-0.000234903	   12.1785	-0.000233234	   12.1785	  -5.83085	
   12.3002	-0.000253791	   12.3093	-0.00020263	   12.3137	-0.000230536	   12.3077	-0.000228986	   12.3077	  -5.72464	
    12.427	-0.000249489	   12.4414	-0.000198474	   12.4409	-0.000226192	   12.4364	-0.000224718	   12.4364	  -5.61796	
   12.5541	-0.000245138	   12.5731	-0.000194257	   12.5679	-0.000221889	   12.5651	-0.000220428	   12.5651	  -5.51071	
    12.681	-0.00024072	   12.7038	-0.00018995	   12.6953	-0.000217637	   12.6934	-0.000216103	   12.6934	  -5.40256	
   12.8085	-0.00023623	   12.8338	-0.000185563	   12.8221	-0.000213439	   12.8214	-0.000211744	   12.8214	   -5.2936	
   12.9363	-0.000231662	   12.9635	-0.000181135	   12.9492	-0.000209284	   12.9497	-0.00020736	   12.9497	    -5.184	
   13.0635	-0.000227035	   13.0927	-0.00017665	   13.0755	-0.000205158	   13.0772	-0.000202948	   13.0772	   -5.0737	
    13.191	-0.000222407	   13.2217	-0.00017214	   13.2014	-0.00020104	   13.2047	-0.000198529	   13.2047	  -4.96323	
   13.3169	-0.000217783	     13.35	-0.00016765	   13.3265	-0.000196905	   13.3311	-0.000194113	   13.3311	  -4.85282	
   13.4421	-0.000213137	   13.4773	-0.000163211	   13.4512	-0.00019273	   13.4569	-0.000189693	   13.4569	  -4.74231	
   13.5667	-0.000208538	    13.604	-0.000158831	   13.5752	-0.000188494	    13.582	-0.000185288	    13.582	  -4.63219	
   13.6902	-0.000203974	   13.7299	-0.000154539	   13.6982	-0.000184182	   13.7061	-0.000180898	   13.7061	  -4.52245	
    13.814	-0.00019941	   13.8547	-0.000150342	   13.8213	-0.000179814	     13.83	-0.000176522	     13.83	  -4.41305	
    13.937	-0.000194847	    13.979	-0.000146216	   13.9436	-0.000175393	   13.9532	-0.000172152	   13.9532	   -4.3038	
   14.0588	-0.000190276	   14.1022	-0.000142135	   14.0653	-0.000170915	   14.0754	-0.000167775	   14.0754	  -4.19438	
   14.1802	-0.000185651	   14.2244	-0.000138074	   14.1861	-0.00016642	   14.1969	-0.000163382	   14.1969	  -4.08454	
   14.3012	-0.00018094	    14.347	-0.000133982	   14.3071	-0.000161939	   14.3184	-0.000158954	   14.3184	  -3.97385	
   14.4221	-0.000176158	   14.4688	-0.000129803	   14.4279	-0.000157449	   14.4396	-0.00015447	   14.4396	  -3.86175	
   14.5426	-0.000171281	   14.5896	-0.000125515	   14.5483	-0.000152911	   14.5602	-0.000149902	   14.5602	  -3.74756	
   14.6623	-0.000166308	   14.7106	-0.000121101	   14.6685	-0.00014836	   14.6805	-0.000145256	   14.6805	  -3.63141	
    14.782	-0.000161306	   14.8317	-0.00011656	   14.7875	-0.000143811	   14.8004	-0.000140559	   14.8004	  -3.51397	
   14.9009	-0.000156322	   14.9522	-0.000111903	   14.9064	-0.000139251	   14.9198	-0.000135825	   14.9198	  -3.39563	
   15.0191	-0.000151369	   15.0722	-0.000107172	    15.025	-0.000134697	   15.0388	-0.00013108	   15.0388	  -3.27699	
   15.1367	-0.000146489	   15.1916	-0.00010241	   15.1428	-0.000130151	    15.157	-0.00012635	    15.157	  -3.15875	
   15.2539	-0.000141752	   15.3103	-9.76464e-05	   15.2601	-0.000125617	   15.2748	-0.000121672	   15.2748	  -3.04179	
   15.3698	-0.000137165	   15.4286	-9.29409e-05	   15.3768	-0.000121106	   15.3917	-0.000117071	   15.3917	  -2.92677	
   15.4852	-0.00013271	   15.5461	-8.8317e-05	   15.4933	-0.000116624	   15.5082	-0.00011255	   15.5082	  -2.81376	
   15.6003	-0.000128334	   15.6624	-8.38003e-05	   15.6092	-0.000112159	    15.624	-0.000108098	    15.624	  -2.70245	
   15.7151	-0.00012399	   15.7774	-7.94101e-05	   15.7247	-0.00010768	   15.7391	-0.000103693	   15.7391	  -2.59233	
   15.8282	-0.00011961	   15.8929	-7.51297e-05	   15.8398	-0.000103184	   15.8536	-9.93079e-05	   15.8536	   -2.4827	
   15.9416	-0.000115137	   16.0079	-7.09306e-05	    15.954	-9.8684e-05	   15.9678	-9.49174e-05	   15.9678	  -2.37293	
   16.0538	-0.000110525	   16.1214	-6.67722e-05	    16.068	-9.41758e-05	   16.0811	-9.04908e-05	   16.0811	  -2.26227	
   16.1642	-0.000105732	   16.2346	-6.26098e-05	   16.1813	-8.96306e-05	   16.1934	-8.59909e-05	   16.1934	  -2.14977	
   16.2735	-0.000100755	   16.3473	-5.84054e-05	    16.294	-8.50565e-05	    16.305	-8.14055e-05	    16.305	  -2.03514	
    16.382	-9.56268e-05	   16.4597	-5.41198e-05	   16.4063	-8.04621e-05	    16.416	-7.67362e-05	    16.416	  -1.91841	
   16.4903	-9.03885e-05	   16.5711	-4.97307e-05	   16.5184	-7.58722e-05	   16.5266	-7.19971e-05	   16.5266	  -1.79993	
   16.5979	-8.50961e-05	   16.6815	-4.52257e-05	   16.6293	-7.12882e-05	   16.6362	-6.72033e-05	   16.6362	  -1.68008	
   16.7053	-7.98263e-05	   16.7913	-4.06077e-05	   16.7396	-6.67061e-05	   16.7454	-6.238e-05	   16.7454	   -1.5595	
    16.812	-7.46513e-05	   16.9003	-3.5904e-05	   16.8495	-6.21273e-05	    16.854	-5.75609e-05	    16.854	  -1.43902	
    16.918	-6.96408e-05	   17.0086	-3.1145e-05	   16.9587	-5.75611e-05	   16.9618	-5.27823e-05	   16.9618	  -1.31956	
   17.0235	-6.48291e-05	   17.1179	-2.63722e-05	   17.0677	-5.30176e-05	   17.0697	-4.8073e-05	   17.0697	  -1.20182	
   17.1281	-6.02216e-05	   17.2257	-2.16297e-05	   17.1753	-4.84943e-05	   17.1764	-4.34486e-05	   17.1764	  -1.08621	
   17.2325	-5.57929e-05	    17.333	-1.69597e-05	   17.2829	-4.39805e-05	   17.2828	-3.8911e-05	   17.2828	 -0.972776	
   17.3364	-5.15012e-05	   17.4396	-1.23899e-05	   17.3896	-3.94584e-05	   17.3885	-3.44499e-05	   17.3885	 -0.861246	
   17.4396	-4.7296e-05	    17.545	-7.93247e-06	    17.495	-3.49252e-05	   17.4932	-3.00512e-05	   17.4932	 -0.751281	
   17.5416	-4.30979e-05	   17.6492	-3.58862e-06	   17.5996	-3.03965e-05	   17.5968	-2.56944e-05	   17.5968	 -0.642359	
   17.6434	-3.88342e-05	   17.7526	6.61966e-07	    17.703	-2.58919e-05	   17.6997	-2.13547e-05	   17.6997	 -0.533868	
   17.7443	-3.44412e-05	   17.8551	4.84857e-06	   17.8058	-2.13858e-05	   17.8017	-1.69928e-05	   17.8017	  -0.42482	
   17.8449	-2.98787e-05	   17.9563	9.01163e-06	   17.9079	-1.68653e-05	    17.903	-1.25775e-05	    17.903	 -0.314437	
   17.9449	-2.51305e-05	   18.0568	1.31884e-05	    18.009	-1.23516e-05	   18.0035	-8.0979e-06	   18.0035	 -0.202447	
   18.0439	-2.02067e-05	   18.1561	1.74219e-05	   18.1097	-7.84125e-06	   18.1032	-3.54201e-06	   18.1032	-0.0885503	
   18.1418	-1.51402e-05	   18.2535	2.17394e-05	   18.2089	-3.33073e-06	   18.2014	1.08948e-06	   18.2014	 0.0272371	
   18.2394	-9.98467e-06	   18.3503	2.6155e-05	   18.3068	1.2098e-06	   18.2988	5.79337e-06	   18.2988	  0.144834	
    18.336	-4.81197e-06	   18.4463	3.06691e-05	   18.4036	5.77874e-06	   18.3953	1.05453e-05	   18.3953	  0.263632	
   18.4323	3.05766e-07	   18.5411	3.52629e-05	   18.4996	1.03665e-05	    18.491	1.53117e-05	    18.491	  0.382793	
   18.5274	5.31316e-06	   18.6357	3.9913e-05	   18.5947	1.49659e-05	   18.5859	2.0064e-05	   18.5859	  0.501601	
   18.6224	1.01705e-05	   18.7294	4.45819e-05	    18.688	1.95663e-05	   18.6799	2.47729e-05	   18.6799	  0.619323	
   18.7163	1.48514e-05	   18.8219	4.92297e-05	   18.7804	2.4166e-05	   18.7728	2.94157e-05	   18.7728	  0.735392	
   18.8095	1.93583e-05	   18.9138	5.38183e-05	    18.872	2.87673e-05	   18.8651	3.39813e-05	   18.8651	  0.849532	
   18.9021	2.3719e-05	   19.0054	5.83176e-05	   18.9629	3.33456e-05	   18.9568	3.84607e-05	   18.9568	  0.961518	
   18.9944	2.79806e-05	   19.0968	6.27144e-05	   19.0533	3.78786e-05	   19.0482	4.28579e-05	   19.0482	   1.07145	
   19.0846	3.22019e-05	   19.1869	6.70057e-05	   19.1434	4.23323e-05	   19.1383	 4.718e-05	   19.1383	    1.1795	
   19.1741	3.64452e-05	   19.2763	7.12025e-05	   19.2325	4.67072e-05	   19.2276	5.14516e-05	   19.2276	   1.28629	
   19.2626	4.07639e-05	   19.3649	7.53317e-05	   19.3209	5.10319e-05	   19.3162	5.57092e-05	   19.3162	   1.39273	
   19.3507	4.51996e-05	   19.4524	7.94254e-05	   19.4094	 5.529e-05	   19.4042	5.99717e-05	   19.4042	   1.49929	
   19.4382	4.97796e-05	   19.5386	8.35171e-05	   19.4969	5.94945e-05	   19.4912	6.42637e-05	   19.4912	   1.60659	
    19.525	5.45016e-05	    19.624	8.7639e-05	    19.584	6.36821e-05	   19.5777	6.86076e-05	   19.5777	   1.71519	
   19.6114	5.93414e-05	   19.7092	9.18179e-05	   19.6697	6.78984e-05	   19.6634	7.30192e-05	   19.6634	   1.82548	
   19.6963	6.42569e-05	   19.7941	9.60627e-05	   19.7545	7.2164e-05	   19.7483	7.74945e-05	   19.7483	   1.93736	
   19.7811	6.91927e-05	   19.8783	0.000100368	   19.8377	7.64972e-05	   19.8324	8.20194e-05	   19.8324	   2.05049	
   19.8655	7.40907e-05	   19.9618	0.000104732	   19.9202	8.09127e-05	   19.9158	8.65785e-05	   19.9158	   2.16446	
   19.9486	7.8893e-05	   20.0441	0.000109138	   20.0021	8.54068e-05	   19.9983	9.1146e-05	   19.9983	   2.27865	
   20.0313	8.35566e-05	   20.1259	0.000113564	   20.0829	8.99733e-05	     20.08	9.56979e-05	     20.08	   2.39245	
   20.1124	8.80554e-05	   20.2069	0.000117984	   20.1628	9.45911e-05	   20.1607	0.00010021	   20.1607	   2.50526	
   20.1927	9.23863e-05	   20.2875	0.000122379	   20.2417	9.92079e-05	   20.2406	0.000104658	   20.2406	   2.61645	
   20.2726	9.65701e-05	   20.3675	0.000126731	   20.3201	0.000103769	   20.3201	0.000109024	   20.3201	   2.72559	
   20.3511	0.000100646	   20.4469	0.000131024	   20.3976	0.00010825	   20.3985	0.000113307	   20.3985	   2.83267	
   20.4287	0.000104664	   20.5252	0.000135247	   20.4738	0.000112622	   20.4759	0.000117511	   20.4759	   2.93777	
   20.5047	0.000108681	   20.6033	 0.0001394	   20.5495	0.000116865	   20.5525	0.000121649	   20.5525	   3.04122	
   20.5796	0.000112754	   20.6798	0.000143488	    20.625	0.000120979	   20.6281	0.00012574	   20.6281	   3.14351	
   20.6548	0.000116926	    20.755	0.000147523	    20.699	0.000124985	   20.7029	0.000129811	   20.7029	   3.24528	
   20.7289	0.00012122	     20.83	0.000151526	   20.7723	0.00012892	   20.7771	0.000133888	   20.7771	   3.34721	
   20.8029	0.000125639	    20.904	0.000155523	   20.8445	0.000132828	   20.8505	0.000137997	   20.8505	   3.44993	
   20.8755	0.000130171	   20.9764	0.000159521	   20.9158	0.000136756	   20.9226	0.000142149	   20.9226	   3.55373	
   20.9469	0.000134779	    21.049	0.000163523	   20.9865	0.000140731	   20.9941	0.000146344	   20.9941	    3.6586	
   21.0181	0.000139419	   21.1217	0.000167549	   21.0565	0.000144781	   21.0654	0.000150583	   21.0654	   3.76457	
   21.0878	0.000144036	   21.1934	0.000171597	   21.1262	0.000148931	   21.1358	0.000154854	   21.1358	   3.87136	
   21.1573	0.000148571	    21.264	0.000175654	    21.194	0.000153175	   21.2051	0.000159133	   21.2051	   3.97833	
   21.2256	  0.000153	   21.3341	0.000179674	   21.2607	0.000157487	   21.2735	0.000163387	   21.2735	   4.08467	
   21.2927	0.000157308	   21.4043	0.000183648	   21.3275	0.000161843	   21.3415	0.000167599	   21.3415	   4.18999	
    21.359	0.000161474	   21.4735	0.000187597	   21.3937	0.000166204	   21.4087	0.000171758	   21.4087	   4.29396	
   21.4238	0.000165507	   21.5425	0.000191472	   21.4597	0.00017052	   21.4753	0.000175833	   21.4753	   4.39583	
   21.4874	0.000169451	   21.6102	0.000195263	   21.5253	0.000174767	    21.541	0.000179827	    21.541	   4.49568	
   21.5494	0.000173335	   21.6766	0.00019899	   21.5903	0.000178921	   21.6054	0.000183749	   21.6054	   4.59372	
   21.6111	0.000177187	   21.7416	0.000202686	   21.6545	0.00018296	   21.6691	0.000187611	   21.6691	   4.69028	
   21.6724	0.000181056	   21.8058	0.000206316	   21.7186	0.000186887	   21.7323	0.00019142	   21.7323	   4.78549	
    21.733	0.000184977	   21.8688	0.000209894	   21.7822	0.000190728	   21.7947	 0.0001952	   21.7947	   4.87999	
   21.7929	0.00018896	   21.9307	0.000213499	   21.8452	0.000194505	   21.8563	0.000198988	   21.8563	    4.9747	
    21.852	0.000193011	   21.9923	0.000217128	   21.9068	0.000198231	    21.917	0.00020279	    21.917	   5.06975	
    21.911	0.00019713	   22.0528	0.00022076	    21.968	0.000201949	   21.9772	0.000206613	   21.9772	   5.16532	
   21.9688	0.000201284	   22.1126	0.00022445	   22.0291	0.000205698	   22.0368	0.000210478	   22.0368	   5.26194	
   22.0259	0.000205453	   22.1711	0.000228203	   22.0893	0.000209495	   22.0954	0.000214384	   22.0954	   5.35959	
   22.0823	0.000209622	   22.2287	0.000231979	   22.1498	0.000213362	   22.1536	0.000218321	   22.1536	   5.45802	
   22.1382	0.000213759	   22.2849	0.000235778	   22.2086	0.000217315	   22.2106	0.000222284	   22.2106	    5.5571	
   22.1939	0.000217838	   22.3408	0.000239589	   22.2661	0.00022134	   22.2669	0.000226256	   22.2669	    5.6564	
   22.2493	0.000221845	   22.3949	0.000243381	   22.3227	0.000225417	   22.3223	0.000230214	   22.3223	   5.75536	
   22.3043	0.000225778	   22.4471	0.000247106	   22.3785	0.000229523	   22.3766	0.000234136	   22.3766	    5.8534	
   22.3581	0.000229633	   22.4986	0.000250774	   22.4338	0.000233626	   22.4302	0.000238011	   22.4302	   5.95028	
   22.4113	0.000233422	   22.5494	0.00025435	   22.4879	0.000237682	   22.4829	0.000241818	   22.4829	   6.04545	
   22.4644	0.000237165	   22.5988	0.000257788	   22.5409	0.000241661	   22.5347	0.000245538	   22.5347	   6.13845	
   22.5165	0.000240875	   22.6473	0.000261116	   22.5936	0.000245546	   22.5858	0.000249179	   22.5858	   6.22947	
   22.5676	0.000244572	   22.6955	0.000264336	   22.6456	0.000249316	   22.6362	0.000252741	   22.6362	   6.31853	
   22.6171	0.000248279	   22.7431	0.000267458	   22.6965	0.000252973	   22.6856	0.000256236	   22.6856	   6.40591	
   22.6655	0.000252006	   22.7904	0.000270512	   22.7466	0.000256536	   22.7342	0.000259685	   22.7342	   6.49211	
   22.7131	0.000255754	   22.8362	0.000273549	   22.7965	0.00026003	   22.7819	0.000263111	   22.7819	   6.57778	
   22.7595	0.000259527	   22.8822	0.000276593	   22.8446	0.000263489	   22.8288	0.000266537	   22.8288	   6.66341	
   22.8055	0.000263314	   22.9276	0.00027968	   22.8908	0.000266948	   22.8747	0.000269981	   22.8747	   6.74952	
   22.8494	0.000267102	    22.973	0.000282852	   22.9367	0.000270437	   22.9197	0.000273464	   22.9197	   6.83659	
   22.8923	0.000270873	   23.0176	0.000286117	   22.9817	0.000273973	   22.9638	0.000276988	   22.9638	   6.92469	
   22.9345	0.000274615	   23.0605	0.000289465	   23.0261	0.00027757	    23.007	0.00028055	    23.007	   7.01375	
   22.9761	0.000278312	   23.1024	0.000292873	   23.0694	0.000281231	   23.0493	0.000284139	   23.0493	   7.10347	
   23.0168	0.000281952	   23.1434	0.000296322	    23.112	0.000284933	   23.0907	0.000287736	   23.0907	   7.19339	
   23.0558	0.000285536	   23.1833	0.000299779	   23.1545	0.000288654	   23.1312	0.000291323	   23.1312	   7.28307	
   23.0932	0.000289061	   23.2221	0.000303248	   23.1962	0.000292369	   23.1705	0.000294893	   23.1705	   7.37232	
   23.1304	0.000292535	   23.2598	0.000306692	   23.2363	0.000296042	   23.2088	0.000298423	   23.2088	   7.46057	
   23.1668	0.000295968	   23.2964	0.000310079	   23.2753	0.000299648	   23.2462	0.000301898	   23.2462	   7.54746	
   23.2021	0.000299373	   23.3318	0.000313408	   23.3135	0.000303167	   23.2824	0.000305316	   23.2824	    7.6329	
   23.2361	0.000302759	   23.3665	0.000316697	   23.3506	0.00030659	   23.3177	0.000308682	   23.3177	   7.71705	
    23.269	0.000306145	   23.4014	0.000319945	   23.3866	0.000309913	   23.3523	0.000312001	   23.3523	   7.80003	
   23.3015	0.000309543	   23.4354	0.00032315	   23.4216	0.000313151	   23.3861	0.000315281	   23.3861	   7.88204	
   23.3328	0.000312959	   23.4688	0.000326331	   23.4554	0.000316326	    23.419	0.000318539	    23.419	   7.96346	
   23.3632	0.000316394	   23.4997	0.000329497	   23.4881	0.000319461	   23.4504	0.000321784	   23.4504	    8.0446	
   23.3931	0.00031988	   23.5308	0.000332658	   23.5197	0.000322588	   23.4812	0.000325042	   23.4812	   8.12605	
   23.4217	0.000323413	   23.5618	0.000335822	   23.5502	0.000325737	   23.5112	0.000328324	   23.5112	    8.2081	
   23.4498	0.000326977	   23.5928	0.000338987	   23.5795	0.000328926	   23.5407	0.00033163	   23.5407	   8.29076	
   23.4767	0.00033052	   23.6228	0.000342131	   23.6077	0.000332168	    23.569	0.00033494	    23.569	    8.3735	
   23.5025	0.00033403	   23.6512	0.000345252	   23.6352	0.000335464	   23.5963	0.000338249	   23.5963	   8.45621	
   23.5277	0.00033749	   23.6779	0.000348343	   23.6608	0.000338805	   23.6222	0.000341546	   23.6222	   8.53865	
   23.5524	0.000340864	   23.7041	0.000351382	   23.6858	0.000342171	   23.6474	0.000344806	   23.6474	   8.62014	
   23.5764	0.000344136	   23.7294	0.000354357	   23.7096	0.000345541	   23.6718	0.000348011	   23.6718	   8.70028	
   23.5989	0.00034731	    23.754	0.00035727	   23.7328	0.000348887	   23.6953	0.000351156	   23.6953	   8.77889	
   23.6193	0.000350403	    23.777	0.000360123	   23.7549	0.000352178	   23.7171	0.000354235	   23.7171	   8.85587	
   23.6393	0.000353436	   23.7984	0.000362919	   23.7754	0.000355394	   23.7377	0.00035725	   23.7377	   8.93124	
   23.6587	0.000356427	   23.8198	0.000365677	   23.7948	0.000358522	   23.7578	0.000360209	   23.7578	   9.00522	
   23.6776	0.000359411	   23.8396	0.000368407	   23.8132	0.000361554	   23.7768	0.000363124	   23.7768	    9.0781	
    23.696	0.000362404	   23.8578	0.000371114	   23.8301	0.000364496	   23.7947	0.000366005	   23.7947	   9.15012	
   23.7124	0.000365434	   23.8747	0.000373817	   23.8454	0.000367364	   23.8108	0.000368872	   23.8108	    9.2218	
   23.7283	0.000368534	   23.8901	0.000376535	   23.8597	0.000370183	    23.826	0.00037175	    23.826	   9.29376	
   23.7438	0.000371695	   23.9056	0.00037927	    23.874	0.000372976	   23.8411	0.000374647	   23.8411	   9.36617	
   23.7583	0.000374903	   23.9198	0.000382021	   23.8879	0.000375772	   23.8553	0.000377565	   23.8553	   9.43913	
    23.773	0.000378143	   23.9326	0.000384787	   23.9001	0.000378592	   23.8686	0.000380507	   23.8686	   9.51269	
   23.7863	0.000381394	   23.9447	0.000387549	   23.9121	0.000381451	    23.881	0.000383465	    23.881	   9.58663	
   23.7992	0.000384625	   23.9555	0.000390306	   23.9232	0.000384355	   23.8926	0.000386429	   23.8926	   9.66072	
   23.8111	0.000387802	   23.9661	0.000393064	   23.9336	0.000387299	   23.9036	0.000389388	   23.9036	   9.73471	
   23.8219	0.000390907	   23.9763	0.000395806	   23.9432	0.000390266	   23.9138	0.000392326	   23.9138	   9.80816	
   23.8331	0.000393917	   23.9853	0.000398496	   23.9514	0.000393231	   23.9232	0.000395215	   23.9232	   9.88037	
   23.8438	0.00039683	   23.9941	0.000401164	    23.959	0.000396172	   23.9323	0.000398055	   23.9323	   9.95138	
   23.8542	0.000399658	   24.0025	0.000403804	   23.9659	0.000399061	   23.9409	0.000400841	   23.9409	    10.021	
   23.8636	0.000402407	   24.0098	0.000406382	   23.9723	0.000401876	   23.9486	0.000403555	   23.9486	   10.0889	
   23.8719	0.000405096	   24.0167	0.000408896	   23.9781	0.000404604	   23.9556	0.000406199	   23.9556	    10.155	
    23.879	0.000407758	   24.0226	0.000411358	   23.9829	0.000407241	   23.9615	0.000408786	   23.9615	   10.2196	
   23.8851	0.000410422	   24.0268	0.000413766	   23.9865	0.000409792	   23.9662	0.000411327	   23.9662	   10.2832	
   23.8896	0.000413112	   24.0292	0.00041612	   23.9893	0.000412271	   23.9694	0.000413834	   23.9694	   10.3459	
    23.894	0.000415844	   24.0301	0.000418444	    23.991	0.000414703	   23.9717	0.00041633	   23.9717	   10.4083	
   23.8974	0.000418628	   24.0294	0.000420743	   23.9915	0.00041711	   23.9728	0.000418827	   23.9728	   10.4707	
   23.8994	0.000421455	   24.0268	0.000423022	   23.9911	0.00041952	   23.9724	0.000421332	   23.9724	   10.5333	
      23.9	0.000424311	   24.0231	0.000425314	   23.9899	0.000421955	    23.971	0.00042386	    23.971	   10.5965	
   23.8998	0.000427182	   24.0187	0.000427641	   23.9882	0.000424428	   23.9689	0.000426417	   23.9689	   10.6604	
   23.8992	0.000430036	   24.0127	0.000430003	   23.9859	0.000426947	   23.9659	0.000428995	   23.9659	   10.7249	
   23.8975	0.000432853	   24.0061	0.000432407	   23.9816	0.000429506	   23.9617	0.000431589	   23.9617	   10.7897	
   23.8939	0.000435617	   23.9989	0.000434851	   23.9762	0.000432092	   23.9564	0.000434187	   23.9564	   10.8547	
    23.889	0.000438314	   23.9908	0.000437317	   23.9702	0.000434684	     23.95	0.000436772	     23.95	   10.9193	
   23.8827	0.000440935	   23.9822	0.000439777	   23.9639	0.00043726	   23.9429	0.000439324	   23.9429	   10.9831	
   23.8756	0.000443482	   23.9734	0.000442212	   23.9571	0.000439794	   23.9354	0.000441829	   23.9354	   11.0457	
   23.8673	0.00044597	   23.9628	0.000444591	   23.9493	0.000442264	   23.9265	0.000444275	   23.9265	   11.1069	
   23.8576	0.000448416	   23.9507	0.000446887	   23.9408	0.000444655	   23.9163	0.000446652	   23.9163	   11.1663	
   23.8476	0.000450842	   23.9385	0.000449097	   23.9315	0.00044696	   23.9058	0.000448966	   23.9058	   11.2242	
   23.8366	0.000453273	    23.927	0.000451216	   23.9208	0.000449181	   23.8948	0.000451223	   23.8948	   11.2806	
    23.825	0.000455724	   23.9147	0.000453238	   23.9096	0.000451331	   23.8831	0.000453431	   23.8831	   11.3358	
   23.8126	0.000458205	   23.9024	0.000455178	   23.8966	0.000453426	   23.8705	0.000455603	   23.8705	   11.3901	
   23.7988	0.000460723	   23.8886	0.000457064	   23.8823	0.00045549	   23.8566	0.000457759	   23.8566	    11.444	
   23.7845	0.000463272	   23.8735	0.00045892	   23.8665	0.000457547	   23.8415	0.000459913	   23.8415	   11.4978	
   23.7686	0.00046584	   23.8581	0.000460768	   23.8498	0.000459615	   23.8255	0.000462074	   23.8255	   11.5519	
   23.7516	0.00046841	    23.841	0.000462634	   23.8318	0.000461712	   23.8082	0.000464252	   23.8082	   11.6063	
   23.7329	0.000470967	   23.8229	0.000464531	   23.8132	0.000463843	   23.7897	0.000466447	   23.7897	   11.6612	
   23.7128	0.000473484	   23.8041	0.000466463	   23.7929	0.000466007	   23.7699	0.000468652	   23.7699	   11.7163	
   23.6917	0.000475944	   23.7845	0.000468433	   23.7718	0.000468196	   23.7493	0.000470858	   23.7493	   11.7714	
   23.6695	0.000478334	   23.7637	0.000470431	   23.7507	0.000470395	    23.728	0.000473053	    23.728	   11.8263	
   23.6462	0.000480647	   23.7415	0.000472432	   23.7285	0.000472581	   23.7054	0.00047522	   23.7054	   11.8805	
   23.6228	0.000482885	   23.7184	0.000474421	   23.7059	0.00047473	   23.6824	0.000477345	   23.6824	   11.9336	
   23.5988	0.00048506	   23.6954	0.000476376	   23.6821	0.000476821	   23.6588	0.000479419	   23.6588	   11.9855	
   23.5744	0.000487187	   23.6713	0.000478275	   23.6577	0.000478842	   23.6345	0.000481435	   23.6345	   12.0359	
   23.5489	0.000489284	   23.6467	0.000480103	   23.6332	0.000480787	   23.6096	0.000483392	   23.6096	   12.0848	
   23.5219	0.000491373	   23.6214	0.000481855	   23.6073	0.000482658	   23.5835	0.000485296	   23.5835	   12.1324	
   23.4941	0.000493473	   23.5943	0.000483535	   23.5802	0.000484464	   23.5562	0.000487157	   23.5562	   12.1789	
   23.4651	0.000495594	   23.5668	0.000485153	    23.552	0.00048622	    23.528	0.000488989	    23.528	   12.2247	
    23.435	0.000497741	    23.538	0.000486728	   23.5229	0.000487948	   23.4986	0.000490806	   23.4986	   12.2701	
    23.405	0.000499914	   23.5085	0.000488281	    23.493	0.000489667	   23.4688	0.000492621	   23.4688	   12.3155	
   23.3733	0.000502102	   23.4774	0.000489829	   23.4612	0.000491399	   23.4373	0.000494444	   23.4373	   12.3611	
   23.3403	0.000504292	   23.4454	0.000491394	    23.428	0.000493159	   23.4046	0.000496282	   23.4046	    12.407	
   23.3067	0.000506463	   23.4129	0.000492992	   23.3933	0.000494953	    23.371	0.000498136	    23.371	   12.4534	
   23.2727	0.000508599	   23.3792	0.000494628	   23.3579	0.000496782	   23.3366	0.000500003	   23.3366	   12.5001	
   23.2379	0.00051068	   23.3448	0.000496302	   23.3214	0.00049864	   23.3013	0.000501874	   23.3013	   12.5468	
   23.2015	0.000512695	   23.3089	0.000498002	   23.2838	0.000500511	   23.2647	0.000503736	   23.2647	   12.5934	
   23.1646	0.000514642	   23.2716	0.000499713	   23.2451	0.000502377	   23.2271	0.000505577	   23.2271	   12.6394	
   23.1258	0.000516524	   23.2332	0.000501411	   23.2057	0.000504216	   23.1883	0.000507383	   23.1883	   12.6846	
   23.0865	0.00051835	    23.194	0.000503076	    23.165	0.000506012	   23.1485	0.000509146	   23.1485	   12.7287	
   23.0458	0.000520137	   23.1533	0.000504691	   23.1226	0.000507752	   23.1072	0.00051086	   23.1072	   12.7715	
   23.0034	 0.0005219	   23.1122	0.000506237	   23.0799	0.000509428	   23.0652	0.000512522	   23.0652	    12.813	
   22.9601	0.000523655	   23.0693	0.000507707	   23.0359	0.000511041	   23.0218	0.000514135	   23.0218	   12.8534	
   22.9161	0.000525418	   23.0255	0.000509104	    22.991	0.000512598	   22.9775	0.000515706	   22.9775	   12.8927	
   22.8716	0.000527197	   22.9811	0.000510433	   22.9461	0.000514112	   22.9329	0.000517247	   22.9329	   12.9312	
    22.826	0.000528994	   22.9363	0.000511707	   22.9012	0.000515603	   22.8878	0.000518768	   22.8878	   12.9692	
   22.7794	0.000530808	   22.8906	0.000512946	   22.8554	0.000517088	   22.8418	0.00052028	   22.8418	    13.007	
   22.7321	0.000532628	   22.8442	0.000514172	   22.8085	0.000518581	    22.795	0.000521794	    22.795	   13.0448	
   22.6842	0.000534445	   22.7973	0.000515402	   22.7612	0.000520095	   22.7476	0.000523314	   22.7476	   13.0829	
   22.6346	0.000536243	   22.7486	0.000516651	   22.7132	0.000521638	   22.6988	0.000524844	   22.6988	   13.1211	
   22.5844	0.000538008	   22.6999	0.000517931	   22.6637	0.000523208	   22.6493	0.000526382	   22.6493	   13.1596	
   22.5323	0.000539725	   22.6505	0.000519239	   22.6133	0.000524797	   22.5987	0.000527921	   22.5987	    13.198	
   22.4795	0.000541389	      22.6	0.000520572	   22.5623	0.000526396	   22.5473	0.000529452	   22.5473	   13.2363	
   22.4261	0.000542998	   22.5472	0.000521919	   22.5116	0.000527987	    22.495	0.000530968	    22.495	   13.2742	
   22.3724	0.000544556	   22.4939	0.00052326	   22.4597	0.000529554	    22.442	0.000532456	    22.442	   13.3114	
   22.3186	0.000546072	   22.4395	0.000524578	    22.407	0.000531079	   22.3883	0.000533909	   22.3883	   13.3477	
   22.2631	0.000547557	   22.3835	0.000525856	   22.3538	0.000532548	   22.3335	0.00053532	   22.3335	    13.383	
   22.2067	0.000549025	   22.3268	0.00052708	   22.2995	0.000533956	   22.2777	0.000536687	   22.2777	   13.4172	
   22.1508	0.000550487	   22.2698	0.000528241	   22.2444	0.000535304	   22.2217	0.000538011	   22.2217	   13.4503	
   22.0942	0.000551956	    22.212	0.000529338	   22.1888	0.000536598	    22.165	0.000539297	    22.165	   13.4824	
   22.0378	0.000553437	   22.1529	0.000530378	   22.1321	0.000537851	   22.1076	0.000540555	   22.1076	   13.5139	
   21.9801	0.000554937	    22.093	0.00053137	   22.0738	0.000539079	    22.049	0.000541795	    22.049	   13.5449	
   21.9209	0.000556451	   22.0324	0.000532328	    22.015	0.000540299	   21.9894	0.000543026	   21.9894	   13.5756	
   21.8615	0.000557974	   21.9705	0.000533269	   21.9553	0.000541526	   21.9291	0.000544256	   21.9291	   13.6064	
   21.8009	0.000559496	   21.9091	0.00053421	   21.8954	0.000542771	   21.8685	0.000545493	   21.8685	   13.6373	
   21.7393	0.000561003	   21.8464	0.000535167	   21.8341	0.000544044	   21.8066	0.000546738	   21.8066	   13.6684	
   21.6771	0.000562483	   21.7831	0.000536152	   21.7717	0.000545345	    21.744	0.000547993	    21.744	   13.6998	
   21.6145	0.000563921	   21.7196	0.000537169	   21.7086	0.000546663	   21.6809	0.000549251	   21.6809	   13.7313	
    21.552	0.000565309	   21.6561	0.000538213	   21.6453	0.00054799	   21.6178	0.000550504	   21.6178	   13.7626	
   21.4889	0.000566645	   21.5912	0.000539277	   21.5803	0.00054931	   21.5535	0.000551744	   21.5535	   13.7936	
   21.4248	0.000567934	   21.5253	0.000540346	   21.5151	0.000550606	   21.4884	0.000552962	   21.4884	    13.824	
   21.3599	0.000569182	   21.4594	0.000541403	   21.4488	0.000551865	   21.4227	0.00055415	   21.4227	   13.8537	
   21.2936	0.000570401	   21.3925	0.000542429	   21.3819	0.000553077	    21.356	0.000555302	    21.356	   13.8826	
   21.2263	0.000571605	   21.3247	0.000543412	   21.3136	0.000554239	   21.2882	0.000556419	   21.2882	   13.9105	
   21.1578	0.000572808	   21.2564	0.000544347	   21.2448	0.000555349	   21.2197	0.000557501	   21.2197	   13.9375	
   21.0874	0.000574022	   21.1876	0.000545225	   21.1759	0.000556419	   21.1503	0.000558555	   21.1503	   13.9639	
    21.017	0.000575255	   21.1175	0.000546052	    21.106	0.000557457	   21.0802	0.000559588	   21.0802	   13.9897	
   20.9452	0.000576509	   21.0482	0.000546839	   21.0358	0.00055848	   21.0098	0.000560609	   21.0098	   14.0152	
   20.8732	0.000577778	    20.977	0.000547597	   20.9649	0.000559498	   20.9384	0.000561624	   20.9384	   14.0406	
      20.8	0.000579052	   20.9048	0.000548341	   20.8924	0.000560523	   20.8657	0.000562639	   20.8657	    14.066	
   20.7249	0.000580317	   20.8314	0.000549088	   20.8197	0.000561563	    20.792	0.000563656	    20.792	   14.0914	
   20.6493	0.000581556	   20.7565	0.000549854	   20.7454	0.000562621	   20.7171	0.000564677	   20.7171	   14.1169	
   20.5725	0.000582754	   20.6811	0.000550643	   20.6702	0.000563697	   20.6413	0.000565698	   20.6413	   14.1424	
   20.4948	0.000583905	    20.604	0.000551455	   20.5945	0.000564783	   20.5644	0.000566714	   20.5644	   14.1679	
   20.4172	0.000584972	   20.5255	0.00055229	   20.5177	0.00056587	   20.4868	0.000567711	   20.4868	   14.1928	
   20.3393	0.000585915	    20.446	0.000553135	   20.4406	0.000566948	   20.4086	0.000568666	   20.4086	   14.2167	
   20.2613	0.000586773	   20.3644	0.000553978	   20.3622	0.000568005	   20.3293	0.000569586	   20.3293	   14.2396	
   20.1825	0.000587605	    20.282	0.000554804	   20.2831	0.000569029	   20.2492	0.000570479	   20.2492	    14.262	
   20.1021	0.000588404	   20.1982	0.000555598	   20.2034	0.000570014	   20.1679	0.000571338	   20.1679	   14.2835	
    20.021	0.000589212	   20.1134	0.000556374	   20.1219	0.000570957	   20.0854	0.000572181	   20.0854	   14.3045	
   19.9386	0.000590085	   20.0283	0.000557123	   20.0397	0.000571856	   20.0022	0.000573022	   20.0022	   14.3255	
   19.8556	0.000591067	   19.9421	0.000557826	   19.9558	0.000572715	   19.9178	0.00057387	   19.9178	   14.3467	
   19.7719	0.000592177	   19.8554	0.000558455	   19.8713	0.000573543	   19.8329	0.000574725	   19.8329	   14.3681	
   19.6868	0.000593408	   19.7674	0.00055903	   19.7858	0.000574343	   19.7467	0.000575594	   19.7467	   14.3898	
   19.6007	0.00059472	   19.6796	0.000559557	      19.7	0.000575127	   19.6601	0.000576468	   19.6601	   14.4117	
   19.5139	0.000596067	   19.5911	0.000560027	   19.6144	0.000575903	   19.5731	0.000577333	   19.5731	   14.4333	
   19.4263	0.000597407	   19.5025	0.000560445	   19.5271	0.000576676	   19.4853	0.000578176	   19.4853	   14.4544	
   19.3386	0.000598704	   19.4131	0.000560825	   19.4385	0.00057745	   19.3967	0.000578993	   19.3967	   14.4748	
   19.2503	0.000599882	   19.3221	0.000561185	   19.3491	0.000578225	   19.3072	0.000579764	   19.3072	   14.4941	
   19.1617	0.000600871	   19.2305	0.000561551	   19.2583	  0.000579	   19.2168	0.000580474	   19.2168	   14.5119	
   19.0727	0.00060166	   19.1385	0.000561938	   19.1669	0.000579773	    19.126	0.000581124	    19.126	   14.5281	
   18.9826	0.000602252	   19.0457	0.000562353	   19.0748	0.000580531	   19.0344	0.000581712	   19.0344	   14.5428	
   18.8917	0.000602668	   18.9518	0.000562803	   18.9826	0.000581257	    18.942	0.000582243	    18.942	   14.5561	
   18.8004	0.000602949	   18.8571	0.000563299	   18.8896	0.000581956	    18.849	0.000582735	    18.849	   14.5684	
   18.7083	0.000603154	    18.762	0.000563847	   18.7956	0.000582636	   18.7553	0.000583212	   18.7553	   14.5803	
   18.6154	0.000603356	   18.6663	0.000564432	   18.7012	0.000583279	    18.661	0.000583689	    18.661	   14.5922	
   18.5217	0.000603631	   18.5701	0.000565038	   18.6056	0.00058387	   18.5658	0.000584179	   18.5658	   14.6045	
   18.4275	0.00060404	   18.4731	0.000565633	   18.5089	0.000584446	   18.4698	0.000584706	   18.4698	   14.6176	
   18.3324	0.000604605	   18.3749	0.000566204	   18.4111	0.000584994	   18.3728	0.000585268	   18.3728	   14.6317	
   18.2365	0.000605332	    18.276	0.000566741	   18.3125	0.000585495	    18.275	0.000585856	    18.275	   14.6464	
   18.1404	0.000606211	   18.1767	0.000567216	   18.2135	0.000585962	   18.1768	0.000586463	   18.1768	   14.6616	
   18.0432	0.000607208	    18.077	0.00056762	   18.1138	0.000586391	    18.078	0.000587073	    18.078	   14.6768	
   17.9451	0.000608258	   17.9767	0.000567955	   18.0139	0.000586782	   17.9786	0.000587665	   17.9786	   14.6916	
   17.8464	0.000609293	   17.8763	0.000568233	   17.9132	0.000587138	   17.8786	0.000588221	   17.8786	   14.7055	
   17.7468	0.00061025	   17.7755	0.000568467	   17.8124	0.000587479	   17.7783	0.000588732	   17.7783	   14.7183	
   17.6467	0.000611074	   17.6724	0.000568663	   17.7108	0.000587804	   17.6766	0.00058918	   17.6766	   14.7295	
   17.5453	0.00061174	   17.5688	0.000568846	   17.6089	0.000588114	   17.5743	0.000589567	   17.5743	   14.7392	
   17.4434	0.000612237	    17.465	0.000569029	   17.5062	0.000588445	   17.4715	0.000589904	   17.4715	   14.7476	
   17.3402	0.000612572	    17.361	0.000569224	   17.4023	0.000588803	   17.3678	 0.0005902	   17.3678	    14.755	
   17.2357	0.000612776	   17.2561	0.00056945	   17.2992	0.000589186	   17.2637	0.000590471	   17.2637	   14.7618	
   17.1302	0.000612908	   17.1498	0.000569714	   17.1962	0.000589604	   17.1587	0.000590742	   17.1587	   14.7686	
   17.0237	0.000613026	   17.0434	0.000570004	   17.0922	0.000590046	   17.0531	0.000591025	   17.0531	   14.7756	
   16.9169	0.00061318	   16.9363	0.000570313	   16.9881	0.000590495	   16.9471	0.000591329	   16.9471	   14.7832	
   16.8097	0.000613418	   16.8291	0.000570629	   16.8838	0.000590941	   16.8409	0.000591662	   16.8409	   14.7916	
   16.7011	0.000613771	   16.7215	0.000570928	   16.7789	0.000591368	   16.7339	0.000592022	   16.7339	   14.8006	
   16.5925	0.000614325	   16.6128	0.000571189	   16.6735	0.000591758	   16.6263	0.000592424	   16.6263	   14.8106	
   16.4825	0.000615052	   16.5037	0.000571404	   16.5667	0.000592094	   16.5177	0.00059285	   16.5177	   14.8213	
   16.3719	0.00061592	   16.3939	0.000571562	   16.4602	0.00059238	   16.4086	0.000593287	   16.4086	   14.8322	
   16.2613	0.000616849	   16.2837	0.000571658	   16.3531	0.000592605	   16.2994	0.000593704	   16.2994	   14.8426	
   16.1509	0.000617786	    16.173	0.000571697	   16.2444	0.000592756	   16.1894	0.000594079	   16.1894	    14.852	
   16.0419	0.000618666	    16.062	0.000571685	   16.1347	0.000592839	   16.0795	0.000594397	   16.0795	   14.8599	
   15.9355	0.000619385	   15.9498	0.000571631	   16.0237	0.000592865	   15.9697	0.000594627	   15.9697	   14.8657	
   15.8274	0.000619903	    15.838	0.000571551	   15.9125	0.000592841	   15.8593	0.000594765	   15.8593	   14.8691	
   15.7165	0.000620197	   15.7263	0.000571466	   15.8004	0.000592806	   15.7478	0.000594823	   15.7478	   14.8706	
   15.6065	0.000620276	   15.6136	0.000571393	   15.6881	0.000592811	   15.6361	0.000594827	   15.6361	   14.8707	
   15.4989	0.00062018	   15.5009	0.000571278	   15.5752	0.000592857	    15.525	0.000594771	    15.525	   14.8693	
   15.3891	0.000619952	    15.387	0.000571145	   15.4617	0.00059295	   15.4126	0.000594682	   15.4126	   14.8671	
    15.273	0.000619653	   15.2725	0.000571021	   15.3469	0.000593116	   15.2975	0.000594597	   15.2975	   14.8649	
   15.1547	0.000619372	   15.1571	0.000570951	   15.2314	0.000593346	    15.181	0.000594557	    15.181	   14.8639	
   15.0379	0.000619214	   15.0412	0.000570928	   15.1162	0.000593611	   15.0651	0.000594584	   15.0651	   14.8646	
   14.9197	0.000619271	   14.9253	0.000570951	   14.9999	0.000593883	   14.9483	0.000594702	   14.9483	   14.8675	
   14.7972	0.000619553	   14.8067	0.000571063	   14.8827	0.000594151	   14.8289	0.000594922	   14.8289	   14.8731	
   14.6726	0.000620063	   14.6881	0.000571272	   14.7648	0.00059438	   14.7085	0.000595238	   14.7085	    14.881	
   14.5486	0.000620805	   14.5684	0.000571575	    14.646	0.000594541	   14.5877	0.00059564	   14.5877	    14.891	
   14.4237	0.00062173	   14.4486	0.000571955	   14.5264	0.00059465	   14.4662	0.000596112	   14.4662	   14.9028	
   14.2974	0.000622739	   14.3278	0.000572362	   14.4061	0.000594693	   14.3438	0.000596598	   14.3438	    14.915	
   14.1716	0.000623743	   14.2067	0.000572766	    14.284	0.000594661	   14.2208	0.000597057	   14.2208	   14.9264	
   14.0467	0.000624665	   14.0851	0.000573149	   14.1615	0.000594571	   14.0978	0.000597462	   14.0978	   14.9365	
   13.9222	0.000625406	   13.9624	0.000573472	   14.0389	0.000594446	   13.9745	0.000597775	   13.9745	   14.9444	
   13.7974	0.000625919	   13.8392	0.000573689	   13.9158	0.000594304	   13.8508	0.000597971	   13.8508	   14.9493	
   13.6723	0.000626202	   13.7158	0.000573764	   13.7926	0.000594158	   13.7269	0.000598042	   13.7269	    14.951	
   13.5477	0.000626266	   13.5912	0.000573723	   13.6692	0.000594043	   13.6027	0.000598011	   13.6027	   14.9503	
   13.4236	0.000626147	   13.4665	0.000573575	    13.545	0.000593976	   13.4784	0.000597899	   13.4784	   14.9475	
   13.2991	0.000625915	   13.3416	0.000573338	   13.4201	0.000593944	   13.3536	0.000597732	   13.3536	   14.9433	
   13.1745	0.000625678	   13.2152	0.000573047	   13.2953	0.000593972	   13.2283	0.000597566	   13.2283	   14.9391	
   13.0499	0.000625485	   13.0884	0.000572743	   13.1695	0.000594052	   13.1026	0.000597427	   13.1026	   14.9357	
   12.9244	0.000625388	   12.9604	0.000572484	   13.0426	0.000594163	   12.9758	0.000597345	   12.9758	   14.9336	
   12.7985	0.000625435	   12.8325	0.00057231	   12.9142	0.000594281	   12.8484	0.000597342	   12.8484	   14.9335	
   12.6719	0.000625622	   12.7044	0.000572246	   12.7853	0.000594382	   12.7206	0.000597417	   12.7206	   14.9354	
   12.5458	0.000625931	   12.5757	0.000572291	    12.656	0.000594441	   12.5925	0.000597554	   12.5925	   14.9389	
   12.4198	0.000626328	   12.4469	0.000572434	   12.5265	0.000594419	   12.4644	0.000597727	   12.4644	   14.9432	
   12.2928	0.000626757	   12.3182	0.000572658	    12.396	0.000594302	   12.3357	0.000597906	   12.3357	   14.9476	
   12.1649	0.000627156	   12.1887	0.000572921	   12.2653	0.000594087	   12.2063	0.000598055	   12.2063	   14.9514	
   12.0354	0.000627481	   12.0587	0.000573174	   12.1344	0.000593774	   12.0762	0.000598143	   12.0762	   14.9536	
   11.9055	0.000627683	   11.9279	0.000573374	   12.0022	0.000593391	   11.9452	0.00059815	   11.9452	   14.9537	
   11.7743	0.000627727	   11.7968	0.000573553	   11.8686	0.000592965	   11.8133	0.000598082	   11.8133	    14.952	
   11.6431	0.000627612	   11.6657	0.000573672	   11.7348	0.000592515	   11.6812	0.000597933	   11.6812	   14.9483	
   11.5116	0.000627366	   11.5338	0.000573708	   11.6004	0.000592067	   11.5486	0.000597714	   11.5486	   14.9428	
   11.3794	0.000627007	   11.4015	0.000573623	   11.4653	0.00059164	   11.4154	0.000597423	   11.4154	   14.9356	
   11.2474	0.000626566	     11.27	0.000573428	   11.3289	0.000591263	   11.2821	0.000597086	   11.2821	   14.9271	
   11.1143	0.000626106	   11.1396	0.000573136	   11.1927	0.000590954	   11.1488	0.000596732	   11.1488	   14.9183	
   10.9799	0.000625668	   11.0111	0.000572711	   11.0566	0.000590705	   11.0158	0.000596361	   11.0158	    14.909	
   10.8467	0.000625285	   10.8821	0.000572177	   10.9193	0.000590504	   10.8827	0.000595989	   10.8827	   14.8997	
   10.7126	0.00062499	     10.75	0.000571565	   10.7822	0.000590334	   10.7483	0.00059563	   10.7483	   14.8907	
   10.5784	 0.0006248	   10.6185	0.000570908	   10.6441	0.000590169	   10.6136	0.000595292	   10.6136	   14.8823	
   10.4437	0.000624687	   10.4886	0.000570271	    10.506	0.000589971	   10.4794	0.000594976	   10.4794	   14.8744	
   10.3082	0.000624626	   10.3564	0.000569685	   10.3679	0.00058971	   10.3442	0.000594674	   10.3442	   14.8668	
   10.1713	0.000624589	    10.219	0.000569161	   10.2292	0.000589378	   10.2065	0.000594376	   10.2065	   14.8594	
   10.0332	0.000624513	   10.0806	0.000568723	   10.0914	0.000588951	   10.0684	0.000594062	   10.0684	   14.8516	
   9.89466	0.000624347	   9.94416	0.000568404	   9.95239	0.000588426	    9.9304	0.000593726	    9.9304	   14.8431	
   9.75593	0.000624064	   9.80608	0.000568221	   9.81294	0.000587812	   9.79165	0.000593366	   9.79165	   14.8341	
   9.61599	0.000623637	   9.66402	0.000568133	   9.67352	0.000587125	   9.65118	0.000592965	   9.65118	   14.8241	
   9.47657	0.000623054	   9.52017	0.000568112	   9.53335	0.000586381	   9.51003	0.000592516	   9.51003	   14.8129	
   9.33684	0.000622326	   9.37727	0.000568121	    9.3934	0.000585607	   9.36917	0.000592018	   9.36917	   14.8005	
   9.19655	0.000621483	   9.23447	0.000568101	   9.25264	0.000584858	   9.22789	0.00059148	   9.22789	    14.787	
   9.05616	0.000620564	   9.09053	0.000568013	   9.11155	0.000584156	   9.08608	0.000590911	   9.08608	   14.7728	
   8.91514	0.000619622	    8.9467	0.000567803	   8.96964	0.000583511	   8.94383	0.000590312	   8.94383	   14.7578	
   8.77423	0.000618711	    8.8034	0.000567441	   8.82765	0.000582949	   8.80176	 0.0005897	   8.80176	   14.7425	
   8.63311	0.000617872	   8.66056	0.000566911	   8.68528	0.000582462	   8.65965	0.000589081	   8.65965	    14.727	
   8.49224	0.000617127	   8.51688	0.000566232	   8.54302	0.000582023	   8.51738	0.000588461	   8.51738	   14.7115	
   8.35059	0.000616492	   8.37312	0.000565439	   8.39983	0.000581615	   8.37451	0.000587849	   8.37451	   14.6962	
   8.20865	0.000615957	    8.2302	0.000564557	   8.25624	0.000581217	    8.2317	0.000587244	    8.2317	   14.6811	
    8.0676	0.000615492	   8.08777	0.000563638	   8.11199	0.000580795	   8.08912	0.000586642	   8.08912	    14.666	
   7.92659	0.000615059	   7.94503	0.000562728	    7.9683	0.000580312	   7.94664	0.000586033	   7.94664	   14.6508	
    7.7851	0.00061461	   7.80219	0.000561867	   7.82411	0.000579752	    7.8038	0.00058541	    7.8038	   14.6352	
   7.64311	0.000614094	   7.65994	0.00056108	   7.67943	0.000579107	   7.66083	0.00058476	   7.66083	    14.619	
   7.50085	0.000613472	   7.51699	0.000560372	   7.53377	0.000578353	    7.5172	0.000584066	    7.5172	   14.6016	
   7.35758	0.000612723	   7.37311	0.000559721	   7.38814	0.000577526	   7.37294	0.000583323	   7.37294	   14.5831	
    7.2143	0.000611832	   7.22953	0.000559098	    7.2425	0.000576655	   7.22878	0.000582528	   7.22878	   14.5632	
   7.07048	0.000610807	   7.08594	0.000558474	   7.09682	0.000575742	   7.08441	0.000581674	   7.08441	   14.5419	
   6.92685	0.000609677	   6.94207	0.000557814	   6.95129	0.000574792	   6.94007	0.000580761	   6.94007	    14.519	
    6.7831	0.000608473	   6.79766	0.000557079	   6.80564	0.000573864	   6.79547	0.000579805	   6.79547	   14.4951	
   6.63897	0.000607235	   6.65246	0.000556242	    6.6596	0.000572966	   6.65034	0.000578814	   6.65034	   14.4704	
   6.49565	0.000606004	    6.5077	0.000555305	   6.51364	0.00057208	   6.50567	0.000577796	   6.50567	   14.4449	
   6.35159	0.000604813	    6.3638	0.000554248	   6.36796	0.000571216	   6.36112	0.000576759	   6.36112	    14.419	
   6.20705	0.000603687	   6.21896	0.000553082	   6.22251	0.000570367	   6.21617	0.000575712	   6.21617	   14.3928	
   6.06178	0.000602633	   6.07298	0.000551841	   6.07675	 0.0005695	    6.0705	0.000574658	    6.0705	   14.3664	
   5.91629	0.00060165	   5.92783	0.000550533	   5.93139	0.000568594	   5.92517	0.000573593	   5.92517	   14.3398	
   5.77055	0.000600718	   5.78341	0.000549173	   5.78613	0.000567638	   5.78003	0.00057251	   5.78003	   14.3127	
   5.62408	0.000599813	   5.63914	0.000547792	   5.64067	0.000566599	   5.63463	0.000571401	   5.63463	    14.285	
   5.47689	0.00059891	   5.49354	0.000546408	   5.49476	0.00056547	    5.4884	0.000570263	    5.4884	   14.2566	
   5.32998	0.000597973	    5.3469	0.000545026	   5.34744	0.000564275	   5.34144	0.000569091	   5.34144	   14.2273	
   5.18232	0.000596968	   5.20049	0.000543653	   5.20071	0.000563021	   5.19451	0.000567881	   5.19451	    14.197	
   5.03515	0.000595878	   5.05328	0.000542317	   5.05353	0.000561718	   5.04732	0.000566638	   5.04732	   14.1659	
   4.88744	0.000594686	    4.9058	0.000540999	   4.90638	0.000560403	   4.89987	0.000565363	   4.89987	   14.1341	
   4.73991	0.000593381	   4.75802	0.000539694	   4.75924	0.000559109	   4.75239	0.000564061	   4.75239	   14.1015	
   4.59277	0.000591977	   4.60947	0.000538431	   4.61158	0.000557845	   4.60461	0.000562751	   4.60461	   14.0688	
   4.44476	0.000590497	   4.46113	0.000537173	   4.46391	0.000556629	    4.4566	0.000561433	    4.4566	   14.0358	
   4.29734	0.000588959	   4.31225	0.000535879	   4.31595	0.000555463	   4.30851	 0.0005601	   4.30851	   14.0025	
    4.1495	0.000587395	   4.16308	0.000534559	   4.16697	0.000554327	   4.15985	0.00055876	   4.15985	    13.969	
   4.00027	0.000585851	   4.01289	0.000533208	   4.01799	0.000553201	   4.01038	0.00055742	   4.01038	   13.9355	
   3.85166	0.000584345	   3.86295	0.000531792	   3.86898	0.00055207	    3.8612	0.000556069	    3.8612	   13.9017	
   3.70191	0.000582885	    3.7137	0.000530303	   3.71945	0.000550902	   3.71169	0.000554697	   3.71169	   13.8674	
   3.55229	0.000581491	   3.56409	0.000528767	   3.57037	0.000549664	   3.56225	0.000553307	   3.56225	   13.8327	
   3.40325	0.000580159	    3.4139	0.000527178	   3.42095	0.000548343	    3.4127	0.000551893	    3.4127	   13.7973	
   3.25303	0.000578867	   3.26363	0.000525538	   3.27169	0.000546928	   3.26278	0.000550444	   3.26278	   13.7611	
   3.10387	0.000577586	   3.11254	0.00052388	   3.12279	0.000545417	   3.11307	0.000548961	   3.11307	    13.724	
   2.95446	0.000576292	   2.96163	0.000522229	   2.97419	0.000543821	   2.96343	0.000547447	   2.96343	   13.6862	
   2.80504	0.000574953	    2.8104	0.000520573	   2.82632	0.000542168	   2.81392	0.000545898	   2.81392	   13.6474	
   2.65557	0.000573528	   2.65885	0.00051892	   2.67742	0.000540476	   2.66395	0.000544308	   2.66395	   13.6077	
   2.50557	0.000572008	   2.50746	0.000517283	   2.52826	0.000538776	   2.51376	0.000542689	   2.51376	   13.5672	
   2.35576	0.000570386	   2.35597	0.000515638	   2.37908	0.000537099	   2.36361	0.000541041	   2.36361	    13.526	
   2.20636	0.000568658	   2.20413	0.000513966	   2.22961	0.000535459	   2.21337	0.000539361	   2.21337	    13.484	
   2.05587	0.000566849	    2.0517	0.000512262	   2.08106	0.00053386	   2.06288	0.000537657	   2.06288	   13.4414	
    1.9053	0.000564986	   1.89945	0.000510513	   1.93212	0.000532305	   1.91229	0.000535935	   1.91229	   13.3984	
   1.75465	0.000563097	   1.74757	0.000508699	   1.78352	0.000530786	   1.76191	0.000534194	   1.76191	   13.3548	
   1.60366	0.000561211	   1.59507	0.000506832	   1.63497	0.000529278	   1.61123	0.000532441	   1.61123	    13.311	
   1.45258	0.000559354	    1.4427	0.00050492	   1.48595	0.000527759	   1.46041	0.000530678	   1.46041	   13.2669	
    1.3014	0.000557537	   1.29068	0.000502961	   1.33791	0.000526204	      1.31	0.000528901	      1.31	   13.2225	
   1.15106	0.000555758	   1.13775	0.000500977	   1.18932	0.000524584	   1.15938	0.000527106	   1.15938	   13.1777	
   1.00076	0.000554018	  0.986142	0.000498989	   1.04043	0.000522881	   1.00911	0.000525296	   1.00911	   13.1324	
  0.850241	0.000552295	  0.834529	0.000497007	  0.890997	0.000521089	  0.858589	0.000523463	  0.858589	   13.0866	
  0.699969	0.000550562	  0.682894	0.000495027	  0.742237	0.000519203	  0.708367	0.000521597	  0.708367	   13.0399	
   0.54991	0.000548795	  0.531225	0.000493049	  0.593354	0.000517232	  0.558163	0.000519692	  0.558163	   12.9923	
  0.400984	0.00054697	  0.380464	0.000491057	  0.443131	0.000515195	  0.408193	0.000517741	  0.408193	   12.9435	
  0.252113	0.000545063	  0.229083	0.000489031	  0.292372	0.000513112	  0.257856	0.000515735	  0.257856	   12.8934	
  0.102308	0.000543059	 0.0780684	0.000486967	  0.142056	0.000511007	  0.107478	0.000513678	  0.107478	   12.8419	
-0.0471771	0.000540957	-0.0735876	0.000484845	-0.00883339	0.000508904	-0.0431994	0.000511568	-0.0431994	   12.7892	
 -0.197112	0.000538753	  -0.22489	0.000482656	 -0.159308	0.000506826	  -0.19377	0.000509411	  -0.19377	   12.7353	
 -0.346525	0.000536455	 -0.376603	0.000480408	 -0.310142	0.000504779	 -0.344423	0.000507214	 -0.344423	   12.6803	
 -0.495961	0.000534092	 -0.527992	0.000478111	 -0.461087	0.000502768	 -0.495013	0.00050499	 -0.495013	   12.6248	
 -0.646163	0.000531696	 -0.679583	0.000475772	 -0.612155	0.000500788	 -0.645967	0.000502752	 -0.645967	   12.5688	
 -0.795892	0.000529277	 -0.830898	0.00047341	 -0.763353	0.000498821	 -0.796714	0.000500503	 -0.796714	   12.5126	
 -0.946889	0.000526864	 -0.982215	0.000471044	 -0.914449	0.000496845	 -0.947851	0.000498251	 -0.947851	   12.4563	
  -1.09787	0.000524502	  -1.13331	0.000468671	  -1.06667	0.000494837	  -1.09929	0.000496003	  -1.09929	   12.4001	
  -1.24766	0.000522181	  -1.28494	0.000466303	  -1.21923	0.000492774	  -1.25061	0.000493753	  -1.25061	   12.3438	
  -1.39806	0.000519893	  -1.43589	0.000463943	  -1.37187	0.000490638	  -1.40194	0.000491492	  -1.40194	   12.2873	
  -1.54856	0.000517642	  -1.58718	0.000461612	   -1.5246	0.000488416	  -1.55345	0.000489224	  -1.55345	   12.2306	
  -1.69869	0.000515421	  -1.73881	0.00045931	  -1.67695	0.000486108	  -1.70482	0.000486946	  -1.70482	   12.1737	
  -1.84873	0.000513198	  -1.88908	0.000457024	  -1.82849	0.000483714	  -1.85543	0.000484645	  -1.85543	   12.1161	
  -1.99753	0.000510953	  -2.03981	0.000454728	  -1.98025	0.00048125	  -2.00586	0.00048231	  -2.00586	   12.0577	
  -2.14616	0.000508662	   -2.1905	0.00045245	  -2.13127	0.000478733	  -2.15598	0.000479948	  -2.15598	   11.9987	
  -2.29491	0.000506307	  -2.33997	0.000450145	  -2.28235	0.000476182	  -2.30574	0.000477545	  -2.30574	   11.9386	
  -2.44306	0.000503872	   -2.4881	0.000447772	  -2.43374	0.00047362	  -2.45496	0.000475088	  -2.45496	   11.8772	
  -2.59189	0.00050135	   -2.6343	0.000445307	  -2.58497	0.000471065	  -2.60372	0.000472574	  -2.60372	   11.8144	
  -2.74066	0.000498722	  -2.78188	0.000442717	  -2.73653	0.000468529	  -2.75302	0.000469989	  -2.75302	   11.7497	
  -2.89059	0.000495989	  -2.92812	0.000439984	  -2.88698	0.000466018	   -2.9019	0.00046733	   -2.9019	   11.6833	
  -3.04139	0.00049317	  -3.07243	0.000437102	  -3.03788	0.000463529	  -3.05056	0.000464601	  -3.05056	    11.615	
  -3.19084	0.00049027	  -3.21765	0.000434095	  -3.18967	0.000461057	  -3.19939	0.000461807	  -3.19939	   11.5452	
  -3.34026	0.000487306	  -3.36639	0.000430967	   -3.3404	0.000458583	  -3.34902	0.000458952	  -3.34902	   11.4738	
   -3.4897	0.000484304	  -3.51624	0.000427776	   -3.4904	0.000456087	  -3.49878	0.000456056	  -3.49878	   11.4014	
   -3.6394	0.000481285	  -3.66449	0.000424601	   -3.6407	0.000453551	   -3.6482	0.000453146	   -3.6482	   11.3286	
  -3.78914	0.000478255	  -3.81225	0.000421482	  -3.79156	0.000450957	  -3.79765	0.000450232	  -3.79765	   11.2558	
  -3.93749	0.000475244	  -3.96272	0.000418467	  -3.94319	0.000448293	   -3.9478	0.000447335	   -3.9478	   11.1834	
  -4.08602	0.000472262	  -4.11547	0.000415591	  -4.09434	0.000445552	  -4.09861	0.000444469	  -4.09861	   11.1117	
   -4.2338	0.000469298	  -4.26888	0.000412868	  -4.24531	0.000442735	  -4.24933	0.000441634	  -4.24933	   11.0408	
  -4.38139	0.000466352	  -4.42148	0.000410278	  -4.39589	0.000439846	  -4.39959	0.000438825	  -4.39959	   10.9706	
  -4.52883	0.000463413	  -4.57455	0.000407782	  -4.54614	0.000436896	  -4.54984	0.00043603	  -4.54984	   10.9008	
  -4.67568	0.000460472	   -4.7283	0.000405319	  -4.69609	0.000433902	  -4.70002	0.000433231	  -4.70002	   10.8308	
  -4.82371	0.000457503	  -4.88077	0.00040281	  -4.84556	0.000430877	  -4.85001	0.000430397	  -4.85001	   10.7599	
  -4.97117	0.000454492	  -5.03159	0.000400186	  -4.99485	0.00042784	   -4.9992	0.000427506	   -4.9992	   10.6876	
  -5.11813	0.00045143	   -5.1826	0.000397404	  -5.14496	0.000424802	  -5.14856	0.000424545	  -5.14856	   10.6136	
  -5.26635	0.000448296	  -5.33331	0.000394416	   -5.2932	0.000421771	  -5.29762	0.000421494	  -5.29762	   10.5374	
  -5.41407	0.000445089	  -5.48305	0.000391201	  -5.44143	0.000418749	  -5.44618	0.000418346	  -5.44618	   10.4587	
  -5.56208	0.000441816	  -5.63095	0.000387778	  -5.58991	0.000415731	  -5.59431	0.000415109	  -5.59431	   10.3777	
  -5.70919	0.000438473	  -5.77816	0.000384192	  -5.73794	0.000412711	  -5.74176	0.000411792	  -5.74176	   10.2948	
  -5.85646	0.000435073	    -5.925	0.000380504	  -5.88606	0.000409676	  -5.88917	0.000408417	  -5.88917	   10.2104	
  -6.00342	0.000431635	  -6.07176	0.000376787	  -6.03428	0.00040661	  -6.03649	0.000405011	  -6.03649	   10.1253	
  -6.15038	0.000428177	  -6.21873	0.000373118	  -6.18239	0.000403503	  -6.18383	 0.0004016	  -6.18383	     10.04	
  -6.29664	0.000424714	  -6.36568	0.000369558	   -6.3297	0.000400343	  -6.33068	0.000398205	  -6.33068	   9.95512	
  -6.44278	0.000421257	  -6.51265	0.000366155	  -6.47607	0.000397123	  -6.47716	0.000394845	  -6.47716	   9.87112	
  -6.58931	0.000417821	  -6.65965	0.000362927	   -6.6228	0.000393842	  -6.62392	0.00039153	  -6.62392	   9.78825	
  -6.73552	0.000414403	  -6.80578	0.00035986	  -6.76918	0.000390501	  -6.77016	0.000388255	  -6.77016	   9.70636	
  -6.88171	0.000411005	  -6.95135	0.00035691	  -6.91551	0.000387109	  -6.91619	0.000385008	  -6.91619	    9.6252	
  -7.02695	0.000407619	  -7.09814	0.000354022	  -7.06183	0.000383678	   -7.0623	0.000381773	   -7.0623	   9.54433	
  -7.17279	0.000404223	  -7.24344	0.00035113	  -7.20792	0.000380219	  -7.20805	0.000378524	  -7.20805	    9.4631	
  -7.31779	0.000400805	  -7.38765	0.000348157	  -7.35409	0.000376745	  -7.35318	0.000375236	  -7.35318	   9.38089	
  -7.46323	0.000397346	  -7.53184	0.000345044	  -7.49844	0.000373267	  -7.49784	0.000371886	  -7.49784	   9.29714	
  -7.60842	0.000393832	  -7.67655	0.000341748	   -7.6426	0.000369794	  -7.64252	0.000368458	  -7.64252	   9.21146	
  -7.75244	0.000390253	  -7.82033	0.000338248	  -7.78709	0.000366326	  -7.78662	0.000364942	  -7.78662	   9.12356	
  -7.89638	0.000386603	  -7.96376	0.000334553	  -7.93097	0.000362863	  -7.93037	0.00036134	  -7.93037	   9.03349	
  -8.03982	0.000382886	  -8.10765	0.000330697	  -8.07433	 0.0003594	  -8.07393	0.000357661	  -8.07393	   8.94152	
  -8.18282	0.000379108	   -8.2508	0.000326729	  -8.21725	0.000355926	  -8.21696	0.000353921	  -8.21696	   8.84802	
  -8.32597	0.000375283	  -8.39283	0.000322709	  -8.35957	0.000352431	  -8.35946	0.000350141	  -8.35946	   8.75352	
  -8.46807	0.000371428	  -8.53483	0.000318702	   -8.5009	0.000348908	  -8.50127	0.000346346	  -8.50127	   8.65866	
   -8.6095	0.00036756	  -8.67541	0.000314768	  -8.64161	0.000345344	  -8.64217	0.000342557	  -8.64217	   8.56392	
  -8.75061	0.000363694	  -8.81521	0.000310942	  -8.78277	0.00034173	  -8.78286	0.000338789	  -8.78286	   8.46971	
  -8.89122	0.000359843	  -8.95531	0.000307245	  -8.92389	0.000338064	  -8.92347	0.000335051	  -8.92347	   8.37627	
  -9.03214	0.000356013	  -9.09382	0.000303676	  -9.06384	0.000334347	  -9.06327	0.000331345	  -9.06327	   8.28363	
  -9.17221	0.000352198	  -9.23235	0.000300208	  -9.20396	0.000330583	  -9.20284	0.000327663	  -9.20284	   8.19157	
  -9.31178	0.000348391	  -9.37145	0.000296802	  -9.34212	0.00032678	  -9.34178	0.000323991	  -9.34178	   8.09977	
  -9.45118	0.000344579	   -9.5092	0.000293402	  -9.47974	0.000322949	  -9.48004	0.00032031	  -9.48004	   8.00775	
  -9.58929	0.000340741	  -9.64674	0.000289949	  -9.61693	0.000319101	  -9.61765	0.000316597	  -9.61765	   7.91492	
  -9.72697	0.000336863	  -9.78365	0.000286388	  -9.75329	0.000315244	  -9.75464	0.000312831	  -9.75464	   7.82079	
  -9.86408	0.000332935	  -9.91957	0.000282682	   -9.8892	0.000311389	  -9.89095	0.000309002	  -9.89095	   7.72504	
   -10.001	0.000328948	  -10.0542	0.000278807	  -10.0243	0.000307538	  -10.0265	0.000305098	  -10.0265	   7.62744	
  -10.1377	 0.0003249	  -10.1881	0.000274759	  -10.1594	0.000303691	  -10.1617	0.000301117	  -10.1617	   7.52792	
  -10.2735	0.000320798	  -10.3229	0.000270562	  -10.2943	0.000299844	  -10.2969	0.000297068	  -10.2969	    7.4267	
  -10.4083	0.000316647	  -10.4571	0.000266255	  -10.4289	0.000295992	  -10.4314	0.000292965	  -10.4314	   7.32412	
  -10.5429	0.000312462	  -10.5907	0.000261891	  -10.5626	0.000292121	  -10.5654	0.000288825	  -10.5654	   7.22062	
  -10.6773	0.000308258	  -10.7244	0.000257528	  -10.6952	0.00028822	   -10.699	0.000284669	   -10.699	   7.11672	
  -10.8114	0.000304049	  -10.8574	0.000253219	   -10.827	0.000284282	  -10.8319	0.000280517	  -10.8319	   7.01291	
   -10.945	0.000299847	  -10.9898	0.000249008	  -10.9585	0.000280298	  -10.9644	0.000276384	  -10.9644	    6.9096	
  -11.0782	0.000295659	  -11.1222	0.000244922	  -11.0898	0.000276263	  -11.0967	0.000272281	  -11.0967	   6.80703	
  -11.2112	0.000291489	  -11.2542	0.000240966	  -11.2202	0.000272177	  -11.2285	0.00026821	  -11.2285	   6.70526	
   -11.343	0.00028733	  -11.3861	0.000237125	  -11.3504	0.000268044	  -11.3598	0.000264166	  -11.3598	   6.60416	
  -11.4749	0.000283174	  -11.5176	0.000233363	    -11.48	0.000263871	  -11.4908	0.000260136	  -11.4908	    6.5034	
  -11.6059	0.000279011	  -11.6485	0.000229634	  -11.6091	0.000259671	  -11.6211	0.000256105	  -11.6211	   6.40263	
  -11.7368	0.000274826	  -11.7789	0.000225887	  -11.7383	0.000255456	  -11.7513	0.000252057	  -11.7513	   6.30141	
  -11.8671	0.000270609	   -11.909	0.000222068	  -11.8676	0.000251237	  -11.8812	0.000247971	  -11.8812	   6.19928	
  -11.9981	0.000266347	  -12.0394	0.000218136	  -11.9963	0.000247024	  -12.0112	0.000243836	  -12.0112	    6.0959	
  -12.1281	0.000262035	  -12.1686	0.000214067	  -12.1247	0.000242824	  -12.1405	0.000239642	  -12.1405	   5.99104	
   -12.258	0.000257669	  -12.2974	0.000209855	  -12.2526	0.000238637	  -12.2693	0.000235387	  -12.2693	   5.88468	
  -12.3876	0.000253254	  -12.4263	0.000205518	  -12.3805	0.000234462	  -12.3981	0.000231078	  -12.3981	   5.77695	
  -12.5172	 0.0002488	  -12.5547	0.000201086	  -12.5078	0.000230292	  -12.5265	0.000226726	  -12.5265	   5.66815	
  -12.6462	0.000244315	  -12.6819	0.000196605	  -12.6343	0.000226117	  -12.6541	0.000222346	  -12.6541	   5.55864	
  -12.7743	0.000239814	  -12.8088	0.000192124	  -12.7603	0.000221923	  -12.7811	0.000217954	  -12.7811	   5.44885	
  -12.9027	0.000235314	  -12.9353	0.000187693	  -12.8854	 0.0002177	  -12.9078	0.000213569	  -12.9078	   5.33923	
  -13.0294	0.000230826	  -13.0621	0.000183352	  -13.0108	0.000213437	  -13.0341	0.000209205	  -13.0341	   5.23012	
  -13.1558	0.00022635	  -13.1887	0.00017912	  -13.1345	0.000209129	  -13.1597	0.000204866	  -13.1597	   5.12166	
  -13.2808	0.000221908	  -13.3154	0.000175003	  -13.2573	0.000204774	  -13.2845	0.000200562	  -13.2845	   5.01404	
  -13.4055	0.00021751	  -13.4412	0.000170982	  -13.3801	0.000200378	  -13.4089	0.00019629	  -13.4089	   4.90725	
  -13.5293	0.000213131	  -13.5667	0.000167027	  -13.5028	0.000195943	  -13.5329	0.000192034	  -13.5329	   4.80085	
  -13.6521	0.000208757	  -13.6921	0.000163094	  -13.6254	0.000191482	  -13.6565	0.000187777	  -13.6565	   4.69444	
  -13.7753	0.000204391	  -13.8169	0.000159135	  -13.7471	0.000187006	  -13.7798	0.000183511	  -13.7798	   4.58777	
  -13.8981	0.000200002	  -13.9417	0.000155103	  -13.8689	0.000182528	  -13.9029	0.000179211	  -13.9029	   4.48028	
  -14.0206	0.000195559	  -14.0667	0.000150964	  -13.9901	0.000178059	  -14.0258	0.000174861	  -14.0258	   4.37151	
  -14.1415	0.000191048	  -14.1901	0.000146699	  -14.1106	0.000173602	  -14.1474	0.00017045	  -14.1474	   4.26124	
  -14.2618	0.000186461	  -14.3131	0.000142308	  -14.2303	0.000169166	  -14.2684	0.000165978	  -14.2684	   4.14946	
  -14.3821	0.000181785	   -14.436	0.000137811	  -14.3502	0.000164748	  -14.3894	0.000161448	  -14.3894	    4.0362	
  -14.5019	0.000177025	  -14.5585	0.000133235	  -14.4691	0.000160339	  -14.5098	0.000156867	  -14.5098	   3.92166	
  -14.6206	0.000172205	  -14.6795	0.000128623	  -14.5878	0.000155937	  -14.6293	0.000152255	  -14.6293	   3.80638	
  -14.7391	0.000167337	  -14.7995	0.000124019	  -14.7048	0.000151529	  -14.7478	0.000147628	  -14.7478	   3.69071	
  -14.8568	0.000162456	  -14.9194	0.000119463	  -14.8225	0.000147102	  -14.8662	0.000143007	  -14.8662	   3.57518	
  -14.9736	0.000157605	  -15.0376	0.000114988	  -14.9386	0.000142648	  -14.9833	0.000138414	  -14.9833	   3.46034	
  -15.0906	0.00015281	  -15.1557	0.000110612	  -15.0547	0.000138159	  -15.1003	0.000133861	  -15.1003	   3.34651	
  -15.2066	0.000148089	  -15.2744	0.000106342	  -15.1708	0.000133633	  -15.2173	0.000129355	  -15.2173	   3.23387	
  -15.3222	0.000143454	  -15.3921	0.000102168	  -15.2862	0.000129077	  -15.3335	 0.0001249	  -15.3335	   3.12249	
  -15.4369	0.000138919	  -15.5097	9.80614e-05	   -15.401	0.000124472	  -15.4492	0.000120484	  -15.4492	    3.0121	
  -15.5516	0.000134465	  -15.6268	9.39854e-05	  -15.5154	0.00011983	  -15.5646	0.000116093	  -15.5646	   2.90233	
  -15.6655	0.000130069	  -15.7431	8.98968e-05	  -15.6293	0.000115157	  -15.6793	0.000111708	  -15.6793	   2.79269	
  -15.7785	0.000125701	  -15.8584	8.57565e-05	  -15.7431	0.000110467	  -15.7933	0.000107308	  -15.7933	    2.6827	
  -15.8909	0.000121315	  -15.9721	8.15332e-05	   -15.856	0.000105775	  -15.9064	0.000102874	  -15.9064	   2.57186	
  -16.0024	0.000116879	  -16.0851	7.72022e-05	  -15.9697	0.000101086	  -16.0191	9.83888e-05	  -16.0191	   2.45972	
  -16.1134	0.00011237	   -16.197	7.27549e-05	  -16.0823	9.64033e-05	  -16.1309	9.38429e-05	  -16.1309	   2.34607	
   -16.225	0.000107769	  -16.3076	6.82022e-05	  -16.1936	9.17257e-05	  -16.2421	8.92322e-05	  -16.2421	    2.2308	
  -16.3359	0.000103065	  -16.4176	6.35718e-05	  -16.3047	8.70536e-05	  -16.3527	8.45633e-05	  -16.3527	   2.11408	
  -16.4461	9.82712e-05	  -16.5271	5.89029e-05	  -16.4153	8.23689e-05	  -16.4628	7.98477e-05	  -16.4628	   1.99619	
  -16.5558	9.34122e-05	  -16.6355	5.42419e-05	  -16.5252	7.76695e-05	  -16.5722	7.51079e-05	  -16.5722	    1.8777	
  -16.6651	8.85155e-05	  -16.7436	4.96344e-05	  -16.6347	7.3055e-05	  -16.6811	7.04016e-05	  -16.6811	   1.76004	
  -16.7733	8.36197e-05	    -16.85	4.51208e-05	  -16.7433	6.84958e-05	  -16.7889	6.57454e-05	  -16.7889	   1.64364	
  -16.8804	7.87627e-05	  -16.9556	4.07251e-05	   -16.851	6.39404e-05	  -16.8957	6.11427e-05	  -16.8957	   1.52857	
   -16.987	7.39725e-05	   -17.061	3.64522e-05	  -16.9583	5.93853e-05	  -17.0021	5.66033e-05	  -17.0021	   1.41508	
  -17.0932	6.92685e-05	  -17.1658	3.22887e-05	  -17.0639	5.48217e-05	  -17.1076	5.21263e-05	  -17.1076	   1.30316	
  -17.1976	6.46629e-05	  -17.2697	2.82034e-05	  -17.1672	5.02291e-05	  -17.2115	4.76984e-05	  -17.2115	   1.19246	
  -17.3015	6.0154e-05	   -17.373	2.41553e-05	  -17.2669	4.55482e-05	  -17.3138	4.32858e-05	  -17.3138	   1.08215	
  -17.4039	5.57301e-05	   -17.475	2.00963e-05	  -17.3678	4.07988e-05	  -17.4156	3.88751e-05	  -17.4156	  0.971877	
  -17.5059	5.13795e-05	  -17.5768	1.59898e-05	  -17.4696	3.59977e-05	  -17.5174	3.44557e-05	  -17.5174	  0.861392	
  -17.6073	4.70696e-05	  -17.6789	1.18031e-05	  -17.5688	3.11314e-05	  -17.6183	3.00014e-05	  -17.6183	  0.750034	
  -17.7078	4.27519e-05	  -17.7802	7.50193e-06	  -17.6655	2.6251e-05	  -17.7178	2.55016e-05	  -17.7178	   0.63754	
  -17.8078	3.8379e-05	  -17.8798	3.0696e-06	  -17.7652	2.13598e-05	  -17.8176	2.09362e-05	  -17.8176	  0.523404	
  -17.9074	3.39159e-05	  -17.9782	-1.4755e-06	  -17.8686	1.6438e-05	  -17.9181	1.62928e-05	  -17.9181	   0.40732	
  -18.0068	2.93341e-05	  -18.0774	-6.10949e-06	  -17.9716	1.15516e-05	  -18.0186	1.15921e-05	  -18.0186	  0.289801	
  -18.1064	2.46148e-05	  -18.1755	-1.08031e-05	  -18.0704	6.74906e-06	  -18.1174	6.8536e-06	  -18.1174	   0.17134	
  -18.2051	1.97624e-05	  -18.2726	-1.55122e-05	  -18.1706	2.03338e-06	  -18.2161	2.09453e-06	  -18.2161	 0.0523633	
  -18.3028	1.48061e-05	   -18.369	-2.01891e-05	   -18.274	-2.60827e-06	  -18.3153	-2.66376e-06	  -18.3153	 -0.066594	
  -18.4001	9.78797e-06	  -18.4649	-2.47966e-05	  -18.3769	-7.17074e-06	   -18.414	-7.39314e-06	   -18.414	 -0.184828	
  -18.4951	4.75991e-06	  -18.5602	-2.93228e-05	  -18.4787	-1.16676e-05	  -18.5113	-1.20768e-05	  -18.5113	  -0.30192	
  -18.5894	-2.16885e-07	   -18.655	-3.37438e-05	  -18.5803	-1.6145e-05	  -18.6082	-1.67019e-05	  -18.6082	 -0.417547	
  -18.6833	-5.12505e-06	  -18.7495	-3.80617e-05	  -18.6824	-2.06074e-05	  -18.7051	-2.12647e-05	  -18.7051	 -0.531618	
  -18.7764	-9.93213e-06	   -18.843	-4.22962e-05	  -18.7828	-2.50844e-05	  -18.8007	-2.57709e-05	  -18.8007	 -0.644273	
  -18.8686	-1.46088e-05	   -18.935	-4.64639e-05	   -18.881	-2.96279e-05	  -18.8949	-3.02335e-05	  -18.8949	 -0.755838	
  -18.9602	-1.91403e-05	   -19.026	-5.06016e-05	  -18.9786	-3.4235e-05	  -18.9883	-3.46589e-05	  -18.9883	 -0.866473	
   -19.051	-2.35555e-05	  -19.1159	-5.47408e-05	  -19.0751	-3.88924e-05	  -19.0807	-3.90629e-05	  -19.0807	 -0.976572	
   -19.141	-2.78917e-05	  -19.2045	-5.89184e-05	  -19.1703	-4.36048e-05	  -19.1719	-4.34716e-05	  -19.1719	  -1.08679	
  -19.2301	-3.2162e-05	   -19.293	-6.31626e-05	  -19.2638	-4.83635e-05	  -19.2623	-4.7896e-05	  -19.2623	   -1.1974	
  -19.3194	-3.6412e-05	  -19.3798	-6.74821e-05	  -19.3556	-5.31312e-05	  -19.3516	-5.23418e-05	  -19.3516	  -1.30854	
  -19.4078	-4.06943e-05	  -19.4657	-7.18886e-05	  -19.4472	-5.78766e-05	  -19.4402	-5.68198e-05	  -19.4402	   -1.4205	
  -19.4959	-4.50431e-05	  -19.5509	-7.63673e-05	  -19.5368	-6.25837e-05	  -19.5279	-6.13314e-05	  -19.5279	  -1.53328	
  -19.5841	-4.9464e-05	  -19.6362	-8.08908e-05	   -19.625	-6.72272e-05	  -19.6151	-6.58607e-05	  -19.6151	  -1.64652	
  -19.6714	-5.39918e-05	  -19.7212	-8.54375e-05	   -19.713	-7.17976e-05	  -19.7019	-7.0409e-05	  -19.7019	  -1.76022	
   -19.758	-5.86228e-05	  -19.8048	-8.99736e-05	     -19.8	-7.63095e-05	  -19.7876	-7.49687e-05	  -19.7876	  -1.87422	
  -19.8432	-6.33286e-05	  -19.8883	-9.44662e-05	  -19.8857	-8.07637e-05	  -19.8724	-7.95195e-05	  -19.8724	  -1.98799	
  -19.9278	-6.80943e-05	  -19.9711	-9.88831e-05	  -19.9702	-8.52001e-05	  -19.9563	-8.40592e-05	  -19.9563	  -2.10148	
  -20.0121	-7.28788e-05	  -20.0534	-0.000103216	  -20.0544	-8.9646e-05	    -20.04	-8.85801e-05	    -20.04	   -2.2145	
  -20.0953	-7.76442e-05	  -20.1357	-0.000107459	  -20.1389	-9.41142e-05	  -20.1233	-9.30726e-05	  -20.1233	  -2.32681	
  -20.1772	-8.23473e-05	   -20.217	-0.000111612	  -20.2224	-9.85879e-05	  -20.2055	-9.75158e-05	  -20.2055	   -2.4379	
  -20.2577	-8.69652e-05	  -20.2972	-0.000115696	   -20.305	-0.000103077	  -20.2866	-0.000101913	  -20.2866	  -2.54781	
  -20.3375	-9.15058e-05	  -20.3776	-0.000119727	  -20.3877	-0.00010758	  -20.3676	-0.000106271	  -20.3676	  -2.65677	
  -20.4155	-9.5962e-05	  -20.4571	-0.000123734	  -20.4697	-0.000112058	  -20.4474	-0.000110585	  -20.4474	  -2.76462	
  -20.4921	-0.000100335	  -20.5349	-0.000127752	  -20.5514	-0.000116497	  -20.5261	-0.000114861	  -20.5261	  -2.87153	
  -20.5681	-0.000104638	  -20.6116	-0.000131807	  -20.6313	-0.000120888	  -20.6037	-0.000119111	  -20.6037	  -2.97778	
  -20.6448	-0.000108873	  -20.6877	-0.000135909	  -20.7091	-0.000125209	  -20.6806	-0.00012333	  -20.6806	  -3.08326	
  -20.7205	-0.000113062	  -20.7631	-0.00014005	  -20.7871	-0.000129465	  -20.7569	-0.000127526	  -20.7569	  -3.18815	
  -20.7974	-0.000117219	  -20.8377	-0.000144246	  -20.8636	-0.000133664	  -20.8329	-0.00013171	  -20.8329	  -3.29275	
  -20.8728	-0.00012136	  -20.9119	-0.000148502	  -20.9392	-0.000137811	   -20.908	-0.000135891	   -20.908	  -3.39728	
  -20.9475	-0.000125501	  -20.9843	-0.000152768	  -21.0135	-0.000141919	  -20.9818	-0.000140063	  -20.9818	  -3.50157	
  -21.0218	-0.000129657	  -21.0554	-0.000157036	  -21.0867	-0.000146024	  -21.0546	-0.000144239	  -21.0546	  -3.60597	
  -21.0955	-0.000133846	  -21.1258	-0.000161296	    -21.16	-0.00015016	  -21.1271	-0.000148434	  -21.1271	  -3.71085	
  -21.1681	-0.000138066	  -21.1946	-0.000165516	  -21.2314	-0.000154326	   -21.198	-0.000152636	   -21.198	   -3.8159	
  -21.2383	-0.000142318	  -21.2624	-0.000169666	  -21.3028	-0.000158529	  -21.2678	-0.000156838	  -21.2678	  -3.92094	
  -21.3071	-0.000146594	  -21.3298	-0.000173744	   -21.373	-0.000162763	  -21.3366	-0.000161034	  -21.3366	  -4.02584	
  -21.3756	-0.000150856	  -21.3966	-0.000177754	   -21.442	-0.000167043	  -21.4047	-0.000165218	  -21.4047	  -4.13044	
  -21.4434	-0.000155114	  -21.4623	-0.000181712	  -21.5096	-0.000171378	  -21.4718	-0.000169402	  -21.4718	  -4.23504	
  -21.5099	-0.00015936	  -21.5278	-0.000185681	  -21.5765	-0.000175734	  -21.5381	-0.000173592	  -21.5381	  -4.33979	
  -21.5749	-0.000163573	  -21.5928	-0.000189683	  -21.6428	-0.000180051	  -21.6035	-0.000177769	  -21.6035	  -4.44422	
  -21.6377	-0.000167742	  -21.6573	-0.000193706	   -21.708	-0.000184358	  -21.6677	-0.000181935	  -21.6677	  -4.54838	
  -21.6994	-0.000171866	  -21.7205	-0.000197794	  -21.7719	-0.000188623	  -21.7306	-0.000186094	  -21.7306	  -4.65236	
  -21.7594	-0.00017597	   -21.783	-0.00020197	  -21.8352	-0.000192789	  -21.7925	-0.000190243	  -21.7925	  -4.75607	
  -21.8192	-0.000180051	  -21.8446	-0.000206194	  -21.8979	-0.000196837	  -21.8539	-0.00019436	  -21.8539	  -4.85901	
  -21.8791	-0.000184112	  -21.9051	-0.000210424	  -21.9588	-0.000200758	  -21.9143	-0.000198431	  -21.9143	  -4.96078	
  -21.9368	-0.000188189	  -21.9666	-0.000214641	  -22.0189	-0.000204549	  -21.9741	-0.000202459	  -21.9741	  -5.06149	
  -21.9935	-0.000192289	  -22.0261	-0.000218799	   -22.077	-0.000208216	  -22.0322	-0.000206435	  -22.0322	  -5.16087	
  -22.0495	-0.000196411	  -22.0842	-0.00022288	  -22.1348	-0.000211805	  -22.0895	-0.000210365	  -22.0895	  -5.25913	
  -22.1065	-0.00020055	  -22.1417	-0.000226874	   -22.192	-0.000215334	  -22.1467	-0.000214253	  -22.1467	  -5.35632	
   -22.161	-0.000204715	  -22.1969	-0.00023075	  -22.2472	-0.000218837	  -22.2017	-0.000218101	  -22.2017	  -5.45252	
  -22.2135	-0.000208878	  -22.2517	-0.000234482	  -22.3011	-0.000222388	  -22.2554	-0.000221916	  -22.2554	   -5.5479	
  -22.2671	-0.000213022	  -22.3056	-0.000238125	  -22.3536	-0.000226034	  -22.3088	-0.000225727	  -22.3088	  -5.64318	
  -22.3213	-0.000217132	  -22.3584	-0.000241734	  -22.4048	-0.000229795	  -22.3615	-0.000229554	  -22.3615	  -5.73884	
  -22.3733	-0.000221191	  -22.4109	-0.000245319	  -22.4559	-0.000233685	  -22.4134	-0.000233398	  -22.4134	  -5.83496	
  -22.4237	-0.000225188	  -22.4628	-0.000248922	  -22.5062	-0.000237709	  -22.4642	-0.000237273	  -22.4642	  -5.93182	
  -22.4741	-0.000229127	  -22.5143	-0.0002526	  -22.5557	-0.000241836	  -22.5147	-0.000241188	  -22.5147	  -6.02969	
  -22.5249	-0.000233014	  -22.5643	-0.000256369	  -22.6041	-0.000246021	  -22.5644	-0.000245135	  -22.5644	  -6.12836	
  -22.5738	-0.000236863	  -22.6142	-0.00026018	  -22.6522	-0.000250206	  -22.6134	-0.000249083	  -22.6134	  -6.22708	
  -22.6201	-0.000240694	  -22.6646	-0.000264034	  -22.6997	-0.000254321	  -22.6615	-0.000253016	  -22.6615	  -6.32541	
   -22.667	-0.000244526	  -22.7141	-0.000267887	  -22.7456	-0.000258313	  -22.7089	-0.000256909	  -22.7089	  -6.42271	
  -22.7134	-0.000248378	   -22.763	-0.000271675	  -22.7909	-0.000262156	  -22.7558	-0.000260736	  -22.7558	  -6.51841	
  -22.7581	-0.000252257	  -22.8119	-0.000275369	  -22.8359	-0.000265826	   -22.802	-0.000264484	   -22.802	   -6.6121	
  -22.8021	-0.000256168	    -22.86	-0.000278935	  -22.8786	-0.00026931	  -22.8469	-0.000268137	  -22.8469	  -6.70343	
  -22.8459	-0.000260104	  -22.9077	-0.000282351	  -22.9206	-0.000272634	  -22.8914	-0.000271696	  -22.8914	  -6.79241	
  -22.8895	-0.000264051	  -22.9544	-0.000285604	  -22.9624	-0.00027584	  -22.9354	-0.000275165	  -22.9354	  -6.87912	
  -22.9314	-0.000267993	  -23.0009	-0.000288715	  -23.0032	-0.000278973	  -22.9785	-0.00027856	  -22.9785	  -6.96401	
  -22.9723	-0.000271909	  -23.0452	-0.000291732	  -23.0439	-0.000282095	  -23.0205	-0.000281912	  -23.0205	  -7.04781	
  -23.0129	-0.00027578	   -23.087	-0.000294664	  -23.0835	-0.000285267	  -23.0611	-0.000285237	  -23.0611	  -7.13093	
  -23.0528	-0.000279591	  -23.1277	-0.000297558	  -23.1224	-0.000288531	   -23.101	-0.00028856	   -23.101	    -7.214	
  -23.0916	-0.000283339	  -23.1674	-0.000300482	  -23.1607	-0.000291917	  -23.1399	-0.000291913	  -23.1399	  -7.29782	
  -23.1286	-0.000287029	  -23.2054	-0.000303476	  -23.1982	-0.000295444	  -23.1774	-0.000295316	  -23.1774	   -7.3829	
  -23.1644	-0.000290666	  -23.2423	-0.000306554	  -23.2351	-0.000299092	  -23.2139	-0.000298771	  -23.2139	  -7.46927	
  -23.1995	-0.000294265	  -23.2767	-0.000309733	    -23.27	-0.000302816	  -23.2487	-0.000302271	  -23.2487	  -7.55679	
  -23.2333	-0.000297842	  -23.3093	-0.000313017	  -23.3036	-0.000306571	  -23.2821	-0.00030581	  -23.2821	  -7.64524	
  -23.2658	-0.000301413	  -23.3408	-0.000316388	  -23.3363	-0.000310301	  -23.3143	-0.000309367	  -23.3143	  -7.73419	
  -23.2992	-0.000304996	  -23.3728	-0.000319812	  -23.3675	-0.000313939	  -23.3465	-0.000312916	  -23.3465	  -7.82289	
  -23.3312	-0.000308596	  -23.4037	-0.000323244	  -23.3988	-0.000317437	  -23.3779	-0.000316425	  -23.3779	  -7.91064	
  -23.3613	-0.000312212	  -23.4324	-0.000326657	  -23.4295	-0.000320765	  -23.4077	-0.000319878	  -23.4077	  -7.99694	
  -23.3907	-0.000315841	    -23.46	  -0.00033	  -23.4595	-0.000323912	  -23.4367	-0.000323251	  -23.4367	  -8.08127	
  -23.4196	-0.000319474	  -23.4885	-0.000333241	  -23.4883	-0.000326895	  -23.4655	-0.000326536	  -23.4655	  -8.16341	
  -23.4486	-0.000323098	  -23.5165	-0.000336355	  -23.5163	-0.00032976	  -23.4938	-0.000329737	  -23.4938	  -8.24344	
  -23.4755	-0.0003267	  -23.5422	-0.000339327	  -23.5441	-0.000332563	  -23.5206	-0.000332863	  -23.5206	  -8.32158	
  -23.5009	-0.000330272	  -23.5667	-0.000342159	  -23.5709	-0.000335354	  -23.5462	-0.000335928	  -23.5462	  -8.39821	
  -23.5253	-0.000333805	   -23.592	-0.000344871	  -23.5966	-0.000338196	  -23.5713	-0.000338958	  -23.5713	  -8.47394	
  -23.5491	-0.000337294	  -23.6182	-0.000347513	  -23.6221	-0.000341148	  -23.5964	-0.000341985	  -23.5964	  -8.54962	
  -23.5718	-0.000340736	  -23.6415	-0.000350132	  -23.6467	-0.000344216	    -23.62	-0.000345028	    -23.62	   -8.6257	
  -23.5932	-0.000344138	  -23.6634	-0.000352757	  -23.6697	-0.000347412	  -23.6421	-0.000348102	  -23.6421	  -8.70256	
  -23.6138	-0.00034754	  -23.6856	-0.000355439	  -23.6917	-0.000350733	  -23.6637	-0.000351237	  -23.6637	  -8.78093	
  -23.6345	-0.000350932	  -23.7064	-0.000358206	   -23.713	-0.000354138	  -23.6846	-0.000354425	  -23.6846	  -8.86063	
  -23.6544	-0.000354303	  -23.7238	-0.000361068	   -23.734	-0.000357574	  -23.7041	-0.000357648	  -23.7041	   -8.9412	
  -23.6738	-0.000357656	    -23.74	-0.000364033	  -23.7538	-0.000360983	  -23.7225	-0.000360891	  -23.7225	  -9.02227	
  -23.6931	-0.000360982	  -23.7567	-0.000367083	  -23.7727	-0.000364319	  -23.7408	-0.000364128	  -23.7408	   -9.1032	
  -23.7109	-0.000364278	  -23.7727	-0.00037019	  -23.7908	-0.000367526	  -23.7581	-0.000367331	  -23.7581	  -9.18328	
  -23.7294	-0.000367521	  -23.7869	-0.0003733	  -23.8073	-0.000370572	  -23.7745	-0.000370465	  -23.7745	  -9.26161	
  -23.7453	-0.000370707	  -23.8005	-0.000376369	  -23.8231	-0.000373466	  -23.7896	-0.000373514	  -23.7896	  -9.33785	
  -23.7605	-0.000373843	  -23.8145	-0.000379354	  -23.8381	-0.000376207	  -23.8044	-0.000376468	  -23.8044	   -9.4117	
  -23.7752	-0.000376927	  -23.8279	-0.000382212	  -23.8525	-0.000378816	  -23.8185	-0.000379318	  -23.8185	  -9.48296	
  -23.7892	-0.000379978	   -23.841	-0.000384926	   -23.866	-0.000381342	  -23.8321	-0.000382082	  -23.8321	  -9.55204	
  -23.8032	-0.000382999	  -23.8536	-0.000387492	  -23.8788	-0.000383831	  -23.8452	-0.000384774	  -23.8452	  -9.61935	
  -23.8162	-0.00038599	  -23.8666	-0.000389929	  -23.8904	-0.000386329	  -23.8578	-0.000387416	  -23.8578	   -9.6854	
  -23.8285	-0.000388978	  -23.8791	-0.000392274	  -23.9014	-0.000388877	  -23.8697	-0.000390043	  -23.8697	  -9.75107	
  -23.8404	-0.000391985	    -23.89	-0.000394572	  -23.9113	-0.000391509	  -23.8806	-0.000392689	  -23.8806	  -9.81722	
  -23.8501	-0.000395016	  -23.8991	-0.000396878	  -23.9206	-0.000394236	  -23.8899	-0.000395377	  -23.8899	  -9.88442	
  -23.8595	-0.000398068	  -23.9076	-0.000399235	   -23.929	-0.000397052	  -23.8987	-0.000398118	  -23.8987	  -9.95296	
  -23.8676	-0.000401138	  -23.9152	-0.000401676	  -23.9368	-0.000399939	  -23.9065	-0.000400918	  -23.9065	  -10.0229	
  -23.8745	-0.000404223	   -23.921	-0.000404228	  -23.9438	-0.000402858	  -23.9131	-0.000403769	  -23.9131	  -10.0942	
   -23.881	-0.000407306	  -23.9259	-0.000406884	  -23.9487	-0.000405765	  -23.9186	-0.000406652	  -23.9186	  -10.1663	
  -23.8864	-0.000410375	  -23.9306	-0.00040963	  -23.9531	-0.000408624	  -23.9234	-0.000409543	  -23.9234	  -10.2386	
    -23.89	-0.000413407	  -23.9332	-0.00041243	  -23.9556	-0.000411394	  -23.9263	-0.00041241	  -23.9263	  -10.3103	
  -23.8931	-0.00041638	  -23.9342	-0.000415234	  -23.9572	-0.000414042	  -23.9282	-0.000415219	  -23.9282	  -10.3805	
  -23.8954	-0.00041928	  -23.9347	-0.000418001	  -23.9586	-0.000416553	  -23.9296	-0.000417945	  -23.9296	  -10.4486	
  -23.8975	-0.000422112	  -23.9349	-0.000420689	  -23.9591	-0.00041893	  -23.9305	-0.000420577	  -23.9305	  -10.5144	
  -23.8979	-0.000424866	  -23.9337	-0.000423261	  -23.9589	-0.000421188	  -23.9301	-0.000423105	  -23.9301	  -10.5776	
  -23.8976	-0.000427528	  -23.9322	-0.000425703	  -23.9579	-0.000423356	  -23.9292	-0.000425529	  -23.9292	  -10.6382	
  -23.8961	-0.00043012	  -23.9295	-0.000428017	  -23.9557	-0.000425484	  -23.9271	-0.000427874	  -23.9271	  -10.6968	
  -23.8934	-0.000432679	   -23.926	-0.000430225	  -23.9522	-0.000427609	  -23.9238	-0.000430171	  -23.9238	  -10.7543	
  -23.8897	-0.000435198	  -23.9214	-0.000432361	  -23.9478	-0.000429768	  -23.9196	-0.000432443	  -23.9196	  -10.8111	
  -23.8843	-0.000437709	  -23.9161	-0.000434464	  -23.9437	-0.000431996	  -23.9147	-0.000434723	  -23.9147	  -10.8681	
  -23.8772	-0.000440253	  -23.9095	-0.000436576	  -23.9387	-0.000434309	  -23.9084	-0.000437046	  -23.9084	  -10.9261	
    -23.87	-0.000442838	  -23.9016	-0.000438733	   -23.932	-0.000436704	  -23.9012	-0.000439425	  -23.9012	  -10.9856	
  -23.8614	-0.000445475	  -23.8931	-0.000440961	  -23.9246	-0.000439169	  -23.8931	-0.000441868	  -23.8931	  -11.0467	
  -23.8522	-0.000448176	  -23.8829	-0.000443275	  -23.9172	-0.00044168	  -23.8841	-0.000444377	  -23.8841	  -11.1094	
  -23.8425	-0.000450929	  -23.8719	-0.000445668	  -23.9089	-0.000444197	  -23.8744	-0.000446931	  -23.8744	  -11.1733	
  -23.8321	-0.000453704	  -23.8605	-0.000448133	  -23.8998	-0.000446682	  -23.8641	-0.000449506	  -23.8641	  -11.2377	
  -23.8205	-0.000456487	  -23.8477	-0.000450645	  -23.8886	-0.0004491	  -23.8523	-0.000452077	  -23.8523	  -11.3019	
  -23.8071	-0.000459254	  -23.8335	-0.000453173	  -23.8768	-0.000451424	  -23.8391	-0.000454617	  -23.8391	  -11.3654	
  -23.7929	-0.000461958	  -23.8181	-0.000455685	  -23.8639	-0.00045364	  -23.8249	-0.000457094	  -23.8249	  -11.4274	
  -23.7775	-0.000464569	  -23.8019	-0.000458135	  -23.8497	-0.000455749	  -23.8097	-0.000459484	  -23.8097	  -11.4871	
  -23.7601	-0.000467073	  -23.7856	-0.000460498	  -23.8347	-0.000457762	  -23.7935	-0.000461777	  -23.7935	  -11.5444	
  -23.7424	-0.000469455	  -23.7688	-0.00046275	   -23.818	-0.000459703	  -23.7764	-0.000463969	  -23.7764	  -11.5992	
   -23.723	-0.000471714	   -23.752	-0.000464878	  -23.8009	-0.000461609	  -23.7586	-0.000466067	  -23.7586	  -11.6517	
  -23.7021	-0.000473871	  -23.7352	-0.000466877	   -23.783	-0.000463515	  -23.7401	-0.000468088	  -23.7401	  -11.7022	
  -23.6806	-0.000475951	  -23.7178	-0.000468753	   -23.764	-0.000465451	  -23.7208	-0.000470052	  -23.7208	  -11.7513	
  -23.6572	-0.000477985	  -23.6999	-0.000470532	  -23.7442	-0.000467446	  -23.7004	-0.000471988	  -23.7004	  -11.7997	
  -23.6328	-0.000480019	  -23.6808	-0.000472247	  -23.7229	-0.000469518	  -23.6789	-0.000473928	  -23.6789	  -11.8482	
  -23.6076	-0.000482086	  -23.6615	-0.000473936	  -23.7011	-0.000471665	  -23.6567	-0.000475896	  -23.6567	  -11.8974	
  -23.5817	-0.000484205	  -23.6413	-0.000475636	  -23.6782	-0.000473873	  -23.6337	-0.000477905	  -23.6337	  -11.9476	
  -23.5559	-0.000486397	  -23.6188	-0.000477394	  -23.6535	-0.000476118	  -23.6094	-0.00047997	  -23.6094	  -11.9992	
  -23.5287	-0.000488671	  -23.5944	-0.000479222	  -23.6285	-0.000478365	  -23.5839	-0.000482086	  -23.5839	  -12.0521	
  -23.5012	-0.000491016	  -23.5682	-0.000481131	  -23.6021	-0.000480581	  -23.5572	-0.000484243	  -23.5572	  -12.1061	
  -23.4735	-0.000493408	   -23.541	-0.000483133	  -23.5743	-0.000482734	  -23.5296	-0.000486425	  -23.5296	  -12.1606	
  -23.4442	-0.000495818	  -23.5117	-0.000485214	  -23.5461	-0.000484803	  -23.5007	-0.000488612	  -23.5007	  -12.2153	
  -23.4142	-0.000498209	  -23.4813	-0.00048732	  -23.5168	-0.000486769	  -23.4707	-0.000490766	  -23.4707	  -12.2692	
  -23.3829	-0.00050054	  -23.4499	-0.000489422	  -23.4868	-0.000488633	  -23.4399	-0.000492865	  -23.4399	  -12.3216	
  -23.3514	-0.000502786	  -23.4163	-0.000491491	  -23.4562	-0.000490408	   -23.408	-0.000494895	   -23.408	  -12.3724	
  -23.3195	-0.000504925	  -23.3818	-0.000493473	  -23.4244	-0.000492112	  -23.3752	-0.000496837	  -23.3752	  -12.4209	
  -23.2869	-0.000506943	  -23.3476	-0.000495339	  -23.3917	-0.000493773	  -23.3421	-0.000498685	  -23.3421	  -12.4671	
  -23.2537	-0.000508846	  -23.3118	-0.000497091	  -23.3576	-0.000495422	  -23.3077	-0.000500453	  -23.3077	  -12.5113	
  -23.2194	-0.000510655	  -23.2753	-0.000498743	   -23.323	-0.000497091	  -23.2726	-0.000502163	  -23.2726	  -12.5541	
  -23.1839	-0.000512398	  -23.2384	-0.000500305	  -23.2875	-0.000498798	  -23.2366	-0.000503833	  -23.2366	  -12.5958	
  -23.1476	-0.000514106	  -23.2012	-0.0005018	  -23.2495	-0.000500554	  -23.1994	-0.000505487	  -23.1994	  -12.6372	
  -23.1104	-0.000515822	  -23.1629	-0.000503281	  -23.2106	-0.000502366	  -23.1613	-0.000507156	  -23.1613	  -12.6789	
  -23.0722	-0.000517575	  -23.1232	-0.000504757	  -23.1705	-0.000504221	   -23.122	-0.000508851	   -23.122	  -12.7213	
  -23.0335	-0.000519383	  -23.0824	-0.000506254	  -23.1294	-0.000506104	  -23.0818	-0.00051058	  -23.0818	  -12.7645	
  -22.9933	-0.000521258	  -23.0412	-0.000507804	  -23.0883	-0.000507993	  -23.0409	-0.000512352	  -23.0409	  -12.8088	
  -22.9526	-0.000523193	  -22.9985	-0.000509406	  -23.0465	-0.000509862	  -22.9992	-0.000514154	  -22.9992	  -12.8538	
  -22.9106	-0.000525171	  -22.9543	-0.000511049	  -23.0037	-0.000511684	  -22.9562	-0.000515968	  -22.9562	  -12.8992	
  -22.8684	-0.000527171	   -22.909	-0.000512721	  -22.9599	-0.00051344	  -22.9124	-0.000517777	  -22.9124	  -12.9444	
  -22.8253	-0.000529167	  -22.8638	-0.000514404	  -22.9152	-0.000515116	  -22.8681	-0.000519562	  -22.8681	  -12.9891	
  -22.7809	-0.000531127	  -22.8178	-0.000516069	  -22.8698	-0.000516709	  -22.8228	-0.000521302	  -22.8228	  -13.0325	
  -22.7355	-0.000533028	  -22.7702	-0.000517728	  -22.8233	-0.000518228	  -22.7764	-0.000522994	  -22.7764	  -13.0749	
  -22.6887	-0.000534821	  -22.7231	-0.00051935	  -22.7753	-0.000519689	   -22.729	-0.00052462	   -22.729	  -13.1155	
  -22.6408	-0.000536507	  -22.6752	-0.000520901	  -22.7266	-0.000521108	  -22.6809	-0.000526172	  -22.6809	  -13.1543	
  -22.5927	-0.000538093	   -22.626	-0.000522365	  -22.6769	-0.000522509	  -22.6318	-0.000527655	  -22.6318	  -13.1914	
  -22.5429	-0.000539623	  -22.5755	-0.000523745	  -22.6269	-0.000523917	  -22.5818	-0.000529095	  -22.5818	  -13.2274	
  -22.4927	-0.000541114	  -22.5256	-0.000525037	  -22.5762	-0.000525349	  -22.5315	-0.0005305	  -22.5315	  -13.2625	
  -22.4413	-0.000542596	  -22.4756	-0.000526214	   -22.525	-0.000526823	  -22.4806	-0.000531877	  -22.4806	  -13.2969	
  -22.3885	-0.000544124	   -22.424	-0.000527296	  -22.4733	-0.000528355	  -22.4286	-0.000533259	  -22.4286	  -13.3315	
  -22.3352	-0.000545721	  -22.3712	-0.000528304	    -22.42	-0.000529893	  -22.3755	-0.000534639	  -22.3755	   -13.366	
  -22.2816	-0.000547387	  -22.3179	-0.000529257	  -22.3652	-0.000531424	  -22.3215	-0.000536023	  -22.3215	  -13.4006	
   -22.227	-0.000549132	  -22.2632	-0.000530199	  -22.3087	-0.00053298	  -22.2663	-0.000537437	  -22.2663	  -13.4359	
  -22.1715	-0.000550944	  -22.2074	-0.00053116	  -22.2512	-0.000534485	    -22.21	-0.000538863	    -22.21	  -13.4716	
  -22.1148	-0.000552791	  -22.1522	-0.000532144	  -22.1926	-0.000535893	  -22.1532	-0.000540276	  -22.1532	  -13.5069	
  -22.0577	-0.000554647	  -22.0963	-0.000533176	  -22.1322	-0.000537231	  -22.0954	-0.000541684	  -22.0954	  -13.5421	
       -22	-0.000556478	  -22.0392	-0.000534284	  -22.0698	-0.000538529	  -22.0363	-0.000543097	  -22.0363	  -13.5774	
  -21.9409	-0.000558236	  -21.9815	-0.000535477	  -22.0066	-0.000539778	  -21.9763	-0.000544497	  -21.9763	  -13.6124	
  -21.8816	-0.000559869	  -21.9215	-0.00053673	  -21.9421	-0.000541011	  -21.9151	-0.00054587	  -21.9151	  -13.6467	
  -21.8208	-0.000561371	  -21.8613	-0.000538025	  -21.8758	-0.000542262	  -21.8526	-0.000547219	  -21.8526	  -13.6805	
    -21.76	-0.000562745	  -21.7996	-0.000539338	  -21.8072	-0.000543536	  -21.7889	-0.00054854	  -21.7889	  -13.7135	
  -21.6982	-0.000563993	  -21.7367	-0.000540628	  -21.7405	-0.000544848	  -21.7251	-0.000549823	  -21.7251	  -13.7456	
  -21.6358	-0.000565136	  -21.6735	-0.000541868	  -21.6763	-0.000546218	  -21.6619	-0.000551074	  -21.6619	  -13.7769	
  -21.5729	-0.000566223	  -21.6095	-0.00054303	  -21.6111	-0.000547608	  -21.5979	-0.000552287	  -21.5979	  -13.8072	
  -21.5094	-0.000567295	  -21.5443	-0.00054409	  -21.5444	-0.000548968	  -21.5327	-0.000553451	  -21.5327	  -13.8363	
  -21.4452	-0.000568392	  -21.4781	-0.000545047	  -21.4795	-0.00055029	  -21.4676	-0.000554576	  -21.4676	  -13.8644	
  -21.3799	-0.000569562	  -21.4118	-0.000545918	  -21.4178	-0.000551537	  -21.4032	-0.000555672	  -21.4032	  -13.8918	
  -21.3131	-0.000570828	  -21.3449	-0.000546721	  -21.3556	-0.000552673	  -21.3379	-0.000556741	  -21.3379	  -13.9185	
  -21.2452	-0.000572194	  -21.2769	-0.000547476	  -21.2911	-0.000553678	  -21.2711	-0.000557782	  -21.2711	  -13.9446	
  -21.1763	-0.000573658	  -21.2083	-0.000548218	   -21.226	-0.000554565	  -21.2035	-0.000558814	  -21.2035	  -13.9703	
  -21.1071	-0.000575199	  -21.1395	-0.000548979	  -21.1611	-0.000555345	  -21.1359	-0.000559841	  -21.1359	   -13.996	
  -21.0381	-0.00057677	  -21.0691	-0.00054978	  -21.0939	-0.000556051	   -21.067	-0.000560867	   -21.067	  -14.0217	
  -20.9674	-0.000578323	  -20.9982	-0.000550638	  -21.0256	-0.000556736	  -20.9971	-0.000561899	  -20.9971	  -14.0475	
  -20.8962	-0.000579819	  -20.9261	-0.00055156	  -20.9549	-0.000557425	  -20.9257	-0.000562935	  -20.9257	  -14.0734	
  -20.8238	-0.000581218	  -20.8532	-0.000552533	  -20.8837	-0.000558155	  -20.8536	-0.000563969	  -20.8536	  -14.0992	
    -20.75	-0.000582496	  -20.7797	-0.000553538	  -20.8114	-0.000558974	  -20.7804	-0.000565003	  -20.7804	  -14.1251	
  -20.6765	-0.000583648	  -20.7054	-0.000554558	  -20.7362	-0.000559895	   -20.706	-0.000566033	   -20.706	  -14.1508	
   -20.602	-0.000584678	  -20.6305	-0.000555561	  -20.6592	-0.000560906	  -20.6306	-0.000567048	  -20.6306	  -14.1762	
  -20.5269	-0.000585611	  -20.5546	-0.000556515	  -20.5816	-0.000561997	  -20.5544	-0.000568041	  -20.5544	   -14.201	
  -20.4515	-0.000586487	  -20.4782	-0.000557409	  -20.5038	-0.000563146	  -20.4778	-0.000569014	  -20.4778	  -14.2254	
  -20.3745	-0.000587344	  -20.4007	-0.000558233	   -20.426	-0.000564301	  -20.4004	-0.00056996	  -20.4004	   -14.249	
  -20.2968	-0.000588217	  -20.3219	-0.000558979	  -20.3475	-0.000565424	  -20.3221	-0.000570873	  -20.3221	  -14.2718	
  -20.2175	-0.00058914	  -20.2426	-0.000559656	  -20.2688	-0.00056648	   -20.243	-0.000571759	   -20.243	   -14.294	
  -20.1376	-0.000590141	  -20.1631	-0.000560274	  -20.1888	-0.000567432	  -20.1632	-0.000572616	  -20.1632	  -14.3154	
  -20.0566	-0.000591225	  -20.0822	-0.000560851	  -20.1075	-0.000568257	  -20.0821	-0.000573444	  -20.0821	  -14.3361	
  -19.9742	-0.000592386	   -20.001	-0.000561404	  -20.0262	-0.000568963	  -20.0005	-0.000574251	  -20.0005	  -14.3563	
  -19.8908	-0.000593606	  -19.9191	-0.000561957	  -19.9443	-0.000569564	  -19.9181	-0.000575042	  -19.9181	  -14.3761	
   -19.806	-0.000594857	  -19.8367	-0.000562524	  -19.8615	-0.000570079	  -19.8348	-0.00057582	  -19.8348	  -14.3955	
  -19.7205	-0.0005961	  -19.7537	-0.000563111	  -19.7782	-0.000570552	  -19.7508	-0.000576588	  -19.7508	  -14.4147	
   -19.635	-0.000597303	  -19.6694	-0.000563728	   -19.694	-0.000571033	  -19.6661	-0.000577355	  -19.6661	  -14.4339	
  -19.5484	-0.000598437	  -19.5846	-0.000564373	  -19.6084	-0.000571556	  -19.5805	-0.000578122	  -19.5805	   -14.453	
  -19.4617	-0.000599473	  -19.4984	-0.000565037	  -19.5219	-0.000572152	   -19.494	-0.000578887	   -19.494	  -14.4722	
  -19.3744	-0.000600402	  -19.4115	-0.000565709	  -19.4337	-0.000572843	  -19.4066	-0.000579651	  -19.4066	  -14.4913	
  -19.2855	-0.000601234	  -19.3247	-0.000566376	  -19.3446	-0.000573627	  -19.3183	-0.000580412	  -19.3183	  -14.5103	
  -19.1968	-0.000601978	  -19.2367	-0.000567022	  -19.2556	-0.000574496	  -19.2297	-0.000581165	  -19.2297	  -14.5291	
  -19.1066	-0.000602661	  -19.1484	-0.000567635	  -19.1656	-0.00057543	  -19.1402	-0.000581909	  -19.1402	  -14.5477	
  -19.0151	-0.000603314	  -19.0597	-0.000568204	  -19.0741	-0.000576392	  -19.0496	-0.000582637	  -19.0496	  -14.5659	
  -18.9229	-0.000603972	  -18.9698	-0.000568721	  -18.9813	-0.000577343	   -18.958	-0.000583345	   -18.958	  -14.5836	
  -18.8293	-0.000604661	  -18.8794	-0.000569185	  -18.8886	-0.000578249	  -18.8657	-0.000584032	  -18.8657	  -14.6008	
  -18.7343	-0.000605404	   -18.788	-0.000569604	  -18.7952	-0.000579084	  -18.7725	-0.000584697	  -18.7725	  -14.6174	
  -18.6388	-0.00060621	  -18.6953	-0.000569992	  -18.7018	-0.000579818	  -18.6787	-0.00058534	  -18.6787	  -14.6335	
  -18.5426	-0.000607074	   -18.602	-0.000570356	  -18.6075	-0.000580444	   -18.584	-0.000585958	   -18.584	   -14.649	
  -18.4465	-0.000607987	  -18.5074	-0.000570716	  -18.5116	-0.000580969	  -18.4885	-0.000586557	  -18.4885	  -14.6639	
  -18.3495	-0.000608926	  -18.4118	-0.000571086	   -18.415	-0.000581408	  -18.3921	-0.00058714	  -18.3921	  -14.6785	
  -18.2525	-0.000609859	   -18.315	-0.00057148	  -18.3184	-0.000581792	  -18.2953	-0.00058771	  -18.2953	  -14.6928	
  -18.1544	-0.000610755	  -18.2173	-0.000571905	  -18.2213	-0.000582155	  -18.1977	-0.000588272	  -18.1977	  -14.7068	
  -18.0559	-0.000611586	  -18.1194	-0.000572366	  -18.1235	-0.000582532	  -18.0996	-0.000588828	  -18.0996	  -14.7207	
   -17.957	-0.000612333	  -18.0205	-0.000572855	  -18.0238	-0.00058295	  -18.0004	-0.000589379	  -18.0004	  -14.7345	
  -17.8569	-0.000612985	  -17.9202	-0.000573362	  -17.9237	-0.000583432	  -17.9003	-0.000589927	  -17.9003	  -14.7482	
  -17.7564	-0.000613547	  -17.8197	-0.000573873	  -17.8232	-0.000583993	  -17.7998	-0.000590471	  -17.7998	  -14.7618	
   -17.656	-0.000614031	  -17.7185	-0.00057437	  -17.7216	-0.000584625	  -17.6987	-0.000591009	  -17.6987	  -14.7752	
  -17.5544	-0.000614462	  -17.6171	-0.000574834	  -17.6195	-0.000585314	   -17.597	-0.000591537	   -17.597	  -14.7884	
  -17.4525	-0.000614868	  -17.5152	-0.000575255	  -17.5172	-0.000586036	   -17.495	-0.000592053	   -17.495	  -14.8013	
  -17.3495	-0.000615282	  -17.4124	-0.000575624	  -17.4136	-0.000586758	  -17.3918	-0.000592554	  -17.3918	  -14.8139	
  -17.2456	-0.000615729	  -17.3093	-0.000575937	  -17.3104	-0.000587443	  -17.2884	-0.000593036	  -17.2884	  -14.8259	
  -17.1413	-0.00061623	  -17.2045	-0.000576199	   -17.206	-0.000588062	  -17.1839	-0.000593497	  -17.1839	  -14.8374	
  -17.0355	-0.000616797	     -17.1	-0.000576418	  -17.1022	-0.000588597	  -17.0793	-0.000593937	  -17.0793	  -14.8484	
   -16.929	-0.00061743	  -16.9949	-0.000576606	  -16.9974	-0.000589034	  -16.9738	-0.000594357	  -16.9738	  -14.8589	
  -16.8212	-0.000618116	  -16.8892	-0.000576777	  -16.8925	-0.000589373	  -16.8676	-0.000594755	  -16.8676	  -14.8689	
  -16.7129	-0.000618829	  -16.7837	-0.000576947	  -16.7867	-0.000589631	  -16.7611	-0.000595136	  -16.7611	  -14.8784	
  -16.6056	-0.000619541	  -16.6768	-0.000577126	  -16.6794	-0.000589829	   -16.654	-0.000595498	   -16.654	  -14.8875	
  -16.4965	-0.000620218	  -16.5689	-0.000577321	  -16.5712	-0.000589999	  -16.5455	-0.000595846	  -16.5455	  -14.8962	
  -16.3884	-0.000620834	  -16.4605	-0.00057751	  -16.4622	-0.000590176	   -16.437	-0.000596173	   -16.437	  -14.9043	
  -16.2792	-0.000621364	  -16.3518	-0.000577683	  -16.3527	-0.000590391	  -16.3279	-0.000596479	  -16.3279	   -14.912	
  -16.1688	-0.000621792	  -16.2434	-0.000577843	  -16.2425	-0.000590668	  -16.2182	-0.000596768	  -16.2182	  -14.9192	
  -16.0582	-0.00062212	  -16.1344	-0.000578009	  -16.1319	-0.000591017	  -16.1082	-0.000597049	  -16.1082	  -14.9262	
  -15.9471	-0.000622359	  -16.0242	-0.000578169	  -16.0207	-0.000591427	  -15.9973	-0.000597318	  -15.9973	   -14.933	
  -15.8351	-0.000622528	  -15.9133	-0.000578331	    -15.91	-0.000591874	  -15.8861	-0.000597577	  -15.8861	  -14.9394	
  -15.7227	-0.000622657	  -15.8015	-0.000578504	  -15.7991	-0.000592323	  -15.7744	-0.000597828	  -15.7744	  -14.9457	
  -15.6088	-0.000622787	  -15.6905	-0.000578698	  -15.6878	-0.000592736	  -15.6623	-0.000598074	  -15.6623	  -14.9518	
  -15.4948	-0.000622944	  -15.5783	-0.000578911	  -15.5761	-0.000593085	  -15.5497	-0.000598313	  -15.5497	  -14.9578	
  -15.3793	-0.000623151	  -15.4655	-0.000579136	  -15.4641	-0.000593354	  -15.4363	-0.000598547	  -15.4363	  -14.9637	
  -15.2632	-0.000623435	  -15.3529	-0.000579365	  -15.3509	-0.000593538	  -15.3223	-0.000598779	  -15.3223	  -14.9695	
  -15.1473	-0.000623791	  -15.2395	-0.000579587	  -15.2368	-0.000593647	  -15.2079	-0.000599008	  -15.2079	  -14.9752	
  -15.0304	-0.0006242	  -15.1252	-0.000579798	  -15.1224	-0.000593711	  -15.0927	-0.000599236	  -15.0927	  -14.9809	
   -14.913	-0.000624646	  -15.0096	-0.000579988	  -15.0071	-0.000593774	  -14.9766	-0.000599469	  -14.9766	  -14.9867	
  -14.7956	-0.0006251	  -14.8939	-0.000580132	  -14.8909	-0.000593852	  -14.8601	-0.000599695	  -14.8601	  -14.9924	
   -14.677	-0.000625519	  -14.7777	-0.000580206	  -14.7739	-0.00059396	  -14.7429	-0.000599895	  -14.7429	  -14.9974	
  -14.5576	-0.000625869	  -14.6607	-0.000580215	  -14.6566	-0.000594109	   -14.625	-0.000600064	   -14.625	  -15.0016	
  -14.4375	-0.000626133	  -14.5428	-0.000580163	  -14.5396	-0.000594297	  -14.5066	-0.000600198	  -14.5066	   -15.005	
  -14.3176	-0.0006263	   -14.425	-0.00058006	   -14.423	-0.000594502	  -14.3885	-0.000600287	  -14.3885	  -15.0072	
  -14.1971	-0.000626361	  -14.3061	-0.000579914	  -14.3073	-0.000594699	  -14.2702	-0.000600325	  -14.2702	  -15.0081	
  -14.0754	-0.000626335	  -14.1881	-0.000579746	  -14.1919	-0.000594879	  -14.1518	-0.00060032	  -14.1518	   -15.008	
  -13.9531	-0.00062625	  -14.0688	-0.000579579	  -14.0757	-0.000595018	  -14.0325	-0.000600282	  -14.0325	  -15.0071	
  -13.8312	-0.00062612	  -13.9482	-0.000579431	   -13.959	-0.000595105	  -13.9128	-0.000600219	  -13.9128	  -15.0055	
  -13.7095	-0.000625977	  -13.8278	-0.000579324	  -13.8414	-0.000595129	  -13.7929	-0.000600143	  -13.7929	  -15.0036	
  -13.5873	-0.000625853	  -13.7062	-0.000579258	   -13.722	-0.000595096	  -13.6718	-0.000600069	  -13.6718	  -15.0017	
  -13.4647	-0.000625762	  -13.5841	-0.000579231	  -13.6011	-0.000595017	    -13.55	-0.000600003	    -13.55	  -15.0001	
  -13.3411	-0.000625719	  -13.4617	-0.000579241	   -13.478	-0.00059487	  -13.4269	-0.000599943	  -13.4269	  -14.9986	
  -13.2169	-0.000625727	  -13.3382	-0.000579277	   -13.354	-0.000594664	   -13.303	-0.000599889	   -13.303	  -14.9972	
  -13.0918	-0.000625781	  -13.2146	-0.000579315	  -13.2287	-0.000594443	  -13.1784	-0.000599846	  -13.1784	  -14.9962	
  -12.9671	-0.000625861	   -13.089	-0.000579332	  -13.1013	-0.000594236	  -13.0524	-0.00059981	  -13.0524	  -14.9952	
   -12.842	-0.000625951	  -12.9641	-0.000579308	   -12.973	-0.000594045	  -12.9264	-0.000599768	  -12.9264	  -14.9942	
  -12.7166	-0.000626027	  -12.8382	-0.000579231	  -12.8435	-0.000593888	  -12.7994	-0.000599715	  -12.7994	  -14.9929	
  -12.5917	-0.000626063	   -12.712	-0.00057909	  -12.7136	-0.000593825	  -12.6724	-0.000599659	  -12.6724	  -14.9915	
  -12.4664	-0.000626038	  -12.5862	-0.000578885	  -12.5835	-0.000593847	  -12.5454	-0.00059959	  -12.5454	  -14.9898	
  -12.3405	-0.000625941	  -12.4599	-0.000578621	  -12.4533	-0.00059393	  -12.4179	-0.000599498	  -12.4179	  -14.9874	
  -12.2137	-0.000625761	  -12.3327	-0.000578306	  -12.3222	-0.000594076	  -12.2895	-0.000599381	  -12.2895	  -14.9845	
  -12.0871	-0.000625508	  -12.2053	-0.000577962	  -12.1891	-0.000594265	  -12.1605	-0.000599245	  -12.1605	  -14.9811	
  -11.9604	-0.000625219	  -12.0772	-0.000577603	  -12.0561	-0.000594424	  -12.0312	-0.000599082	  -12.0312	  -14.9771	
  -11.8327	-0.000624907	  -11.9484	-0.000577241	   -11.924	-0.000594508	  -11.9017	-0.000598885	  -11.9017	  -14.9721	
  -11.7037	-0.000624561	   -11.819	-0.00057689	   -11.792	-0.000594488	  -11.7716	-0.000598646	  -11.7716	  -14.9662	
  -11.5738	-0.000624229	  -11.6895	-0.00057656	  -11.6592	-0.000594319	  -11.6408	-0.00059837	  -11.6408	  -14.9592	
  -11.4434	-0.000623927	  -11.5591	-0.000576259	  -11.5265	-0.000593979	  -11.5097	-0.000598055	  -11.5097	  -14.9514	
  -11.3137	-0.000623643	   -11.428	-0.00057598	  -11.3945	-0.000593479	  -11.3787	-0.000597701	  -11.3787	  -14.9425	
  -11.1834	-0.000623383	  -11.2974	-0.000575716	  -11.2628	-0.000592851	  -11.2479	-0.000597317	  -11.2479	  -14.9329	
  -11.0531	-0.000623143	  -11.1663	-0.00057545	  -11.1283	-0.000592129	  -11.1159	-0.000596907	  -11.1159	  -14.9227	
  -10.9221	-0.000622897	   -11.034	-0.000575161	  -10.9937	-0.000591366	  -10.9833	-0.000596475	  -10.9833	  -14.9119	
  -10.7899	-0.000622621	  -10.9035	-0.000574835	  -10.8609	-0.000590635	  -10.8514	-0.00059603	  -10.8514	  -14.9008	
  -10.6573	-0.000622307	  -10.7713	-0.000574452	  -10.7258	-0.00058998	  -10.7181	-0.00059558	  -10.7181	  -14.8895	
  -10.5238	-0.000621927	   -10.638	-0.000573997	   -10.589	-0.000589436	  -10.5836	-0.00059512	  -10.5836	   -14.878	
  -10.3899	-0.000621469	  -10.5045	-0.000573465	  -10.4525	-0.00058904	   -10.449	-0.000594658	   -10.449	  -14.8665	
  -10.2559	-0.000620952	  -10.3694	-0.000572857	  -10.3161	-0.000588788	  -10.3138	-0.000594199	  -10.3138	   -14.855	
  -10.1207	-0.000620391	   -10.234	-0.00057218	  -10.1792	-0.000588651	   -10.178	-0.000593741	   -10.178	  -14.8435	
  -9.98515	-0.000619791	  -10.0983	-0.00057145	  -10.0406	-0.00058859	  -10.0414	-0.000593277	  -10.0414	  -14.8319	
  -9.84795	-0.000619181	   -9.9632	-0.000570691	  -9.90266	-0.000588548	   -9.9046	-0.000592806	   -9.9046	  -14.8202	
  -9.71038	-0.000618589	  -9.82714	-0.000569933	  -9.76577	-0.000588449	  -9.76776	-0.000592323	  -9.76776	  -14.8081	
  -9.57289	-0.00061803	  -9.69037	-0.000569191	  -9.62811	-0.000588232	  -9.63046	-0.000591818	  -9.63046	  -14.7954	
  -9.43493	-0.00061752	  -9.55265	-0.000568492	  -9.49038	-0.000587859	  -9.49265	-0.00059129	  -9.49265	  -14.7823	
  -9.29648	-0.000617065	  -9.41446	-0.000567854	  -9.35279	-0.000587293	  -9.35458	-0.000590737	  -9.35458	  -14.7684	
  -9.15848	-0.000616653	  -9.27579	-0.000567265	  -9.21598	-0.000586541	  -9.21675	-0.000590153	  -9.21675	  -14.7538	
  -9.02084	-0.000616267	  -9.13685	-0.000566718	  -9.07935	-0.000585635	  -9.07901	-0.00058954	  -9.07901	  -14.7385	
  -8.88298	-0.000615894	  -8.99737	-0.000566198	  -8.94185	-0.00058463	  -8.94073	-0.000588908	  -8.94073	  -14.7227	
  -8.74415	-0.000615504	   -8.8571	-0.000565675	  -8.80326	-0.00058359	   -8.8015	-0.000588256	   -8.8015	  -14.7064	
  -8.60556	-0.000615062	  -8.71726	-0.000565118	   -8.6648	-0.000582581	  -8.66254	-0.000587587	  -8.66254	  -14.6897	
  -8.46715	-0.000614549	  -8.57774	-0.000564504	  -8.52546	-0.000581659	  -8.52345	-0.000586904	  -8.52345	  -14.6726	
  -8.32763	-0.000613953	    -8.438	-0.000563818	  -8.38571	-0.000580863	  -8.38378	-0.000586211	  -8.38378	  -14.6553	
  -8.18776	-0.000613266	  -8.29751	-0.000563039	  -8.24506	-0.000580206	  -8.24344	-0.000585504	  -8.24344	  -14.6376	
  -8.04775	-0.000612494	  -8.15629	-0.000562163	  -8.10497	-0.000579683	    -8.103	-0.00058478	    -8.103	  -14.6195	
  -7.90732	-0.00061166	  -8.01529	-0.000561205	  -7.96439	-0.000579264	  -7.96233	-0.000584043	  -7.96233	  -14.6011	
  -7.76622	-0.000610782	  -7.87302	-0.000560178	  -7.82233	-0.000578897	  -7.82052	-0.000583285	  -7.82052	  -14.5821	
  -7.62421	-0.000609887	  -7.73097	-0.000559101	  -7.67983	-0.000578517	  -7.67833	-0.000582502	  -7.67833	  -14.5625	
  -7.48178	-0.000609007	  -7.58859	-0.000558011	  -7.53759	-0.000578047	  -7.53599	-0.000581688	  -7.53599	  -14.5422	
  -7.33942	-0.000608161	  -7.44539	-0.000556933	  -7.39484	-0.000577438	  -7.39322	-0.000580844	  -7.39322	  -14.5211	
  -7.19682	-0.000607361	   -7.3021	-0.00055589	   -7.2518	-0.000576643	  -7.25024	-0.000579965	  -7.25024	  -14.4991	
  -7.05372	-0.000606615	  -7.15845	-0.000554897	  -7.10822	-0.000575635	   -7.1068	-0.000579049	   -7.1068	  -14.4762	
  -6.90964	-0.000605919	  -7.01394	-0.000553966	  -6.96505	-0.000574419	  -6.96288	-0.000578102	  -6.96288	  -14.4525	
  -6.76461	-0.000605256	  -6.86932	-0.000553091	   -6.8215	-0.000573034	  -6.81848	-0.000577127	  -6.81848	  -14.4282	
  -6.61963	-0.000604601	  -6.72481	-0.000552251	  -6.67732	-0.000571549	  -6.67392	-0.000576134	  -6.67392	  -14.4033	
  -6.47322	-0.000603929	  -6.58035	-0.000551426	    -6.533	-0.000570016	  -6.52885	-0.000575124	  -6.52885	  -14.3781	
   -6.3264	-0.000603211	  -6.43495	-0.000550586	  -6.38802	-0.000568525	  -6.38313	-0.000574107	  -6.38313	  -14.3527	
   -6.1792	-0.000602423	  -6.28912	-0.000549704	  -6.24385	-0.000567154	  -6.23739	-0.000573094	  -6.23739	  -14.3273	
   -6.0316	-0.000601551	  -6.14333	-0.00054875	   -6.0999	-0.000565947	  -6.09161	-0.000572083	  -6.09161	  -14.3021	
  -5.88457	-0.000600589	  -5.99732	-0.000547691	  -5.95395	-0.000564933	  -5.94528	-0.000571071	  -5.94528	  -14.2768	
  -5.73707	-0.000599537	  -5.85178	-0.000546532	  -5.80827	-0.00056411	  -5.79904	-0.00057006	  -5.79904	  -14.2515	
  -5.58959	-0.00059841	  -5.70544	-0.000545276	  -5.66235	-0.00056345	  -5.65246	-0.000569045	  -5.65246	  -14.2261	
   -5.4433	-0.000597231	  -5.55881	-0.000543924	  -5.51664	-0.000562882	  -5.50625	-0.000568012	  -5.50625	  -14.2003	
  -5.29639	-0.000596021	  -5.41308	-0.000542498	   -5.3706	-0.000562343	  -5.36002	-0.000566954	  -5.36002	  -14.1739	
   -5.1508	-0.000594807	  -5.26718	-0.000541036	   -5.2228	-0.00056176	  -5.21359	-0.000565867	  -5.21359	  -14.1467	
  -5.00446	-0.000593615	   -5.1211	-0.000539569	  -5.07621	-0.000561027	  -5.06725	-0.000564737	  -5.06725	  -14.1184	
  -4.85812	-0.000592458	  -4.97577	-0.00053811	  -4.92952	-0.000560096	  -4.92113	-0.000563555	  -4.92113	  -14.0889	
  -4.71151	-0.000591345	  -4.83061	-0.000536682	  -4.78245	-0.000558961	  -4.77486	-0.000562329	  -4.77486	  -14.0582	
  -4.56366	-0.000590271	  -4.68559	-0.000535305	  -4.63549	-0.0005576	  -4.62825	-0.000561059	  -4.62825	  -14.0265	
  -4.41608	-0.000589226	  -4.54016	-0.000534131	  -4.48811	-0.000556178	  -4.48145	-0.000559845	  -4.48145	  -13.9961	
  -4.26751	-0.000588186	  -4.39432	-0.000533017	  -4.34103	-0.000554654	  -4.33429	-0.000558619	  -4.33429	  -13.9655	
   -4.1192	-0.000587123	  -4.24808	-0.000531924	  -4.19445	-0.000553078	  -4.18724	-0.000557375	  -4.18724	  -13.9344	
  -3.97088	-0.000586006	  -4.10094	-0.000530818	  -4.04757	-0.0005515	   -4.0398	-0.000556108	   -4.0398	  -13.9027	
  -3.82178	-0.000584804	  -3.95343	-0.000529656	  -3.90014	-0.000549969	  -3.89179	-0.00055481	  -3.89179	  -13.8702	
