# User: ACHyster
# File name: C:/ACHYSTER/ACHyster SENS/SHAMS/CoFe2O4-1gl-water-60 Glycerol-Sens-08-03-2023/CoFe2O4-1gl-water-60 Glycerol- 10_100F- 24 kAm -Sens-08-03-20230002#1.txt
# Saved at: mi. mar. 8 13:16:30 2023
# Hyster Loop (3 iterations). Intensity: 24.0 kA/m; Tuned frequency: 29.5 kHz
# Units x axis: (kA/m)
# Units y axis: "Repeats y" & "Average y" (10^(-3)Am^2); "Mass avg y" (Am^2/kg)
# Magnetic mass: 4e-05 g
# Parameter      	Repeat   1	Repeat   2	Repeat   3	Average   	Sigma     
# H_C (kA/m)     	      18.7	      19.0	      19.0	      18.9	       0.1
# M_R (Am^2/kg)  	      24.7	      24.6	      25.0	      24.8	       0.2
# M_max (Am^2/kg)	      18.4	      17.6	      17.7	      17.9	       0.4
# Area (mJ/kg)   	    2207.0	    2201.2	    2238.7	    2215.7	      16.5
# SAR (W/g)      	      65.1	      64.9	      66.0	      65.4	       0.5
#Repeat 1 x	Repeat 1 y	Repeat 2 x	Repeat 2 y	Repeat 3 x	Repeat 3 y	Average x 	Average y 	Mass avg x 	Mass avg y 
   -3.5545	-0.00106037	   -3.5405	-0.00105783	  -3.55445	-0.00107316	  -3.54982	-0.00106379	  -3.54982	  -26.5946	
  -3.40701	-0.00105773	  -3.39185	-0.0010556	  -3.40715	-0.00107075	    -3.402	-0.00106136	    -3.402	   -26.534	
  -3.25932	-0.00105505	  -3.24571	-0.00105314	  -3.25962	-0.00106825	  -3.25489	-0.00105881	  -3.25489	  -26.4704	
  -3.11155	-0.00105221	  -3.09913	-0.00105079	  -3.11196	-0.00106556	  -3.10755	-0.00105619	  -3.10755	  -26.4047	
   -2.9638	-0.00104922	  -2.95162	-0.0010486	   -2.9643	-0.00106279	  -2.95991	-0.00105354	  -2.95991	  -26.3385	
   -2.8159	-0.00104624	  -2.80371	-0.00104631	  -2.81663	-0.00106006	  -2.81208	-0.00105087	  -2.81208	  -26.2717	
  -2.66805	-0.00104333	  -2.65539	-0.00104373	  -2.66916	-0.00105735	   -2.6642	-0.00104814	   -2.6642	  -26.2034	
   -2.5198	-0.00104037	  -2.50666	-0.00104103	   -2.5216	-0.00105455	  -2.51602	-0.00104531	  -2.51602	  -26.1329	
  -2.37082	-0.00103726	  -2.35821	-0.00103843	  -2.37402	-0.00105159	  -2.36768	-0.00104243	  -2.36768	  -26.0607	
  -2.22219	-0.00103406	  -2.20967	-0.00103593	  -2.22646	-0.00104855	  -2.21944	-0.00103951	  -2.21944	  -25.9878	
  -2.07327	-0.00103088	  -2.06118	-0.00103327	  -2.07869	-0.00104554	  -2.07104	-0.00103656	  -2.07104	  -25.9141	
  -1.92445	-0.00102774	  -1.91325	-0.00103034	  -1.93089	-0.00104253	  -1.92286	-0.00103354	  -1.92286	  -25.8385	
  -1.77557	-0.00102452	  -1.76513	-0.00102731	  -1.78309	-0.00103943	   -1.7746	-0.00103042	   -1.7746	  -25.7606	
  -1.62655	-0.00102117	  -1.61693	-0.00102441	  -1.63537	-0.00103619	  -1.62628	-0.00102726	  -1.62628	  -25.6814	
  -1.47728	-0.00101776	  -1.46816	-0.00102156	  -1.48745	-0.00103288	  -1.47763	-0.00102407	  -1.47763	  -25.6017	
  -1.32802	-0.00101439	  -1.31859	-0.00101851	  -1.33955	-0.0010296	  -1.32872	-0.00102083	  -1.32872	  -25.5208	
  -1.17875	-0.00101101	  -1.16876	-0.00101519	  -1.19145	-0.0010263	  -1.17965	-0.0010175	  -1.17965	  -25.4375	
  -1.02956	-0.00100752	  -1.01901	-0.00101184	  -1.04349	-0.00102288	  -1.03068	-0.00101408	  -1.03068	   -25.352	
 -0.880113	-0.00100393	 -0.869531	-0.00100859	 -0.895264	-0.00101933	 -0.881636	-0.00101062	 -0.881636	  -25.2654	
 -0.730784	-0.00100031	 -0.719711	-0.00100534	 -0.746982	-0.00101573	 -0.732492	-0.00100713	 -0.732492	  -25.1781	
 -0.581328	-0.000996712	 -0.570291	-0.00100193	 -0.598944	-0.00101214	 -0.583521	-0.0010036	 -0.583521	  -25.0899	
   -0.4322	-0.000993074	  -0.42074	-0.000998302	 -0.451032	-0.00100855	 -0.434657	-0.000999974	 -0.434657	  -24.9993	
 -0.283048	-0.000989319	 -0.271152	-0.000994591	 -0.302909	-0.00100483	 -0.285703	-0.000996247	 -0.285703	  -24.9062	
   -0.1338	-0.000985483	 -0.121859	-0.000990955	 -0.154714	 -0.001001	 -0.136791	-0.000992478	 -0.136791	   -24.812	
 0.0157008	-0.000981646	 0.0271863	-0.000987332	-0.00644285	-0.000997113	 0.0121481	-0.000988697	 0.0121481	  -24.7174	
  0.164649	-0.000977803	  0.176582	-0.000983545	  0.141881	-0.000993228	  0.161038	-0.000984859	  0.161038	  -24.6215	
  0.313212	-0.000973877	  0.325786	-0.000979563	  0.290157	-0.000989307	  0.309718	-0.000980916	  0.309718	  -24.5229	
  0.461701	-0.000969841	  0.474707	-0.000975538	  0.438486	-0.000985314	  0.458298	-0.000976898	  0.458298	  -24.4224	
  0.610088	-0.000965759	  0.624077	-0.000971575	  0.587372	-0.000981246	  0.607179	-0.00097286	  0.607179	  -24.3215	
  0.758415	-0.000961681	  0.773752	-0.000967579	  0.736259	-0.000977152	  0.756142	-0.000968804	  0.756142	  -24.2201	
  0.906355	-0.000957573	  0.923685	-0.000963421	  0.885357	-0.00097304	  0.905132	-0.000964678	  0.905132	   -24.117	
   1.05427	-0.000953371	   1.07366	-0.000959128	   1.03463	-0.000968837	   1.05418	-0.000960445	   1.05418	  -24.0111	
   1.20208	-0.000949075	   1.22374	-0.000954825	   1.18414	-0.000964515	   1.20332	-0.000956139	   1.20332	  -23.9035	
   1.35028	-0.000944744	   1.37424	-0.000950553	   1.33317	-0.000960116	   1.35256	-0.000951804	   1.35256	  -23.7951	
   1.49824	-0.000940406	   1.52449	-0.000946204	   1.48252	-0.000955725	   1.50175	-0.000947445	   1.50175	  -23.6861	
   1.64638	-0.000936014	   1.67432	-0.000941686	   1.63221	-0.000951323	   1.65097	-0.000943008	   1.65097	  -23.5752	
   1.79478	-0.000931523	   1.82325	-0.000937065	    1.7819	-0.00094681	   1.79998	-0.000938466	   1.79998	  -23.4616	
   1.94338	-0.00092696	   1.97197	-0.000932455	   1.93176	-0.000942156	   1.94904	-0.000933857	   1.94904	  -23.3464	
     2.092	-0.000922381	   2.12028	-0.000927845	   2.08139	-0.000937457	   2.09789	-0.000929228	   2.09789	  -23.2307	
   2.24069	-0.000917778	   2.26867	-0.000923122	   2.23052	-0.000932797	   2.24663	-0.000924566	   2.24663	  -23.1141	
   2.38978	-0.000913093	   2.41729	-0.000918261	   2.37947	-0.000928133	   2.39552	-0.000919829	   2.39552	  -22.9957	
   2.53861	-0.000908312	   2.56567	-0.000913348	   2.52823	-0.00092332	   2.54417	-0.000914993	   2.54417	  -22.8748	
   2.68722	-0.000903483	   2.71428	-0.000908456	   2.67602	-0.000918347	   2.69251	-0.000910096	   2.69251	  -22.7524	
   2.83567	-0.000898639	   2.86253	-0.000903531	   2.82396	-0.000913356	   2.84072	-0.000905175	   2.84072	  -22.6294	
   2.98412	-0.000893747	   3.01102	-0.000898482	   2.97221	-0.000908441	   2.98912	-0.000900223	   2.98912	  -22.5056	
   3.13249	-0.000888766	   3.15922	-0.000893323	   3.12118	-0.0009035	   3.13763	-0.000895196	   3.13763	  -22.3799	
   3.28087	-0.000883701	   3.30725	-0.000888146	   3.27038	-0.000898424	   3.28617	-0.00089009	   3.28617	  -22.2523	
   3.42887	-0.000878605	   3.45547	-0.000882982	    3.4192	-0.000893186	   3.43451	-0.000884924	   3.43451	  -22.1231	
   3.57733	-0.000873498	    3.6035	-0.000877763	   3.56744	-0.000887866	   3.58276	-0.000879709	   3.58276	  -21.9927	
   3.72529	-0.000868337	   3.75161	-0.000872427	   3.71561	-0.000882582	   3.73084	-0.000874449	   3.73084	  -21.8612	
   3.87269	-0.00086308	   3.89975	-0.000867011	   3.86388	-0.000877347	   3.87877	-0.000869146	   3.87877	  -21.7287	
   4.02028	-0.000857753	   4.04784	-0.000861596	   4.01214	-0.000872033	   4.02675	-0.000863794	   4.02675	  -21.5948	
   4.16756	-0.000852404	   4.19556	-0.000856181	   4.16027	-0.000866552	   4.17446	-0.000858379	   4.17446	  -21.4595	
   4.31457	-0.00084703	    4.3428	-0.00085065	   4.30776	-0.000860991	   4.32171	-0.00085289	   4.32171	  -21.3223	
   4.46111	-0.000841582	   4.48994	-0.00084503	   4.45519	-0.000855465	   4.46874	-0.000847359	   4.46874	   -21.184	
   4.60752	-0.00083604	   4.63707	-0.000839457	    4.6021	-0.000849952	   4.61556	-0.000841816	   4.61556	  -21.0454	
   4.75352	-0.000830437	   4.78412	-0.000833941	    4.7492	-0.000844329	   4.76228	-0.000836236	   4.76228	  -20.9059	
   4.89965	-0.000824811	     4.931	-0.000828346	   4.89598	-0.000838595	   4.90888	-0.000830584	   4.90888	  -20.7646	
   5.04581	-0.000819149	   5.07783	-0.000822564	   5.04241	-0.000832844	   5.05535	-0.000824852	   5.05535	  -20.6213	
   5.19191	-0.000813413	   5.22451	-0.000816736	   5.18858	-0.000827118	   5.20167	-0.000819089	   5.20167	  -20.4772	
   5.33793	-0.000807594	   5.37088	-0.00081103	   5.33434	-0.00082133	   5.34772	-0.000813318	   5.34772	  -20.3329	
    5.4837	-0.000801754	   5.51694	-0.000805367	   5.47951	-0.000815417	   5.49338	-0.000807513	   5.49338	  -20.1878	
   5.62933	-0.000795946	   5.66263	-0.000799547	   5.62444	-0.00080946	    5.6388	-0.000801651	    5.6388	  -20.0413	
   5.77456	-0.000790113	   5.80789	-0.00079354	   5.76928	-0.00080356	   5.78391	-0.000795738	   5.78391	  -19.8934	
   5.91977	-0.000784159	   5.95293	-0.000787519	   5.91363	-0.000797656	   5.92878	-0.000789778	   5.92878	  -19.7445	
   6.06484	-0.000778066	   6.09802	-0.000781609	   6.05735	-0.00079163	    6.0734	-0.000783768	    6.0734	  -19.5942	
   6.20946	-0.000771936	   6.24281	-0.000775716	    6.2006	-0.000785488	   6.21762	-0.000777713	   6.21762	  -19.4428	
   6.35359	-0.00076586	   6.38748	-0.000769676	   6.34393	-0.000779354	   6.36167	-0.00077163	   6.36167	  -19.2908	
   6.49762	-0.000759765	   6.53198	-0.00076349	   6.48693	-0.000773294	   6.50551	-0.000765516	   6.50551	  -19.1379	
   6.64165	-0.00075354	   6.67641	-0.000757332	   6.62967	-0.000767204	   6.64924	-0.000759359	   6.64924	   -18.984	
   6.78587	-0.000747194	   6.82077	-0.000751295	    6.7724	-0.000760994	   6.79301	-0.000753161	   6.79301	   -18.829	
   6.93009	-0.000740855	    6.9649	-0.000745254	   6.91533	-0.000754726	   6.93677	-0.000746945	   6.93677	  -18.6736	
   7.07385	-0.000734552	   7.10909	-0.000739131	   7.05798	-0.000748509	   7.08031	-0.000740731	   7.08031	  -18.5183	
   7.21768	-0.000728182	   7.25348	-0.000732892	   7.20047	-0.000742288	   7.22388	-0.000734454	   7.22388	  -18.3613	
   7.36117	-0.000721659	    7.3971	-0.000726536	   7.34282	-0.000735946	   7.36703	-0.000728047	   7.36703	  -18.2012	
    7.5046	-0.000715033	   7.53998	-0.000720159	   7.48528	-0.00072949	   7.50995	-0.000721561	   7.50995	   -18.039	
   7.64766	-0.000708358	   7.68273	-0.00071384	   7.62775	-0.00072304	   7.65271	-0.000715079	   7.65271	   -17.877	
   7.79078	-0.000701643	   7.82552	-0.000707554	    7.7697	-0.000716631	   7.79534	-0.000708609	   7.79534	  -17.7152	
   7.93361	-0.000694839	   7.96903	-0.000701182	   7.91134	-0.000710165	   7.93799	-0.000702062	   7.93799	  -17.5515	
   8.07607	-0.000687963	   8.11209	-0.000694663	   8.05281	-0.000703552	   8.08032	-0.000695393	   8.08032	  -17.3848	
   8.21792	-0.000681076	   8.25465	-0.000688066	   8.19407	-0.000696855	   8.22221	-0.000688666	   8.22221	  -17.2166	
   8.35941	-0.000674183	   8.39641	-0.000681483	   8.33494	-0.000690206	   8.36359	-0.000681958	   8.36359	  -17.0489	
   8.50041	-0.000667224	   8.53822	-0.000674919	   8.47589	-0.000683601	   8.50484	-0.000675248	   8.50484	  -16.8812	
   8.64124	-0.000660164	   8.68029	-0.0006683	   8.61696	-0.000676902	   8.64616	-0.000668455	   8.64616	  -16.7114	
   8.78188	-0.000653043	   8.82183	-0.000661566	   8.75793	-0.00067005	   8.78721	-0.000661553	   8.78721	  -16.5388	
   8.92232	-0.000645934	   8.96286	-0.000654748	   8.89842	-0.000663152	   8.92787	-0.000654611	   8.92787	  -16.3653	
   9.06266	-0.000638844	   9.10389	-0.000647937	   9.03829	-0.000656306	   9.06828	-0.000647696	   9.06828	  -16.1924	
   9.20294	-0.000631712	   9.24457	-0.000641136	   9.17771	-0.000649464	   9.20841	-0.000640771	   9.20841	  -16.0193	
   9.34318	-0.000624486	   9.38472	-0.000634245	   9.31686	-0.000642525	   9.34826	-0.000633752	   9.34826	  -15.8438	
   9.48332	-0.000617207	   9.52435	-0.000627219	   9.45612	-0.000635474	   9.48793	-0.000626633	   9.48793	  -15.6658	
   9.62287	-0.000609949	    9.6638	-0.000620153	   9.59498	-0.000628407	   9.62722	-0.000619503	   9.62722	  -15.4876	
   9.76178	-0.000602699	   9.80273	-0.000613124	   9.73337	-0.000621389	   9.76596	-0.000612404	   9.76596	  -15.3101	
   9.89986	-0.000595388	   9.94119	-0.000606091	    9.8713	-0.000614359	   9.90412	-0.000605279	   9.90412	   -15.132	
   10.0375	-0.00058799	   10.0792	-0.000598956	    10.009	-0.000607228	   10.0419	-0.000598058	   10.0419	  -14.9514	
    10.175	-0.000580563	   10.2168	-0.000591695	   10.1463	-0.000600012	   10.1794	-0.000590757	   10.1794	  -14.7689	
   10.3117	-0.000573166	   10.3539	-0.000584399	   10.2833	-0.000592794	   10.3163	-0.000583453	   10.3163	  -14.5863	
   10.4482	-0.000565764	   10.4903	-0.000577162	   10.4196	-0.000585603	   10.4527	-0.000576176	   10.4527	  -14.4044	
   10.5843	-0.000558285	   10.6259	-0.000569931	   10.5559	-0.000578367	   10.5887	-0.000568861	   10.5887	  -14.2215	
   10.7199	-0.000550735	    10.761	-0.000562602	   10.6911	-0.000571036	    10.724	-0.000561458	    10.724	  -14.0364	
   10.8548	-0.00054318	   10.8958	-0.000555181	   10.8253	-0.000563652	   10.8586	-0.000554005	   10.8586	  -13.8501	
   10.9893	-0.000535643	   11.0301	-0.000547756	    10.959	-0.00055628	   10.9928	-0.00054656	   10.9928	   -13.664	
   11.1233	-0.000528116	   11.1641	-0.000540363	   11.0923	-0.00054891	   11.1265	-0.00053913	   11.1265	  -13.4782	
    11.257	-0.000520563	   11.2977	-0.000532934	   11.2251	-0.000541476	   11.2599	-0.000531658	   11.2599	  -13.2914	
   11.3903	-0.000512959	    11.431	-0.000525414	    11.357	-0.000533953	   11.3928	-0.000524109	   11.3928	  -13.1027	
    11.523	-0.000505288	    11.564	-0.000517836	   11.4879	-0.000526399	    11.525	-0.000516508	    11.525	  -12.9127	
    11.655	-0.000497591	   11.6962	-0.000510239	   11.6184	-0.000518863	   11.6566	-0.000508898	   11.6566	  -12.7224	
   11.7866	-0.000489917	   11.8277	-0.000502633	   11.7487	-0.00051131	   11.7877	-0.000501287	   11.7877	  -12.5322	
   11.9178	-0.000482249	   11.9587	-0.000495018	   11.8786	-0.000503677	   11.9184	-0.000493648	   11.9184	  -12.3412	
   12.0486	-0.000474525	   12.0893	-0.000487381	   12.0085	-0.000495968	   12.0488	-0.000485958	   12.0488	   -12.149	
   12.1796	-0.000466739	   12.2193	-0.000479701	   12.1381	-0.000488264	    12.179	-0.000478235	    12.179	  -11.9559	
   12.3097	-0.000458929	   12.3487	-0.000471968	   12.2673	-0.000480607	   12.3086	-0.000470501	   12.3086	  -11.7625	
   12.4392	-0.000451111	   12.4777	-0.000464197	    12.396	-0.000472924	   12.4376	-0.000462744	   12.4376	  -11.5686	
    12.568	-0.000443267	   12.6062	-0.000456442	   12.5244	-0.000465041	   12.5662	-0.000454917	   12.5662	  -11.3729	
   12.6965	-0.000435375	    12.734	-0.000448712	   12.6526	-0.000457106	   12.6944	-0.000447064	   12.6944	  -11.1766	
   12.8249	-0.000427445	   12.8614	-0.00044095	   12.7815	-0.000449359	   12.8226	-0.000439251	   12.8226	  -10.9813	
    12.953	-0.000419492	   12.9884	-0.000433117	   12.9105	-0.000441752	   12.9506	-0.000431454	   12.9506	  -10.7863	
   13.0807	-0.000411521	   13.1149	-0.000425252	   13.0384	-0.000434046	    13.078	-0.000423606	    13.078	  -10.5902	
   13.2075	-0.00040352	   13.2408	-0.00041741	   13.1652	-0.000426112	   13.2045	-0.000415681	   13.2045	   -10.392	
   13.3343	-0.000395485	   13.3662	-0.000409577	   13.2905	-0.000418159	   13.3304	-0.00040774	   13.3304	  -10.1935	
   13.4608	-0.000387421	    13.491	-0.000401696	   13.4155	-0.000410425	   13.4558	-0.000399847	   13.4558	  -9.99619	
   13.5869	-0.000379341	   13.6152	-0.000393759	   13.5407	-0.000402826	   13.5809	-0.000391975	   13.5809	  -9.79938	
   13.7117	-0.000371239	   13.7388	-0.000385816	   13.6662	-0.000395084	   13.7056	-0.000384047	   13.7056	  -9.60116	
   13.8365	-0.000363112	   13.8622	-0.000377893	    13.791	-0.000387157	   13.8299	-0.000376054	   13.8299	  -9.40135	
   13.9605	-0.000354965	   13.9847	-0.000369962	   13.9153	-0.000379255	   13.9535	-0.000368061	   13.9535	  -9.20152	
   14.0842	-0.000346804	   14.1064	-0.000361979	   14.0387	-0.000371526	   14.0764	-0.000360103	   14.0764	  -9.00258	
    14.207	-0.000338625	   14.2275	-0.000353961	   14.1619	-0.00036383	   14.1988	-0.000352139	   14.1988	  -8.80347	
   14.3292	-0.000330423	    14.348	-0.000345959	   14.2846	-0.000355966	   14.3206	-0.000344116	   14.3206	   -8.6029	
   14.4509	-0.0003222	   14.4685	-0.000337989	   14.4066	-0.000347953	    14.442	-0.000336047	    14.442	  -8.40118	
   14.5721	-0.00031396	   14.5881	-0.000330016	   14.5284	-0.000340028	   14.5628	-0.000328002	   14.5628	  -8.20004	
   14.6925	-0.000305709	    14.707	-0.000321997	   14.6494	-0.000332276	    14.683	-0.000319994	    14.683	  -7.99985	
   14.8124	-0.000297446	   14.8254	-0.000313918	   14.7695	-0.000324486	   14.8024	-0.00031195	   14.8024	  -7.79876	
   14.9314	-0.000289163	   14.9429	-0.000305836	   14.8889	-0.000316481	   14.9211	-0.000303827	   14.9211	  -7.59567	
   15.0503	-0.000280863	   15.0602	-0.000297779	    15.008	-0.000308369	   15.0395	-0.000295671	   15.0395	  -7.39176	
   15.1685	-0.000272552	   15.1765	-0.00028973	   15.1263	-0.000300371	   15.1571	-0.000287551	   15.1571	  -7.18878	
   15.2863	-0.000264242	   15.2922	-0.000281656	   15.2437	-0.000292491	   15.2741	-0.000279463	   15.2741	  -6.98658	
   15.4034	-0.000255907	   15.4074	-0.000273554	    15.361	-0.000284555	   15.3906	-0.000271339	   15.3906	  -6.78347	
   15.5197	-0.000247485	   15.5225	-0.000265451	   15.4778	-0.000276461	   15.5067	-0.000263132	   15.5067	  -6.57831	
   15.6354	-0.000239012	   15.6371	-0.00025736	   15.5941	-0.000268327	   15.6222	-0.0002549	   15.6222	   -6.3725	
   15.7507	-0.000230614	   15.7511	-0.00024927	   15.7102	-0.000260297	   15.7373	-0.000246727	   15.7373	  -6.16818	
   15.8651	-0.000222294	   15.8648	-0.000241165	   15.8255	-0.000252333	   15.8518	-0.000238597	   15.8518	  -5.96493	
   15.9784	-0.000213919	   15.9778	-0.000233051	   15.9401	-0.000244277	   15.9654	-0.000230416	   15.9654	   -5.7604	
    16.091	-0.000205427	   16.0906	-0.000224931	   16.0541	-0.000236105	   16.0786	-0.000222154	   16.0786	  -5.55385	
   16.2034	-0.000196915	   16.2025	-0.000216807	   16.1673	-0.000227947	   16.1911	-0.00021389	   16.1911	  -5.34724	
   16.3156	-0.000188488	   16.3139	-0.00020868	   16.2798	-0.000219894	   16.3031	-0.000205687	   16.3031	  -5.14219	
   16.4271	-0.000180113	   16.4245	-0.000200551	   16.3917	-0.000211852	   16.4144	-0.000197505	   16.4144	  -4.93764	
   16.5384	-0.000171689	   16.5346	-0.000192411	   16.5023	-0.000203703	   16.5251	-0.000189268	   16.5251	  -4.73169	
   16.6491	-0.000163188	   16.6439	-0.000184254	   16.6122	-0.000195481	   16.6351	-0.000180974	   16.6351	  -4.52436	
   16.7586	-0.000154688	   16.7525	-0.000176094	   16.7219	-0.000187302	   16.7444	-0.000172694	   16.7444	  -4.31736	
   16.8676	-0.000146263	   16.8603	-0.000167933	   16.8308	-0.000179194	   16.8529	-0.000164463	   16.8529	  -4.11158	
   16.9765	-0.000137876	   16.9673	-0.000159771	   16.9393	-0.000171111	    16.961	-0.000156253	    16.961	  -3.90632	
   17.0846	-0.000129434	   17.0736	-0.000151597	   17.0469	-0.000162939	   17.0684	-0.00014799	   17.0684	  -3.69975	
    17.192	-0.000120937	   17.1791	-0.000143405	   17.1539	-0.000154637	    17.175	-0.00013966	    17.175	   -3.4915	
   17.2984	-0.000112473	   17.2839	-0.000135182	   17.2603	-0.000146364	   17.2808	-0.00013134	   17.2808	  -3.28349	
    17.404	-0.000104082	   17.3879	-0.00012698	   17.3663	-0.000138272	    17.386	-0.000123111	    17.386	  -3.07778	
   17.5088	-9.57027e-05	   17.4912	-0.000118825	   17.4714	-0.000130252	   17.4904	-0.000114927	   17.4904	  -2.87317	
   17.6128	-8.72655e-05	   17.5934	-0.000110676	   17.5753	-0.000122119	   17.5938	-0.000106687	   17.5938	  -2.66717	
   17.7162	-7.87814e-05	   17.6949	-0.000102477	   17.6783	-0.000113884	   17.6965	-9.83807e-05	   17.6965	  -2.45952	
    17.819	-7.03622e-05	   17.7956	-9.42783e-05	   17.7801	-0.000105695	   17.7982	-9.01118e-05	   17.7982	   -2.2528	
   17.9213	-6.20619e-05	   17.8957	-8.61263e-05	    17.881	-9.76176e-05	   17.8993	-8.19353e-05	   17.8993	  -2.04838	
   18.0226	-5.3793e-05	   17.9952	-7.79889e-05	   17.9811	-8.95408e-05	   17.9997	-7.37742e-05	   17.9997	  -1.84436	
   18.1233	-4.55063e-05	   18.0942	-6.98079e-05	   18.0803	-8.13718e-05	   18.0993	-6.5562e-05	   18.0993	  -1.63905	
   18.2232	-3.72168e-05	   18.1926	-6.16138e-05	   18.1787	-7.31545e-05	   18.1981	-5.73283e-05	   18.1981	  -1.43321	
   18.3216	-2.89392e-05	     18.29	-5.34953e-05	   18.2764	-6.50249e-05	    18.296	-4.91532e-05	    18.296	  -1.22883	
   18.4193	-2.06814e-05	    18.387	-4.545e-05	   18.3735	-5.69919e-05	   18.3933	-4.10411e-05	   18.3933	  -1.02603	
   18.5164	-1.24697e-05	   18.4831	-3.73605e-05	   18.4702	-4.89049e-05	   18.4899	-3.29117e-05	   18.4899	 -0.822792	
    18.613	-4.30159e-06	   18.5791	-2.913e-05	    18.566	-4.06837e-05	    18.586	-2.47051e-05	    18.586	 -0.617628	
   18.7087	3.85879e-06	   18.6748	-2.08737e-05	   18.6613	-3.24789e-05	   18.6816	-1.64979e-05	   18.6816	 -0.412449	
   18.8038	1.20372e-05	   18.7699	-1.27724e-05	   18.7561	-2.44284e-05	   18.7766	-8.38786e-06	   18.7766	 -0.209696	
   18.8983	2.02201e-05	   18.8641	-4.80017e-06	   18.8501	-1.6446e-05	   18.8708	-3.42011e-07	   18.8708	-0.00855027	
   18.9915	2.83783e-05	   18.9578	3.25959e-06	   18.9433	-8.34727e-06	   18.9642	7.76354e-06	   18.9642	  0.194088	
   19.0839	3.6506e-05	    19.051	 1.148e-05	   19.0357	-1.40686e-07	   19.0568	1.59484e-05	   19.0568	  0.398711	
   19.1757	4.46325e-05	   19.1432	1.97011e-05	   19.1274	7.99202e-06	   19.1488	2.41085e-05	   19.1488	  0.602714	
   19.2669	5.27757e-05	   19.2344	2.77748e-05	   19.2185	1.59758e-05	   19.2399	3.21754e-05	   19.2399	  0.804385	
   19.3576	6.09147e-05	   19.3246	3.5771e-05	   19.3089	2.39487e-05	   19.3304	4.02115e-05	   19.3304	   1.00529	
   19.4472	6.90222e-05	   19.4142	4.38543e-05	   19.3984	3.2047e-05	   19.4199	4.83078e-05	   19.4199	    1.2077	
   19.5365	7.70984e-05	   19.5027	5.20526e-05	   19.4872	4.02007e-05	   19.5088	5.64506e-05	   19.5088	   1.41126	
   19.6245	8.51749e-05	   19.5905	6.02162e-05	    19.575	4.82469e-05	   19.5966	6.4546e-05	   19.5966	   1.61365	
   19.7119	9.32611e-05	   19.6779	6.82003e-05	   19.6621	5.61804e-05	    19.684	7.25473e-05	    19.684	   1.81368	
   19.7985	0.000101337	   19.7645	7.60988e-05	   19.7487	6.41584e-05	   19.7706	8.05314e-05	   19.7706	   2.01328	
    19.884	0.000109361	   19.8504	8.40939e-05	   19.8346	7.22563e-05	   19.8563	8.85704e-05	   19.8563	   2.21426	
   19.9692	0.000117355	   19.9353	9.22034e-05	   19.9201	8.03574e-05	   19.9415	9.66388e-05	   19.9415	   2.41597	
   20.0536	0.000125393	   20.0198	0.000100282	   20.0047	8.83683e-05	    20.026	0.000104681	    20.026	   2.61702	
    20.137	0.000133461	   20.1034	0.000108226	   20.0882	9.63357e-05	   20.1095	0.000112674	   20.1095	   2.81685	
   20.2195	0.000141503	   20.1862	0.000116111	   20.1708	0.000104328	   20.1921	0.000120647	   20.1921	   3.01618	
   20.3011	0.000149479	   20.2681	0.000124062	   20.2524	0.000112348	   20.2739	0.00012863	   20.2739	   3.21574	
   20.3815	0.000157432	    20.349	0.000132072	   20.3333	0.000120358	   20.3546	0.000136621	   20.3546	   3.41552	
    20.461	0.000165427	   20.4288	0.000140016	   20.4133	0.000128342	   20.4344	0.000144595	   20.4344	   3.61488	
   20.5396	0.000173487	   20.5078	0.00014785	   20.4927	0.000136316	   20.5134	0.000152551	   20.5134	   3.81377	
   20.6172	0.000181617	   20.5859	0.000155672	   20.5714	0.000144327	   20.5915	0.000160539	   20.5915	   4.01347	
   20.6943	0.000189739	   20.6631	0.000163562	   20.6492	0.000152311	   20.6688	0.000168537	   20.6688	   4.21343	
   20.7708	0.000197698	    20.739	0.000171453	    20.726	0.000160193	   20.7453	0.000176448	   20.7453	    4.4112	
   20.8462	0.000205544	   20.8145	0.000179248	   20.8021	0.000168031	   20.8209	0.000184275	   20.8209	   4.60686	
   20.9208	0.000213473	   20.8894	0.00018697	   20.8775	0.000175943	   20.8959	0.000192129	   20.8959	   4.80321	
   20.9944	0.000221535	   20.9639	0.000194721	   20.9517	0.000183916	     20.97	0.000200057	     20.97	   5.00143	
   21.0672	0.000229559	   21.0377	0.00020252	   21.0245	0.000191819	   21.0432	0.000207966	   21.0432	   5.19915	
   21.1394	0.000237407	   21.1106	0.000210277	   21.0963	0.000199566	   21.1155	0.00021575	   21.1155	   5.39375	
   21.2109	0.000245173	   21.1828	0.000217931	   21.1675	0.000207283	   21.1871	0.000223462	   21.1871	   5.58656	
   21.2814	0.000253028	   21.2541	0.000225547	   21.2367	0.000215135	   21.2574	0.000231237	   21.2574	   5.78092	
   21.3514	0.000260964	   21.3244	0.000233208	   21.3045	0.000223032	   21.3267	0.000239068	   21.3267	   5.97671	
   21.4201	0.000268811	   21.3936	0.000240891	   21.3714	 0.0002308	    21.395	0.000246834	    21.395	   6.17086	
   21.4879	0.000276492	   21.4622	0.000248505	   21.4381	0.000238407	   21.4627	0.000254468	   21.4627	    6.3617	
   21.5546	0.000284129	   21.5298	0.000256026	   21.5051	0.000246005	   21.5299	0.000262053	   21.5299	   6.55133	
   21.6208	0.000291861	   21.5966	0.000263525	   21.5719	0.000253704	   21.5964	0.000269697	   21.5964	   6.74242	
   21.6861	0.000299635	   21.6623	0.000271055	   21.6371	0.000261454	   21.6619	0.000277381	   21.6619	   6.93453	
    21.751	0.000307285	   21.7273	0.000278568	   21.7005	0.000269075	   21.7263	0.000284976	   21.7263	    7.1244	
    21.815	0.000314792	   21.7916	0.00028598	   21.7637	0.000276541	   21.7901	0.000292437	   21.7901	   7.31094	
   21.8782	0.000322307	   21.8553	0.000293305	   21.8268	0.000284008	   21.8534	0.000299873	   21.8534	   7.49684	
   21.9403	0.00032991	    21.918	0.000300621	   21.8892	0.000291585	   21.9158	0.000307372	   21.9158	    7.6843	
   22.0017	0.000337495	   21.9797	0.00030795	   21.9507	0.000299166	   21.9774	0.00031487	   21.9774	   7.87175	
   22.0626	0.000344947	   22.0403	0.000315233	   22.0114	0.000306595	   22.0381	0.000322259	   22.0381	   8.05646	
   22.1227	0.000352315	   22.1004	0.000322421	    22.071	0.000313895	    22.098	0.000329544	    22.098	   8.23859	
   22.1815	0.000359718	   22.1596	0.000329545	   22.1293	0.000321221	   22.1568	0.000336828	   22.1568	   8.42071	
   22.2394	0.000367048	   22.2177	0.000336667	   22.1867	0.000328629	   22.2146	0.000344115	   22.2146	   8.60286	
    22.297	0.000374282	    22.275	0.000343788	   22.2437	0.000335999	   22.2719	0.000351356	   22.2719	   8.78391	
   22.3539	0.000381529	   22.3308	0.000350881	   22.2997	0.000343223	   22.3281	0.000358544	   22.3281	   8.96361	
   22.4096	0.000388855	   22.3856	0.000357875	   22.3547	0.000350367	   22.3833	0.000365699	   22.3833	   9.14248	
   22.4643	0.000396159	   22.4402	0.000364762	   22.4088	0.000357563	   22.4378	0.000372828	   22.4378	    9.3207	
   22.5182	 0.0004033	   22.4942	0.000371651	   22.4624	0.000364808	   22.4916	0.00037992	   22.4916	     9.498	
    22.571	0.000410325	   22.5473	0.00037861	   22.5149	0.000371985	   22.5444	0.000386974	   22.5444	   9.67434	
   22.6233	0.000417417	   22.5998	0.000385555	   22.5665	0.000379035	   22.5966	0.000394003	   22.5966	   9.85006	
   22.6743	 0.0004246	   22.6517	0.000392367	   22.6176	0.000386043	   22.6479	0.000401003	   22.6479	   10.0251	
   22.7241	0.000431707	   22.7022	0.000399067	   22.6679	0.000393099	    22.698	0.000407958	    22.698	   10.1989	
   22.7725	0.00043866	   22.7514	0.000405776	   22.7175	0.000400162	   22.7471	0.000414866	   22.7471	   10.3716	
   22.8202	0.000445549	   22.7999	0.000412529	   22.7664	0.000407131	   22.7955	0.000421737	   22.7955	   10.5434	
   22.8671	0.000452494	   22.8478	0.000419233	   22.8147	0.000413999	   22.8432	0.000428575	   22.8432	   10.7144	
   22.9125	0.000459483	   22.8947	0.000425824	   22.8618	0.00042085	   22.8897	0.000435386	   22.8897	   10.8846	
   22.9571	0.000466388	   22.9406	0.000432357	   22.9081	0.000427733	   22.9353	0.000442159	   22.9353	    11.054	
   23.0007	0.00047316	   22.9855	0.000438893	   22.9535	0.000434589	   22.9799	0.000448881	   22.9799	    11.222	
   23.0436	0.000479901	   23.0291	0.000445436	    22.998	0.000441353	   23.0236	0.000455563	   23.0236	   11.3891	
   23.0858	0.000486714	   23.0716	0.000451949	   23.0415	0.000448061	   23.0663	0.000462241	   23.0663	    11.556	
   23.1272	0.000493533	   23.1127	0.000458391	   23.0842	0.000454791	    23.108	0.000468905	    23.108	   11.7226	
   23.1677	0.000500237	   23.1528	0.000464797	   23.1261	0.000461512	   23.1488	0.000475515	   23.1488	   11.8879	
    23.207	0.000506829	   23.1916	0.000471194	   23.1663	0.000468147	   23.1883	0.000482057	   23.1883	   12.0514	
   23.2459	0.00051342	   23.2299	0.000477564	   23.2057	0.000474697	   23.2272	0.00048856	   23.2272	    12.214	
   23.2841	0.000520045	   23.2671	0.000483876	   23.2433	0.000481245	   23.2648	0.000495056	   23.2648	   12.3764	
    23.321	0.000526639	   23.3037	0.00049014	   23.2799	0.000487841	   23.3015	0.00050154	   23.3015	   12.5385	
   23.3567	0.000533148	   23.3397	0.000496388	    23.315	0.00049442	   23.3372	0.000507986	   23.3372	   12.6996	
   23.3918	0.000539597	   23.3746	0.00050262	   23.3492	0.000500896	   23.3719	0.000514371	   23.3719	   12.8593	
    23.426	0.000546033	   23.4084	0.000508793	   23.3824	0.000507282	   23.4056	0.000520702	   23.4056	   13.0176	
    23.459	0.000552454	   23.4412	0.000514897	    23.415	0.000513676	   23.4384	0.000527009	   23.4384	   13.1752	
   23.4913	0.000558798	   23.4733	0.000520963	   23.4463	0.000520123	   23.4703	0.000533295	   23.4703	   13.3324	
   23.5227	0.000565042	   23.5044	0.000527014	   23.4768	0.000526541	   23.5013	0.000539532	   23.5013	   13.4883	
   23.5536	0.000571248	   23.5352	0.000533036	   23.5064	0.000532827	   23.5317	0.000545703	   23.5317	   13.6426	
   23.5833	0.000577464	   23.5651	0.000539004	   23.5353	0.000539033	   23.5612	0.000551834	   23.5612	   13.7958	
   23.6123	0.000583648	   23.5939	0.000544953	    23.563	0.000545291	   23.5898	0.000557964	   23.5898	   13.9491	
   23.6401	0.000589739	   23.6217	0.000550889	   23.5897	0.000551608	   23.6172	0.000564079	   23.6172	    14.102	
   23.6669	0.000595751	   23.6487	0.000556763	   23.6159	0.000557871	   23.6438	0.000570128	   23.6438	   14.2532	
   23.6924	0.000601744	   23.6748	0.000562555	   23.6413	0.000564021	   23.6695	0.000576107	   23.6695	   14.4027	
   23.7168	0.00060774	      23.7	0.000568303	    23.666	0.000570119	   23.6943	0.000582054	   23.6943	   14.5513	
   23.7406	0.000613693	   23.7246	0.000574081	   23.6897	0.00057625	   23.7183	0.000588008	   23.7183	   14.7002	
   23.7631	0.000619565	   23.7481	0.000579865	   23.7125	0.000582401	   23.7412	0.000593944	   23.7412	   14.8486	
   23.7843	0.000625377	   23.7705	0.000585571	   23.7342	0.000588482	    23.763	0.00059981	    23.763	   14.9953	
   23.8046	0.000631183	   23.7919	0.000591187	   23.7551	0.000594426	   23.7839	0.000605599	   23.7839	     15.14	
   23.8236	0.00063698	    23.813	0.000596849	   23.7747	0.000600346	   23.8038	0.000611392	   23.8038	   15.2848	
   23.8415	0.000642717	   23.8327	0.00060257	   23.7941	0.000606366	   23.8227	0.000617218	   23.8227	   15.4304	
   23.8586	0.000648379	    23.851	0.000608246	   23.8126	 0.0006124	   23.8407	0.000623008	   23.8407	   15.5752	
   23.8751	0.000654013	   23.8684	0.000613765	   23.8304	0.000618262	   23.8579	0.00062868	   23.8579	    15.717	
   23.8905	0.000659649	   23.8851	0.000619206	   23.8473	0.000623964	   23.8743	0.000634273	   23.8743	   15.8568	
   23.9048	0.000665258	   23.9006	0.000624733	    23.863	0.000629686	   23.8895	0.000639892	   23.8895	   15.9973	
    23.918	 0.0006708	    23.915	0.000630355	    23.878	0.00063551	   23.9036	0.000645555	   23.9036	   16.1389	
   23.9303	0.000676283	   23.9286	0.000635892	   23.8923	0.000641318	   23.9171	0.000651164	   23.9171	   16.2791	
   23.9417	0.000681754	   23.9412	0.000641265	    23.906	0.000646954	   23.9297	0.000656658	   23.9297	   16.4164	
   23.9522	0.00068722	   23.9529	0.000646606	    23.919	0.00065249	   23.9414	0.000662105	   23.9414	   16.5526	
   23.9622	0.00069264	   23.9635	0.000652034	   23.9304	0.000658111	    23.952	0.000667595	    23.952	   16.6899	
   23.9713	0.000698014	   23.9729	0.000657492	   23.9411	0.000663823	   23.9618	0.00067311	   23.9618	   16.8277	
   23.9798	0.000703352	   23.9813	0.000662844	   23.9507	0.000669448	   23.9706	0.000678548	   23.9706	   16.9637	
   23.9872	0.000708622	   23.9889	0.000668084	   23.9594	0.000674923	   23.9785	0.000683876	   23.9785	   17.0969	
   23.9937	0.000713819	   23.9959	0.000673324	   23.9676	0.000680345	   23.9857	0.000689163	   23.9857	   17.2291	
    23.999	0.000719025	   24.0022	0.000678633	   23.9748	0.000685792	    23.992	0.000694483	    23.992	   17.3621	
   24.0034	0.000724284	   24.0077	0.000683932	   23.9814	0.000691242	   23.9975	0.000699819	   23.9975	   17.4955	
   24.0073	0.000729614	    24.012	0.000689123	   23.9864	0.000696608	   24.0019	0.000705115	   24.0019	   17.6279	
   24.0102	0.000734939	   24.0157	0.000694243	   23.9901	0.000701813	   24.0053	0.000710332	   24.0053	   17.7583	
   24.0133	0.000740058	   24.0186	0.000699392	   23.9925	0.000707042	   24.0081	0.000715497	   24.0081	   17.8874	
   24.0159	0.000745012	   24.0207	0.000704581	   23.9937	0.000712454	   24.0101	0.000720682	   24.0101	   18.0171	
   24.0176	0.000750063	   24.0213	0.000709702	   23.9936	0.000717863	   24.0108	0.000725876	   24.0108	   18.1469	
   24.0171	0.000755329	   24.0207	0.000714673	   23.9925	0.000722995	   24.0101	0.000730999	   24.0101	    18.275	
   24.0148	0.000760559	   24.0189	0.000719592	   23.9907	0.000727904	   24.0082	0.000736018	   24.0082	   18.4005	
   24.0121	0.000765505	   24.0161	0.000724617	   23.9875	0.000732898	   24.0053	0.000741006	   24.0053	   18.5252	
    24.009	0.000770283	   24.0123	0.000729712	   23.9839	0.000738097	   24.0017	0.000746031	   24.0017	   18.6508	
    24.005	0.000775213	   24.0074	0.000734697	   23.9792	0.000743292	   23.9972	0.000751067	   23.9972	   18.7767	
   23.9999	0.000780336	    24.002	0.000739515	   23.9742	0.000748248	    23.992	0.000756033	    23.992	   18.9008	
   23.9938	0.000785375	   23.9959	0.000744315	   23.9684	0.000753065	    23.986	0.000760918	    23.986	    19.023	
   23.9871	0.000790145	   23.9887	0.00074922	   23.9614	0.000757989	   23.9791	0.000765785	   23.9791	   19.1446	
   23.9795	0.000794826	   23.9805	0.000754125	   23.9532	0.000763044	   23.9711	0.000770665	   23.9711	   19.2666	
   23.9711	0.000799673	   23.9713	0.000758961	   23.9444	0.000768018	   23.9623	0.000775551	   23.9623	   19.3888	
   23.9616	0.000804635	   23.9612	0.000763782	   23.9346	0.000772793	   23.9525	0.000780403	   23.9525	   19.5101	
    23.951	0.000809432	   23.9502	0.000768645	   23.9245	0.000777508	   23.9419	0.000785195	   23.9419	   19.6299	
   23.9395	0.000813997	   23.9384	0.00077346	   23.9137	0.000782349	   23.9305	0.000789935	   23.9305	   19.7484	
   23.9273	0.000818548	   23.9258	0.00077815	   23.9016	0.000787264	   23.9182	0.000794654	   23.9182	   19.8663	
    23.914	0.000823224	   23.9124	0.000782776	   23.8886	0.000792047	    23.905	0.000799349	    23.905	   19.9837	
   23.8999	0.000827931	   23.8979	0.00078749	   23.8752	0.000796663	    23.891	0.000804028	    23.891	   20.1007	
   23.8847	0.000832501	   23.8824	0.000792277	   23.8611	0.000801294	   23.8761	0.000808691	   23.8761	   20.2173	
   23.8686	0.000836921	   23.8657	0.000796946	   23.8464	0.000806051	   23.8602	0.000813306	   23.8602	   20.3326	
   23.8514	0.000841323	   23.8482	0.000801441	   23.8304	0.000810817	   23.8433	0.00081786	   23.8433	   20.4465	
   23.8333	0.000845782	   23.8293	0.000805912	   23.8136	0.000815446	   23.8254	0.00082238	   23.8254	   20.5595	
   23.8142	0.000850236	   23.8094	0.000810485	   23.7961	0.000819976	   23.8066	0.000826899	   23.8066	   20.6725	
   23.7938	0.000854555	   23.7883	0.000815078	   23.7771	0.000824563	   23.7864	0.000831399	   23.7864	    20.785	
   23.7724	0.000858696	   23.7665	0.000819553	   23.7573	0.000829236	   23.7654	0.000835828	   23.7654	   20.8957	
   23.7504	0.00086283	   23.7441	0.00082391	   23.7361	0.000833881	   23.7436	0.000840207	   23.7436	   21.0052	
   23.7272	0.000867042	   23.7207	0.000828286	   23.7142	0.000838411	   23.7207	0.00084458	   23.7207	   21.1145	
   23.7029	0.000871248	   23.6962	0.000832722	   23.6912	0.000842846	   23.6968	0.000848939	   23.6968	   21.2235	
   23.6774	0.000875321	   23.6709	0.000837114	   23.6668	0.000847265	   23.6717	0.000853233	   23.6717	   21.3308	
   23.6504	0.000879267	   23.6447	0.000841373	   23.6416	0.000851721	   23.6456	0.000857454	   23.6456	   21.4363	
   23.6222	0.000883199	   23.6174	0.00084555	    23.615	0.000856168	   23.6182	0.000861639	   23.6182	    21.541	
   23.5929	0.000887169	   23.5892	0.000849746	   23.5876	0.000860524	   23.5899	0.000865813	   23.5899	   21.6453	
   23.5626	0.000891121	   23.5599	0.000853973	   23.5588	0.000864786	   23.5604	0.00086996	   23.5604	    21.749	
   23.5316	0.000894974	   23.5294	0.000858133	   23.5291	0.00086903	   23.5301	0.000874046	   23.5301	   21.8511	
   23.4999	0.000898737	   23.4978	0.000862179	   23.4985	0.000873308	   23.4987	0.000878075	   23.4987	   21.9519	
   23.4677	0.000902493	   23.4655	0.000866171	   23.4667	0.000877571	   23.4666	0.000882079	   23.4666	    22.052	
   23.4345	0.000906324	   23.4325	0.000870187	   23.4341	0.000881744	   23.4337	0.000886085	   23.4337	   22.1521	
   23.4008	0.000910099	   23.3984	0.00087425	   23.4004	0.000885846	   23.3999	0.000890065	   23.3999	   22.2516	
   23.3682	0.000913692	   23.3635	0.000878206	   23.3663	0.000889956	    23.366	0.000893951	    23.366	   22.3488	
    23.335	0.000917261	   23.3278	0.000881978	   23.3311	0.000894088	   23.3313	0.000897776	   23.3313	   22.4444	
   23.2988	0.000920978	    23.291	0.000885709	    23.295	0.000898175	   23.2949	0.000901621	   23.2949	   22.5405	
   23.2602	0.000924756	   23.2529	0.00088955	   23.2581	0.000902176	   23.2571	0.000905494	   23.2571	   22.6374	
   23.2207	0.000928388	   23.2135	0.000893446	   23.2205	0.000906135	   23.2182	0.000909323	   23.2182	   22.7331	
   23.1811	0.000931864	   23.1733	0.000897204	   23.1816	0.000910108	   23.1786	0.000913058	   23.1786	   22.8265	
   23.1407	0.00093535	   23.1325	0.000900794	   23.1413	0.000914071	   23.1381	0.000916738	   23.1381	   22.9185	
   23.0998	0.000938944	   23.0908	0.000904385	   23.1003	0.000917969	    23.097	0.000920432	    23.097	   23.0108	
   23.0579	0.000942474	   23.0484	0.00090808	   23.0585	0.000921795	   23.0549	0.000924116	   23.0549	   23.1029	
   23.0144	0.000945849	   23.0053	0.000911774	    23.016	0.000925597	   23.0119	0.00092774	   23.0119	   23.1935	
   22.9697	0.000949177	   22.9614	0.00091533	   22.9724	0.000929412	   22.9678	0.000931306	   22.9678	   23.2827	
   22.9246	0.000952586	   22.9162	0.000918783	   22.9279	0.000933214	   22.9229	0.000934861	   22.9229	   23.3715	
   22.8793	0.000956042	   22.8701	0.000922274	   22.8821	0.000936949	   22.8771	0.000938422	   22.8771	   23.4605	
    22.833	0.000959388	   22.8229	0.00092584	   22.8354	0.000940626	   22.8304	0.000941951	   22.8304	   23.5488	
   22.7862	0.000962577	   22.7746	0.000929364	   22.7879	0.000944296	   22.7829	0.000945413	   22.7829	   23.6353	
   22.7384	0.00096576	   22.7258	0.000932754	   22.7403	0.000947973	   22.7348	0.000948829	   22.7348	   23.7207	
   22.6898	0.000969038	    22.676	0.000936023	   22.6917	0.000951621	   22.6858	0.000952227	   22.6858	   23.8057	
   22.6401	0.000972314	   22.6253	0.000939384	   22.6423	0.000955205	   22.6359	0.000955634	   22.6359	   23.8909	
   22.5894	0.000975456	   22.5738	0.000942946	    22.592	0.000958749	   22.5851	0.000959051	   22.5851	   23.9763	
   22.5377	0.000978498	   22.5212	0.00094646	   22.5399	0.000962301	   22.5329	0.00096242	   22.5329	   24.0605	
   22.4848	0.000981573	   22.4678	0.00094969	    22.487	0.000965856	   22.4799	0.000965706	   22.4799	   24.1427	
   22.4313	 0.0009847	   22.4135	0.000952775	   22.4333	0.000969364	    22.426	0.000968946	    22.426	   24.2237	
   22.3772	0.000987772	   22.3582	0.000956026	   22.3784	0.000972824	   22.3713	0.000972208	   22.3713	   24.3052	
   22.3218	0.000990723	   22.3019	0.00095945	   22.3219	0.000976274	   22.3152	0.000975483	   22.3152	   24.3871	
   22.2654	0.000993624	    22.245	0.000962746	   22.2645	0.000979706	   22.2583	0.000978692	   22.2583	   24.4673	
    22.208	0.000996575	   22.1872	0.000965795	   22.2063	0.000983096	   22.2005	0.000981822	   22.2005	   24.5456	
   22.1496	0.00099955	   22.1289	0.000968819	   22.1467	0.000986386	   22.1418	0.000984918	   22.1418	    24.623	
   22.0903	0.00100244	   22.0699	0.000972038	   22.0866	0.000989619	   22.0822	0.000988032	   22.0822	   24.7008	
   22.0302	0.00100522	   22.0097	0.000975345	   22.0252	0.00099294	   22.0217	0.000991167	   22.0217	   24.7792	
   21.9698	0.00100798	   21.9484	0.000978494	   21.9628	0.000996348	   21.9603	0.000994273	   21.9603	   24.8568	
   21.9082	0.00101079	   21.8863	0.000981453	   21.8999	0.000999683	   21.8981	0.00099731	   21.8981	   24.9328	
   21.8455	0.00101361	   21.8229	0.000984444	   21.8355	0.00100281	   21.8346	0.00100029	   21.8346	   25.0072	
   21.7822	0.00101632	   21.7586	0.000987607	   21.7707	0.00100587	   21.7705	0.00100327	   21.7705	   25.0816	
   21.7178	0.00101896	   21.6931	0.000990799	    21.705	0.00100907	   21.7053	0.00100628	   21.7053	   25.1569	
   21.6526	 0.0010216	   21.6266	0.000993803	   21.6383	 0.0010124	   21.6392	0.00100927	   21.6392	   25.2318	
   21.5864	0.00102429	   21.5593	0.000996658	   21.5709	0.00101561	   21.5722	0.00101219	   21.5722	   25.3047	
   21.5193	0.00102692	   21.4913	0.000999582	   21.5027	 0.0010186	   21.5045	0.00101503	   21.5045	   25.3759	
   21.4508	0.00102946	   21.4226	0.00100264	   21.4339	0.00102156	   21.4358	0.00101789	   21.4358	   25.4472	
   21.3807	  0.001032	    21.353	0.00100571	   21.3644	0.00102469	    21.366	 0.0010208	    21.366	     25.52	
   21.3102	0.00103461	   21.2832	0.00100864	    21.294	0.00102788	   21.2958	0.00102371	   21.2958	   25.5928	
   21.2393	0.00103723	   21.2136	0.00101138	    21.223	0.00103094	   21.2253	0.00102652	   21.2253	   25.6629	
   21.1688	0.00103975	   21.1437	 0.0010141	   21.1511	 0.0010338	   21.1545	0.00102922	   21.1545	   25.7304	
   21.0974	0.00104221	   21.0716	0.00101698	   21.0782	0.00103664	   21.0824	0.00103195	   21.0824	   25.7986	
    21.025	 0.0010447	   20.9968	0.00101994	   21.0045	0.00103962	   21.0087	0.00103475	   21.0087	   25.8689	
   20.9513	0.00104725	   20.9209	0.00102273	   20.9297	0.00104263	   20.9339	0.00103754	   20.9339	   25.9384	
   20.8762	0.00104977	   20.8446	0.00102533	    20.854	0.00104549	   20.8583	 0.0010402	   20.8583	    26.005	
   20.8001	0.00105219	   20.7679	0.00102793	   20.7771	0.00104827	   20.7817	 0.0010428	   20.7817	   26.0699	
    20.723	0.00105452	   20.6905	0.00103066	   20.6994	0.00105108	   20.7043	0.00104542	   20.7043	   26.1355	
   20.6447	0.00105689	   20.6119	0.00103341	    20.621	0.00105392	   20.6259	0.00104807	   20.6259	   26.2018	
   20.5649	0.00105929	   20.5319	0.00103598	   20.5417	 0.0010567	   20.5462	0.00105066	   20.5462	   26.2664	
   20.4844	0.00106161	   20.4512	0.00103842	    20.462	0.00105937	   20.4659	0.00105313	   20.4659	   26.3283	
   20.4028	 0.0010638	   20.3699	0.00104088	   20.3821	  0.001062	   20.3849	0.00105556	   20.3849	    26.389	
   20.3201	0.00106595	   20.2879	0.00104343	   20.3018	0.00106463	   20.3033	  0.001058	   20.3033	   26.4501	
   20.2365	0.00106814	   20.2052	0.00104594	   20.2204	0.00106724	   20.2207	0.00106044	   20.2207	    26.511	
   20.1523	0.00107028	    20.121	0.00104835	   20.1379	0.00106977	    20.137	 0.0010628	    20.137	   26.5701	
   20.0675	0.00107234	   20.0364	0.00105073	   20.0548	0.00107222	   20.0529	 0.0010651	   20.0529	   26.6275	
   19.9824	0.00107435	   19.9509	0.00105312	   19.9705	0.00107465	   19.9679	0.00106738	   19.9679	   26.6844	
   19.8961	0.00107638	   19.8649	0.00105545	   19.8855	0.00107709	   19.8822	0.00106964	   19.8822	    26.741	
   19.8091	0.00107837	   19.7781	0.00105772	   19.7993	 0.0010795	   19.7955	0.00107186	   19.7955	   26.7966	
   19.7211	0.00108026	   19.6903	0.00105998	   19.7124	0.00108182	   19.7079	0.00107402	   19.7079	   26.8505	
   19.6323	0.00108209	   19.6017	0.00106227	   19.6244	0.00108408	   19.6195	0.00107615	   19.6195	   26.9037	
   19.5429	0.00108396	   19.5125	0.00106455	   19.5355	0.00108634	   19.5303	0.00107828	   19.5303	   26.9571	
   19.4529	0.00108585	   19.4222	0.00106672	   19.4459	0.00108859	   19.4403	0.00108039	   19.4403	   27.0097	
   19.3622	0.00108766	   19.3307	0.00106879	    19.355	0.00109077	   19.3493	 0.0010824	   19.3493	   27.0601	
   19.2713	0.00108934	   19.2383	0.00107086	   19.2632	0.00109289	   19.2576	0.00108436	   19.2576	   27.1091	
   19.1797	0.00109101	   19.1454	0.00107299	   19.1708	0.00109497	   19.1653	0.00108633	   19.1653	   27.1581	
   19.0875	0.00109275	   19.0519	0.00107509	   19.0772	0.00109701	   19.0722	0.00108828	   19.0722	   27.2071	
   18.9947	 0.0010945	   18.9575	0.00107705	    18.983	  0.001099	   18.9784	0.00109018	   18.9784	   27.2545	
   18.9011	0.00109614	   18.8621	0.00107892	   18.8879	0.00110098	   18.8837	0.00109201	   18.8837	   27.3003	
   18.8063	0.00109766	   18.7661	0.00108081	   18.7922	0.00110294	   18.7882	 0.0010938	   18.7882	   27.3451	
   18.7109	0.00109918	   18.6697	0.00108274	   18.6957	0.00110484	   18.6921	0.00109559	   18.6921	   27.3897	
   18.6147	0.00110078	    18.573	 0.0010846	   18.5979	0.00110667	   18.5952	0.00109735	   18.5952	   27.4338	
   18.5177	0.00110238	   18.4753	0.00108633	   18.4988	0.00110844	   18.4973	0.00109905	   18.4973	   27.4762	
   18.4198	0.00110385	   18.3772	0.00108801	   18.3989	0.00111014	   18.3986	0.00110067	   18.3986	   27.5166	
   18.3209	0.00110522	   18.2781	0.00108971	   18.2983	0.00111184	   18.2991	0.00110226	   18.2991	   27.5564	
   18.2213	0.00110661	    18.178	0.00109144	   18.1974	0.00111357	   18.1989	0.00110388	   18.1989	   27.5969	
    18.121	0.00110806	   18.0771	0.00109313	   18.0958	0.00111524	    18.098	0.00110547	    18.098	   27.6369	
   18.0199	0.00110944	   17.9756	0.00109471	   17.9937	0.00111673	   17.9964	0.00110696	   17.9964	    27.674	
   17.9176	 0.0011107	   17.8736	0.00109624	   17.8909	0.00111814	   17.8941	0.00110836	   17.8941	   27.7091	
   17.8136	0.00111196	   17.7709	0.00109779	   17.7876	 0.0011196	   17.7907	0.00110978	   17.7907	   27.7446	
   17.7086	0.00111324	   17.6674	0.00109933	   17.6839	 0.0011211	   17.6867	0.00111122	   17.6867	   27.7805	
   17.6034	0.00111448	   17.5643	0.00110081	   17.5796	 0.0011225	   17.5825	0.00111259	   17.5825	   27.8149	
    17.498	0.00111561	   17.4605	0.00110224	   17.4744	0.00112377	   17.4777	0.00111387	   17.4777	   27.8468	
   17.3926	0.00111667	   17.3562	0.00110367	   17.3683	0.00112502	   17.3723	0.00111512	   17.3723	    27.878	
   17.2864	0.00111776	    17.251	0.00110509	   17.2614	0.00112631	   17.2663	0.00111639	   17.2663	   27.9097	
   17.1796	0.00111889	    17.145	0.00110646	   17.1538	0.00112761	   17.1594	0.00111765	   17.1594	   27.9414	
   17.0721	0.00111994	   17.0382	0.00110777	    17.045	0.00112883	   17.0518	0.00111885	   17.0518	   27.9712	
   16.9639	0.00112087	   16.9304	0.00110905	   16.9357	0.00112995	   16.9433	0.00111996	   16.9433	    27.999	
   16.8546	0.00112176	   16.8219	0.00111033	   16.8255	0.00113106	    16.834	0.00112105	    16.834	   28.0262	
   16.7441	0.00112273	   16.7126	0.00111157	   16.7144	0.00113222	   16.7237	0.00112217	   16.7237	   28.0543	
   16.6329	0.00112375	   16.6023	0.00111275	   16.6028	0.00113335	   16.6127	0.00112328	   16.6127	   28.0821	
   16.5214	0.00112468	   16.4914	0.00111387	   16.4908	0.00113438	   16.5012	0.00112431	   16.5012	   28.1077	
   16.4093	0.00112545	     16.38	0.00111498	   16.3783	0.00113535	   16.3892	0.00112526	   16.3892	   28.1315	
   16.2961	0.00112621	   16.2679	0.00111608	   16.2651	0.00113634	   16.2764	0.00112621	   16.2764	   28.1552	
   16.1828	0.00112704	   16.1553	0.00111715	   16.1514	 0.0011374	   16.1632	 0.0011272	   16.1632	   28.1799	
    16.069	0.00112789	    16.042	0.00111816	   16.0373	0.00113844	   16.0494	0.00112817	   16.0494	   28.2042	
   15.9544	0.00112863	   15.9279	0.00111915	   15.9233	0.00113935	   15.9352	0.00112904	   15.9352	   28.2261	
    15.839	0.00112925	   15.8134	0.00112017	   15.8092	0.00114015	   15.8205	0.00112985	   15.8205	   28.2464	
   15.7232	0.00112987	   15.6983	0.00112111	   15.6933	0.00114104	   15.7049	0.00113067	   15.7049	   28.2669	
   15.6072	0.00113056	   15.5824	0.00112194	   15.5751	 0.0011421	   15.5882	0.00113154	   15.5882	   28.2884	
   15.4904	0.00113126	   15.4659	0.00112271	    15.456	0.00114313	   15.4708	0.00113236	   15.4708	   28.3091	
    15.373	0.00113184	    15.349	0.00112353	   15.3371	0.00114395	    15.353	 0.0011331	    15.353	   28.3276	
   15.2553	0.00113233	   15.2314	 0.0011244	    15.218	0.00114465	   15.2349	0.00113379	   15.2349	   28.3449	
   15.1369	0.00113285	   15.1134	0.00112521	   15.0989	0.00114546	   15.1164	0.00113451	   15.1164	   28.3627	
   15.0179	0.00113343	    14.995	0.00112589	   14.9789	0.00114639	   14.9973	0.00113524	   14.9973	   28.3809	
   14.8982	0.00113397	    14.876	0.00112653	   14.8584	0.00114724	   14.8775	0.00113591	   14.8775	   28.3978	
   14.7776	0.00113442	   14.7564	0.00112722	   14.7372	0.00114791	   14.7571	0.00113652	   14.7571	   28.4129	
   14.6563	0.00113481	    14.636	0.00112795	   14.6156	0.00114851	   14.6359	0.00113709	   14.6359	   28.4273	
   14.5346	0.00113524	   14.5151	0.00112862	   14.4932	0.00114915	   14.5143	0.00113767	   14.5143	   28.4418	
   14.4125	 0.0011357	   14.3937	0.00112927	   14.3703	0.00114979	   14.3922	0.00113825	   14.3922	   28.4563	
   14.2897	0.00113611	   14.2721	0.00112989	   14.2464	0.00115033	   14.2694	0.00113878	   14.2694	   28.4695	
   14.1666	0.00113644	   14.1513	0.00113041	   14.1225	0.00115082	   14.1468	0.00113922	   14.1468	   28.4805	
   14.0433	0.00113672	   14.0295	0.00113085	   13.9985	0.00115134	   14.0238	0.00113964	   14.0238	   28.4909	
   13.9197	0.00113703	   13.9057	0.00113126	   13.8742	0.00115187	   13.8999	0.00114005	   13.8999	   28.5013	
   13.7958	 0.0011373	   13.7809	0.00113176	   13.7493	 0.0011523	   13.7753	0.00114045	   13.7753	   28.5113	
   13.6711	0.00113747	    13.654	0.00113229	    13.624	0.00115261	   13.6497	0.00114079	   13.6497	   28.5198	
   13.5455	0.00113766	   13.5265	0.00113268	   13.4989	0.00115293	   13.5236	0.00114109	   13.5236	   28.5272	
   13.4194	0.00113788	    13.399	0.00113281	   13.3734	 0.0011533	   13.3973	0.00114133	   13.3973	   28.5333	
   13.2929	0.00113803	    13.272	 0.0011329	   13.2475	0.00115364	   13.2708	0.00114153	   13.2708	   28.5382	
   13.1657	0.00113809	   13.1447	0.00113313	   13.1206	0.00115387	   13.1437	 0.0011417	   13.1437	   28.5425	
   13.0378	0.00113818	   13.0169	0.00113336	   12.9935	  0.001154	   13.0161	0.00114185	   13.0161	   28.5462	
   12.9098	0.00113833	   12.8889	0.00113336	   12.8656	0.00115414	   12.8881	0.00114195	   12.8881	   28.5486	
   12.7812	0.00113847	     12.76	0.00113319	    12.737	0.00115434	   12.7594	  0.001142	   12.7594	   28.5499	
    12.652	 0.0011385	   12.6303	0.00113306	   12.6083	0.00115452	   12.6302	0.00114203	   12.6302	   28.5507	
    12.522	0.00113848	   12.5007	0.00113306	   12.4789	0.00115464	   12.5006	0.00114206	   12.5006	   28.5514	
   12.3916	0.00113846	   12.3704	0.00113305	    12.349	0.00115464	   12.3704	0.00114205	   12.3704	   28.5512	
   12.2603	0.00113847	    12.239	0.00113287	   12.2188	0.00115453	   12.2393	0.00114196	   12.2393	   28.5489	
   12.1285	0.00113847	   12.1068	0.00113256	   12.0882	 0.0011544	   12.1078	0.00114181	   12.1078	   28.5453	
   11.9961	0.00113843	   11.9741	0.00113227	   11.9574	0.00115431	   11.9759	0.00114167	   11.9759	   28.5418	
   11.8636	0.00113828	   11.8408	0.00113209	   11.8262	0.00115424	   11.8435	0.00114154	   11.8435	   28.5384	
   11.7305	0.00113807	   11.7069	 0.0011319	   11.6947	0.00115409	   11.7107	0.00114135	   11.7107	   28.5338	
   11.5974	0.00113787	   11.5723	0.00113157	   11.5627	0.00115382	   11.5775	0.00114109	   11.5775	   28.5271	
   11.4641	0.00113768	   11.4376	0.00113113	   11.4302	 0.0011535	    11.444	0.00114077	    11.444	   28.5192	
   11.3306	0.00113742	   11.3027	0.00113069	   11.2972	0.00115322	   11.3102	0.00114044	   11.3102	   28.5111	
   11.1962	0.00113706	   11.1677	0.00113029	   11.1634	0.00115293	   11.1758	0.00114009	   11.1758	   28.5023	
   11.0612	0.00113662	   11.0323	0.00112991	   11.0293	0.00115254	    11.041	0.00113969	    11.041	   28.4923	
    10.926	0.00113621	   10.8963	0.00112946	   10.8947	0.00115206	   10.9057	0.00113925	   10.9057	   28.4811	
   10.7906	0.00113588	   10.7601	0.00112887	   10.7598	0.00115159	   10.7702	0.00113878	   10.7702	   28.4696	
   10.6555	0.00113547	   10.6242	0.00112821	   10.6248	0.00115115	   10.6349	0.00113828	   10.6349	   28.4569	
   10.5203	0.00113483	   10.4882	0.00112761	   10.4892	0.00115067	   10.4992	 0.0011377	   10.4992	   28.4425	
   10.3845	 0.0011341	    10.352	0.00112705	   10.3527	 0.0011501	   10.3631	0.00113708	   10.3631	   28.4271	
   10.2487	0.00113348	   10.2153	0.00112645	   10.2157	0.00114947	   10.2266	0.00113647	   10.2266	   28.4116	
   10.1123	0.00113295	    10.078	0.00112572	   10.0788	0.00114885	   10.0897	0.00113584	   10.0897	    28.396	
   9.97519	0.00113233	   9.94042	0.00112494	   9.94135	0.00114824	   9.95232	0.00113517	   9.95232	   28.3793	
   9.83767	0.00113153	   9.80262	 0.0011242	   9.80319	0.00114757	   9.81449	0.00113443	   9.81449	   28.3608	
   9.69985	0.00113068	    9.6644	0.00112348	   9.66457	0.00114682	   9.67627	0.00113366	   9.67627	   28.3415	
   9.56157	0.00112992	   9.52616	 0.0011227	    9.5257	0.00114602	   9.53781	0.00113288	   9.53781	    28.322	
   9.42292	 0.0011292	   9.38739	0.00112181	   9.38666	0.00114523	   9.39899	0.00113208	   9.39899	    28.302	
   9.28381	0.00112837	    9.2486	0.00112088	   9.24754	 0.0011444	   9.25998	0.00113122	   9.25998	   28.2805	
   9.14445	0.00112739	   9.10937	   0.00112	   9.10796	 0.0011435	   9.12059	0.00113029	   9.12059	   28.2573	
   9.00464	0.00112639	   8.96969	0.00111913	   8.96789	0.00114253	   8.98074	0.00112935	   8.98074	   28.2337	
   8.86415	0.00112548	   8.83006	0.00111819	   8.82785	0.00114155	   8.84069	0.00112841	   8.84069	   28.2102	
   8.72324	0.00112458	   8.68996	0.00111714	   8.68772	0.00114057	    8.7003	0.00112743	    8.7003	   28.1858	
   8.58163	0.00112355	   8.54946	0.00111607	   8.54749	0.00113957	   8.55953	 0.0011264	   8.55953	   28.1599	
   8.43944	0.00112241	    8.4087	0.00111502	   8.40672	0.00113849	   8.41829	0.00112531	   8.41829	   28.1327	
   8.29708	0.00112129	   8.26748	0.00111397	   8.26544	0.00113735	   8.27667	 0.0011242	   8.27667	   28.1051	
   8.15459	0.00112024	   8.12602	0.00111283	   8.12366	0.00113624	   8.13476	 0.0011231	   8.13476	   28.0776	
   8.01185	0.00111915	   7.98405	 0.0011116	   7.98206	0.00113517	   7.99265	0.00112197	   7.99265	   28.0494	
   7.86814	0.00111793	   7.84224	0.00111037	   7.84014	0.00113402	   7.85018	0.00112077	   7.85018	   28.0192	
   7.72426	0.00111663	   7.70008	0.00110916	   7.69761	0.00113274	   7.70732	0.00111951	   7.70732	   27.9878	
    7.5801	0.00111538	   7.55766	0.00110791	   7.55498	0.00113143	   7.56424	0.00111824	   7.56424	   27.9561	
   7.43596	0.00111416	   7.41469	 0.0011066	   7.41175	0.00113015	    7.4208	0.00111697	    7.4208	   27.9243	
   7.29219	0.00111286	   7.27178	0.00110522	   7.26801	0.00112885	   7.27733	0.00111564	   7.27733	   27.8911	
   7.14818	0.00111145	   7.12832	0.00110377	   7.12416	0.00112745	   7.13355	0.00111422	   7.13355	   27.8556	
   7.00336	0.00111002	   6.98397	0.00110234	   6.98011	0.00112595	   6.98914	0.00111277	   6.98914	   27.8192	
   6.85897	0.00110863	   6.83977	0.00110093	   6.83613	0.00112445	   6.84495	0.00111133	   6.84495	   27.7833	
   6.71406	0.00110722	     6.695	0.00109947	    6.6917	0.00112296	   6.70025	0.00110988	   6.70025	    27.747	
   6.56938	0.00110569	   6.54937	0.00109792	   6.54694	0.00112143	   6.55523	0.00110835	   6.55523	   27.7086	
    6.4241	0.00110406	   6.40376	 0.0010963	   6.40225	0.00111979	   6.41004	0.00110672	   6.41004	   27.6679	
   6.27825	0.00110238	   6.25795	0.00109468	   6.25702	0.00111808	   6.26441	0.00110504	   6.26441	   27.6261	
   6.13218	0.00110069	   6.11173	0.00109304	   6.11127	0.00111637	   6.11839	0.00110337	   6.11839	   27.5841	
    5.9862	  0.001099	   5.96535	0.00109133	   5.96506	0.00111467	    5.9722	0.00110167	    5.9722	   27.5417	
    5.8401	0.00109727	    5.8187	0.00108956	   5.81904	0.00111289	   5.82595	 0.0010999	   5.82595	   27.4976	
   5.69367	0.00109544	   5.67212	0.00108775	   5.67318	0.00111101	   5.67966	0.00109806	   5.67966	   27.4516	
   5.54709	0.00109354	   5.52558	0.00108591	   5.52686	0.00110905	   5.53318	0.00109617	   5.53318	   27.4042	
   5.40062	0.00109163	   5.37868	0.00108404	    5.3797	0.00110711	   5.38633	0.00109426	   5.38633	   27.3565	
   5.25355	0.00108971	   5.23159	0.00108211	   5.23193	0.00110521	   5.23902	0.00109234	   5.23902	   27.3085	
   5.10662	0.00108774	   5.08418	0.00108012	   5.08383	0.00110324	   5.09154	0.00109037	   5.09154	   27.2592	
    4.9597	 0.0010857	   4.93618	 0.0010781	   4.93575	0.00110113	   4.94388	0.00108831	   4.94388	   27.2078	
   4.81249	0.00108361	   4.78779	0.00107605	   4.78811	0.00109893	   4.79613	 0.0010862	   4.79613	   27.1549	
    4.6649	 0.0010815	   4.63929	0.00107396	   4.64044	0.00109674	   4.64821	0.00108407	   4.64821	   27.1016	
     4.517	0.00107936	   4.49019	0.00107181	   4.49276	0.00109453	   4.49998	 0.0010819	   4.49998	   27.0475	
   4.36919	0.00107716	   4.34105	 0.0010696	   4.34526	0.00109223	   4.35183	0.00107966	   4.35183	   26.9916	
    4.2212	0.00107488	   4.19167	0.00106736	   4.19729	0.00108985	   4.20339	0.00107737	   4.20339	   26.9341	
   4.07309	0.00107256	   4.04228	0.00106507	   4.04891	0.00108748	   4.05476	0.00107504	   4.05476	    26.876	
   3.92441	0.00107021	   3.89261	0.00106268	   3.90026	0.00108511	   3.90576	0.00107267	   3.90576	   26.8167	
   3.77567	0.00106783	   3.74296	0.00106021	   3.75126	0.00108262	   3.75663	0.00107022	   3.75663	   26.7555	
    3.6267	 0.0010654	   3.59282	0.00105776	   3.60234	0.00108004	   3.60728	0.00106773	   3.60728	   26.6933	
   3.47751	0.00106289	   3.44154	0.00105533	   3.45309	0.00107746	   3.45738	0.00106522	   3.45738	   26.6306	
   3.32806	0.00106034	   3.29003	0.00105283	   3.30389	 0.0010749	   3.30733	0.00106269	   3.30733	   26.5673	
   3.17845	 0.0010578	   3.13895	0.00105017	    3.1542	0.00107228	    3.1572	0.00106009	    3.1572	   26.5021	
   3.02821	0.00105524	   2.98849	0.00104741	   3.00436	0.00106956	   3.00702	 0.0010574	   3.00702	   26.4351	
   2.87808	0.00105259	   2.83798	0.00104462	   2.85449	0.00106677	   2.85685	0.00105466	   2.85685	   26.3665	
   2.72767	0.00104984	   2.68744	0.00104186	   2.70389	0.00106398	   2.70633	0.00105189	   2.70633	   26.2974	
   2.57659	0.00104704	   2.53647	0.00103903	   2.55315	 0.0010612	    2.5554	0.00104909	    2.5554	   26.2272	
   2.42508	0.00104421	   2.38547	0.00103607	   2.40277	0.00105834	   2.40444	0.00104621	   2.40444	   26.1552	
   2.27423	0.00104135	   2.23491	  0.001033	   2.25185	0.00105538	   2.25366	0.00104324	   2.25366	   26.0811	
   2.12389	0.00103844	   2.08364	0.00102991	   2.10074	0.00105237	   2.10276	0.00104024	   2.10276	    26.006	
   1.97336	0.00103545	   1.93229	0.00102684	    1.9496	0.00104938	   1.95175	0.00103722	   1.95175	   25.9306	
   1.82272	0.00103239	   1.78052	 0.0010237	    1.7979	0.00104638	   1.80038	0.00103416	   1.80038	   25.8539	
   1.67186	0.00102928	   1.62904	0.00102037	   1.64599	0.00104328	   1.64896	0.00103098	   1.64896	   25.7745	
   1.52074	0.00102613	   1.47799	0.00101695	   1.49444	0.00104006	   1.49772	0.00102771	   1.49772	   25.6929	
   1.36938	0.00102291	   1.32694	0.00101359	   1.34297	 0.0010368	   1.34643	0.00102443	   1.34643	   25.6108	
   1.21803	0.00101966	    1.1757	0.00101027	   1.19165	0.00103356	   1.19512	0.00102116	   1.19512	   25.5291	
   1.06678	0.00101636	    1.0246	0.00100683	   1.04017	0.00103029	   1.04385	0.00101783	   1.04385	   25.4457	
  0.915348	0.00101299	   0.87314	0.00100323	  0.888849	0.00102685	  0.892446	0.00101436	  0.892446	   25.3589	
  0.763983	0.00100954	  0.721795	0.000999558	  0.737515	0.00102327	  0.741098	0.00101079	  0.741098	   25.2697	
  0.612878	0.00100607	  0.570533	0.000995949	  0.586757	0.00101971	  0.590056	0.00100724	  0.590056	   25.1811	
  0.461945	 0.0010026	  0.419327	0.000992369	  0.436254	0.00101625	  0.439175	0.00100374	  0.439175	   25.0935	
  0.310648	0.000999067	  0.268422	0.000988707	  0.285667	0.00101274	  0.288246	0.00100017	  0.288246	   25.0043	
  0.158951	0.000995439	  0.117493	0.000984903	  0.135451	0.00100903	  0.137298	0.000996458	  0.137298	   24.9114	
0.00717803	0.000991736	-0.0333432	0.000981016	-0.0144546	0.00100518	-0.0135399	0.000992644	-0.0135399	   24.8161	
 -0.144276	0.000988002	 -0.184254	0.000977111	 -0.164097	0.00100136	 -0.164209	0.000988825	 -0.164209	   24.7206	
 -0.295593	0.00098424	 -0.334847	0.000973181	 -0.313055	0.000997613	 -0.314498	0.000985011	 -0.314498	   24.6253	
 -0.447038	0.000980408	 -0.485765	0.000969171	 -0.462068	0.000993782	 -0.464957	0.00098112	 -0.464957	    24.528	
 -0.598327	0.000976472	 -0.636955	0.000965127	 -0.610646	0.000989775	 -0.615309	0.000977124	 -0.615309	   24.4281	
 -0.749604	0.000972457	 -0.788105	0.000961097	 -0.759372	0.000985674	 -0.765693	0.000973076	 -0.765693	   24.3269	
 -0.901325	0.000968425	 -0.939285	0.000957022	 -0.908493	0.000981608	 -0.916368	0.000969018	 -0.916368	   24.2255	
  -1.05273	0.000964373	  -1.09018	0.000952782	  -1.05787	0.000977566	  -1.06693	0.000964907	  -1.06693	   24.1227	
  -1.20418	0.000960192	  -1.24094	0.000948459	  -1.20724	0.000973416	  -1.21745	0.000960689	  -1.21745	   24.0172	
  -1.35572	0.000955886	  -1.39164	0.000944242	  -1.35643	0.00096911	  -1.36793	0.000956413	  -1.36793	   23.9103	
  -1.50716	0.000951579	  -1.54227	0.000940112	  -1.50623	0.000964746	  -1.51855	0.000952145	  -1.51855	   23.8036	
  -1.65866	0.000947329	  -1.69262	0.000935842	   -1.6564	0.00096041	  -1.66923	0.00094786	  -1.66923	   23.6965	
  -1.80974	0.000943035	  -1.84299	0.000931366	   -1.8068	0.000956057	  -1.81984	0.000943486	  -1.81984	   23.5871	
   -1.9607	0.000938543	  -1.99389	0.000926867	  -1.95752	0.000951589	   -1.9707	0.000938999	   -1.9707	    23.475	
  -2.11169	0.000933897	  -2.14518	0.000922498	  -2.10773	0.000947008	  -2.12153	0.000934468	  -2.12153	   23.3617	
  -2.26253	0.00092928	   -2.2965	0.000918163	  -2.25786	0.000942406	   -2.2723	0.00092995	   -2.2723	   23.2487	
  -2.41311	0.000924729	  -2.44767	0.000913652	  -2.40776	0.000937819	  -2.42285	 0.0009254	  -2.42285	    23.135	
  -2.56376	0.000920101	  -2.59866	0.000908956	  -2.55779	0.000933171	   -2.5734	0.000920743	   -2.5734	   23.0186	
  -2.71439	0.000915288	  -2.74939	0.000904269	  -2.70767	0.000928403	  -2.72382	0.000915987	  -2.72382	   22.8997	
  -2.86487	0.00091037	  -2.90016	0.000899697	  -2.85725	0.000923556	  -2.87409	0.000911208	  -2.87409	   22.7802	
  -3.01521	0.000905508	  -3.05073	0.000895096	  -3.00696	0.000918714	   -3.0243	0.000906439	   -3.0243	    22.661	
  -3.16541	0.000900672	  -3.20093	 0.0008903	  -3.15657	0.000913875	   -3.1743	0.000901616	   -3.1743	   22.5404	
  -3.31519	0.000895654	  -3.35086	0.000885366	  -3.30618	0.000908938	  -3.32407	0.000896653	  -3.32407	   22.4163	
  -3.46505	0.000890427	  -3.50085	0.000880482	  -3.45569	0.000903858	  -3.47386	0.000891589	  -3.47386	   22.2897	
  -3.61476	0.000885174	  -3.65028	0.000875661	  -3.60509	0.000898729	  -3.62338	0.000886521	  -3.62338	    22.163	
  -3.76394	0.000880035	  -3.79961	0.00087074	   -3.7544	0.000893636	  -3.77265	0.000881471	  -3.77265	   22.0368	
  -3.91314	0.000874877	  -3.94874	0.000865668	  -3.90353	0.000888529	   -3.9218	0.000876358	   -3.9218	    21.909	
  -4.06214	0.000869496	  -4.09746	0.000860559	  -4.05266	0.000883299	  -4.07076	0.000871118	  -4.07076	    21.778	
  -4.21097	0.000863939	  -4.24624	0.00085551	  -4.20141	0.000877938	  -4.21954	0.000865796	  -4.21954	   21.6449	
  -4.35969	0.000858413	  -4.39506	0.000850426	  -4.35007	0.000872546	  -4.36827	0.000860462	  -4.36827	   21.5115	
  -4.50826	0.000852957	  -4.54351	0.000845179	  -4.49879	0.000867183	  -4.51685	0.000855106	  -4.51685	   21.3777	
  -4.65644	0.000847422	  -4.69137	0.000839793	  -4.64713	0.000861791	  -4.66498	0.000849669	  -4.66498	   21.2417	
  -4.80451	0.000841713	  -4.83955	0.000834424	  -4.79514	0.000856284	  -4.81307	0.00084414	  -4.81307	   21.1035	
  -4.95231	0.000835929	  -4.98724	0.000829112	   -4.9429	0.000850676	  -4.96081	0.000838572	  -4.96081	   20.9643	
  -5.09982	0.000830197	  -5.13484	0.000823728	  -5.09017	0.00084505	  -5.10828	0.000832992	  -5.10828	   20.8248	
  -5.24717	0.000824482	  -5.28225	0.000818166	   -5.2375	0.000839437	  -5.25564	0.000827361	  -5.25564	    20.684	
  -5.39448	0.00081865	   -5.4294	0.000812505	  -5.38419	0.000833763	  -5.40269	0.00082164	  -5.40269	    20.541	
  -5.54155	0.000812674	  -5.57629	0.000806888	  -5.53015	0.000827962	  -5.54933	0.000815841	  -5.54933	    20.396	
   -5.6886	0.000806668	  -5.72297	0.000801299	   -5.6756	0.000822083	  -5.69572	0.000810017	  -5.69572	   20.2504	
  -5.83585	0.00080072	  -5.86951	0.000795602	  -5.82086	0.000816207	  -5.84208	0.000804176	  -5.84208	   20.1044	
  -5.98289	0.000794748	  -6.01547	0.00078976	  -5.96589	0.000810331	  -5.98808	0.00079828	  -5.98808	    19.957	
  -6.12965	0.000788621	   -6.1616	0.000783883	  -6.11086	0.00080438	  -6.13404	0.000792295	  -6.13404	   19.8074	
  -6.27625	0.000782379	   -6.3072	0.000778058	  -6.25584	0.000798316	  -6.27976	0.000786251	  -6.27976	   19.6563	
  -6.42305	0.00077615	  -6.45255	0.000772224	  -6.40049	0.000792204	  -6.42536	0.000780193	  -6.42536	   19.5048	
  -6.56969	0.000769956	  -6.59765	0.000766272	   -6.5452	0.000786101	  -6.57084	0.00077411	  -6.57084	   19.3527	
  -6.71586	0.000763668	  -6.74264	0.000760214	  -6.68967	0.000779975	  -6.71605	0.000767952	  -6.71605	   19.1988	
  -6.86149	0.00075723	  -6.88756	0.000754154	  -6.83416	0.000773761	  -6.86107	0.000761715	  -6.86107	   19.0429	
  -7.00696	0.00075077	   -7.0322	0.000748126	  -6.97846	0.000767459	  -7.00587	0.000755452	  -7.00587	   18.8863	
  -7.15186	0.000744385	  -7.17687	0.000742053	  -7.12217	0.000761131	   -7.1503	0.00074919	   -7.1503	   18.7297	
  -7.29648	0.000737955	  -7.32091	0.000735862	  -7.26558	0.000754809	  -7.29432	0.000742876	  -7.29432	   18.5719	
  -7.44104	0.000731341	  -7.46404	0.000729595	  -7.40875	0.000748447	  -7.43794	0.000736461	  -7.43794	   18.4115	
  -7.58516	0.000724624	  -7.60629	0.000723333	  -7.55169	0.000742002	  -7.58105	0.000729987	  -7.58105	   18.2497	
  -7.72883	0.000717964	  -7.74825	0.000717095	  -7.69435	0.000735501	  -7.72381	0.00072352	  -7.72381	    18.088	
  -7.87216	0.000711367	  -7.88967	0.000710745	  -7.83666	0.000729048	  -7.86616	0.000717053	  -7.86616	   17.9263	
  -8.01465	0.000704676	  -8.03115	0.000704238	  -7.97831	0.000722552	  -8.00804	0.000710488	  -8.00804	   17.7622	
  -8.15695	0.000697809	  -8.17278	0.000697695	   -8.1179	0.000715866	  -8.14921	0.00070379	  -8.14921	   17.5948	
  -8.29931	0.000690905	  -8.31349	0.00069125	  -8.25718	0.000709083	  -8.28999	0.00069708	  -8.28999	    17.427	
  -8.44132	0.000684086	  -8.45425	0.000684823	  -8.39729	0.000702387	  -8.43095	0.000690432	  -8.43095	   17.2608	
  -8.58299	0.000677254	  -8.59428	0.000678247	  -8.53771	0.000695798	  -8.57166	0.000683767	  -8.57166	   17.0942	
  -8.72401	0.000670261	  -8.73407	0.000671527	   -8.6779	0.000689104	  -8.71199	0.000676964	  -8.71199	   16.9241	
  -8.86451	0.000663159	   -8.8737	0.000664827	  -8.81762	0.000682195	  -8.85194	0.00067006	  -8.85194	   16.7515	
  -9.00491	0.000656131	  -9.01297	0.000658214	  -8.95682	0.000675201	  -8.99156	0.000663182	  -8.99156	   16.5796	
   -9.1448	0.000649198	  -9.15187	0.000651581	   -9.0952	0.000668325	  -9.13062	0.000656368	  -9.13062	   16.4092	
  -9.28428	0.000642181	  -9.29054	0.000644825	  -9.23365	0.000661513	  -9.26949	0.000649506	  -9.26949	   16.2377	
  -9.42327	0.000634972	  -9.42868	0.000637987	  -9.37239	0.000654565	  -9.40811	0.000642508	  -9.40811	   16.0627	
  -9.56178	0.000627698	  -9.56671	0.000631182	  -9.51122	0.000647426	  -9.54657	0.000635436	  -9.54657	   15.8859	
  -9.69998	0.000620528	  -9.70396	0.000624417	  -9.64926	0.000640257	   -9.6844	 0.0006284	   -9.6844	     15.71	
  -9.83799	0.000613416	  -9.84027	0.000617591	  -9.78673	0.000633183	  -9.82166	0.000621396	  -9.82166	   15.5349	
    -9.975	0.000606182	  -9.97602	0.000610644	   -9.9238	0.000626118	  -9.95828	0.000614314	  -9.95828	   15.3579	
  -10.1113	0.000598786	  -10.1115	0.000603649	  -10.0602	0.000618905	  -10.0943	0.000607113	  -10.0943	   15.1778	
  -10.2471	0.000591385	  -10.2467	0.000596696	  -10.1961	0.000611546	    -10.23	0.000599876	    -10.23	   14.9969	
  -10.3821	0.00058408	  -10.3814	0.000589749	  -10.3319	0.000604193	  -10.3651	0.000592674	  -10.3651	   14.8168	
  -10.5164	0.000576769	  -10.5155	0.000582704	   -10.467	0.000596919	  -10.4997	0.000585464	  -10.4997	   14.6366	
  -10.6505	0.000569322	  -10.6493	0.000575549	  -10.6017	0.000589626	  -10.6338	0.000578166	  -10.6338	   14.4541	
  -10.7845	0.000561768	  -10.7826	0.000568386	   -10.736	0.000582203	  -10.7677	0.000570786	  -10.7677	   14.2696	
  -10.9181	0.000554239	  -10.9157	0.00056128	    -10.87	0.000574687	  -10.9013	0.000563402	  -10.9013	   14.0851	
  -11.0511	0.000546773	  -11.0485	0.000554138	  -11.0034	0.000567193	  -11.0343	0.000556035	  -11.0343	   13.9009	
  -11.1837	0.00053926	  -11.1806	0.000546811	  -11.1363	0.000559765	  -11.1669	0.000548612	  -11.1669	   13.7153	
  -11.3161	0.000531617	  -11.3128	0.000539356	  -11.2688	0.000552286	  -11.2992	0.000541086	  -11.2992	   13.5272	
  -11.4484	0.000523907	  -11.4446	0.000531974	  -11.4012	0.000544665	  -11.4314	0.000533515	  -11.4314	   13.3379	
  -11.5805	0.000516234	  -11.5758	0.000524702	   -11.533	0.000536955	  -11.5631	0.000525964	  -11.5631	   13.1491	
  -11.7123	0.000508597	  -11.7064	0.000517355	  -11.6645	0.000529283	  -11.6944	0.000518412	  -11.6944	   12.9603	
  -11.8436	 0.0005009	  -11.8368	0.000509818	  -11.7958	0.000521658	  -11.8254	0.000510792	  -11.8254	   12.7698	
  -11.9747	 0.0004931	  -11.9664	0.000502212	  -11.9261	0.000513966	  -11.9557	0.000503093	  -11.9557	   12.5773	
  -12.1049	0.000485272	  -12.0954	0.000494733	  -12.0561	0.00050615	  -12.0855	0.000495385	  -12.0855	   12.3846	
  -12.2345	0.000477481	   -12.224	0.000487347	  -12.1856	0.000498308	  -12.2147	0.000487712	  -12.2147	   12.1928	
  -12.3636	0.000469675	  -12.3524	0.000479824	  -12.3147	0.000490529	  -12.3436	0.00048001	  -12.3436	   12.0002	
  -12.4922	0.000461779	  -12.4803	0.000472105	  -12.4434	0.000482758	  -12.4719	0.000472214	  -12.4719	   11.8053	
  -12.6195	0.000453811	  -12.6076	0.000464387	  -12.5711	0.000474898	  -12.5994	0.000464365	  -12.5994	   11.6091	
  -12.7463	0.000445854	  -12.7348	0.000456842	  -12.6984	0.000466963	  -12.7265	0.000456553	  -12.7265	   11.4138	
  -12.8725	0.000437941	   -12.861	0.000449344	  -12.8248	0.000459045	  -12.8528	0.000448777	  -12.8528	   11.2194	
  -12.9979	0.000429984	  -12.9869	0.00044166	  -12.9506	0.000451172	  -12.9785	0.000440939	  -12.9785	   11.0235	
   -13.123	 0.0004219	  -13.1122	0.000433814	  -13.0759	0.000443274	  -13.1037	0.000432996	  -13.1037	   10.8249	
  -13.2475	0.000413753	   -13.237	0.000426055	  -13.2008	 0.0004353	  -13.2284	0.000425036	  -13.2284	   10.6259	
  -13.3712	0.000405645	  -13.3609	0.000418461	   -13.325	0.000427298	  -13.3524	0.000417135	  -13.3524	   10.4284	
  -13.4945	0.000397581	  -13.4842	0.000410837	  -13.4488	0.00041933	  -13.4758	0.00040925	  -13.4758	   10.2312	
  -13.6173	0.000389468	   -13.607	0.000402994	  -13.5718	0.000411383	  -13.5987	0.000401282	  -13.5987	    10.032	
  -13.7395	0.000381252	  -13.7294	0.000395088	  -13.6943	0.000403389	  -13.7211	0.000393243	  -13.7211	   9.83108	
  -13.8607	0.000372998	   -13.851	0.000387419	  -13.8162	0.000395323	  -13.8426	0.000385247	  -13.8426	   9.63117	
  -13.9813	0.000364782	  -13.9714	0.000379895	  -13.9378	0.00038725	  -13.9635	0.000377309	  -13.9635	   9.43272	
  -14.1011	0.000356573	  -14.0916	0.000372137	  -14.0587	0.000379211	  -14.0838	0.000369307	  -14.0838	   9.23268	
  -14.2199	0.000348322	  -14.2109	0.000364091	  -14.1788	0.00037117	  -14.2032	0.000361194	  -14.2032	   9.02986	
  -14.3386	0.00034004	  -14.3299	0.000356123	  -14.2984	0.00036309	  -14.3223	0.000353084	  -14.3223	    8.8271	
  -14.4571	0.000331751	  -14.4481	0.000348446	  -14.4174	0.000354973	  -14.4408	0.000345057	  -14.4408	   8.62642	
  -14.5751	0.000323495	  -14.5653	0.000340808	  -14.5357	0.000346828	  -14.5587	0.000337044	  -14.5587	   8.42609	
  -14.6923	0.000315316	  -14.6818	0.00033289	  -14.6534	0.000338666	  -14.6758	0.000328958	  -14.6758	   8.22394	
  -14.8091	0.000307149	  -14.7979	0.000324794	  -14.7703	0.000330505	  -14.7924	0.000320816	  -14.7924	    8.0204	
   -14.925	0.000298844	  -14.9131	0.000316856	  -14.8868	0.000322367	  -14.9083	0.000312689	  -14.9083	   7.81723	
  -15.0406	0.000290444	   -15.028	0.000309144	  -15.0026	0.000314224	  -15.0237	0.000304604	  -15.0237	    7.6151	
  -15.1561	0.000282134	  -15.1424	0.000301361	  -15.1176	0.000306025	  -15.1387	0.000296507	  -15.1387	   7.41267	
  -15.2711	0.000273972	   -15.256	0.000293318	  -15.2322	0.000297772	  -15.2531	0.000288354	  -15.2531	   7.20884	
   -15.386	0.000265802	  -15.3692	0.000285197	  -15.3457	0.000289522	   -15.367	0.000280174	   -15.367	   7.00434	
  -15.5005	0.000257494	  -15.4817	0.000277306	  -15.4585	0.000281306	  -15.4802	0.000272035	  -15.4802	   6.80088	
  -15.6145	0.000249131	  -15.5933	0.000269546	  -15.5709	0.000273084	  -15.5929	0.00026392	  -15.5929	   6.59801	
  -15.7278	0.000240865	  -15.7043	0.00026158	  -15.6825	0.000264803	  -15.7049	0.000255749	  -15.7049	   6.39373	
  -15.8403	0.00023269	  -15.8146	0.000253383	  -15.7941	0.000256481	  -15.8163	0.000247518	  -15.8163	   6.18794	
  -15.9519	0.000224463	  -15.9243	0.000245295	  -15.9054	0.000248177	  -15.9272	0.000239312	  -15.9272	   5.98279	
  -16.0632	0.000216126	  -16.0339	0.000237472	  -16.0161	0.000239909	  -16.0377	0.000231169	  -16.0377	   5.77922	
  -16.1737	0.000207791	  -16.1429	0.000229663	  -16.1265	0.00023163	  -16.1477	0.000223028	  -16.1477	    5.5757	
  -16.2835	0.00019956	  -16.2514	0.000221597	  -16.2363	0.000223307	   -16.257	0.000214821	   -16.257	   5.37053	
  -16.3921	0.000191369	  -16.3594	0.000213385	  -16.3453	0.000214965	  -16.3656	0.000206573	  -16.3656	   5.16433	
  -16.5005	0.000183101	  -16.4671	0.000205332	  -16.4537	0.000206654	  -16.4738	0.000198362	  -16.4738	   4.95906	
  -16.6081	0.000174769	  -16.5744	0.000197472	  -16.5616	0.000198377	  -16.5814	0.000190206	  -16.5814	   4.75514	
  -16.7156	0.000166479	  -16.6817	0.000189541	  -16.6691	0.000190082	  -16.6888	0.000182034	  -16.6888	   4.55084	
  -16.8222	0.000158258	  -16.7879	0.000181385	  -16.7759	0.000181749	  -16.7953	0.000173797	  -16.7953	   4.34493	
  -16.9282	0.000150027	  -16.8939	0.000173184	  -16.8819	0.000173425	  -16.9013	0.000165545	  -16.9013	   4.13864	
  -17.0336	0.000141746	  -16.9994	0.000165169	  -16.9867	0.000165148	  -17.0066	0.000157354	  -17.0066	   3.93385	
  -17.1381	0.000133463	  -17.1043	0.000157264	  -17.0906	0.000156899	   -17.111	0.000149208	   -17.111	   3.73021	
  -17.2419	0.000125242	   -17.209	0.000149221	  -17.1934	0.000148632	  -17.2148	0.000141032	  -17.2148	   3.52579	
  -17.3448	0.000117073	  -17.3131	0.00014104	  -17.2956	0.00014036	  -17.3178	0.000132824	  -17.3178	   3.32061	
  -17.4468	0.000108865	  -17.4165	0.00013293	  -17.3978	0.000132084	  -17.4203	0.000124626	  -17.4203	   3.11565	
  -17.5478	0.000100584	  -17.5192	0.000124998	  -17.4993	0.000123784	  -17.5221	0.000116455	  -17.5221	   2.91138	
  -17.6479	9.2324e-05	  -17.6212	0.000117066	  -17.6004	0.000115488	  -17.6232	0.000108293	  -17.6232	   2.70732	
  -17.7469	8.41667e-05	  -17.7223	0.000108967	  -17.7006	0.000107258	  -17.7233	0.000100131	  -17.7233	   2.50327	
  -17.8455	7.6056e-05	  -17.8224	0.000100775	  -17.7998	9.90705e-05	  -17.8226	9.19672e-05	  -17.8226	   2.29918	
  -17.9437	6.78245e-05	  -17.9215	9.26967e-05	  -17.8984	9.0853e-05	  -17.9212	8.37914e-05	  -17.9212	   2.09479	
  -18.0409	5.94682e-05	  -18.0195	8.47521e-05	  -17.9961	8.25777e-05	  -18.0188	7.55994e-05	  -18.0188	   1.88998	
  -18.1375	5.11748e-05	  -18.1166	7.67501e-05	  -18.0933	7.43167e-05	  -18.1158	6.74139e-05	  -18.1158	   1.68535	
  -18.2335	4.30645e-05	  -18.2135	6.85935e-05	  -18.1908	6.61893e-05	  -18.2126	5.92824e-05	  -18.2126	   1.48206	
  -18.3289	3.49987e-05	  -18.3094	6.0427e-05	  -18.2882	 5.814e-05	  -18.3089	5.11885e-05	  -18.3089	   1.27971	
  -18.4236	2.68063e-05	  -18.4047	5.24083e-05	  -18.3851	5.00504e-05	  -18.4045	4.30883e-05	  -18.4045	   1.07721	
  -18.5175	1.85286e-05	  -18.4989	4.4461e-05	  -18.4809	4.18611e-05	  -18.4991	3.49502e-05	  -18.4991	  0.873756	
  -18.6107	1.03376e-05	  -18.5926	3.64036e-05	  -18.5747	3.36527e-05	  -18.5926	2.6798e-05	  -18.5926	  0.669949	
  -18.7031	2.28719e-06	  -18.6854	2.8236e-05	  -18.6673	2.55397e-05	  -18.6852	1.86876e-05	  -18.6852	  0.467191	
  -18.7946	-5.75896e-06	  -18.7775	2.01272e-05	  -18.7595	1.7514e-05	  -18.7772	1.06274e-05	  -18.7772	  0.265685	
  -18.8857	-1.39058e-05	  -18.8689	1.21528e-05	  -18.8515	9.44808e-06	  -18.8687	2.56504e-06	  -18.8687	 0.0641259	
  -18.9759	-2.20846e-05	  -18.9592	4.18986e-06	  -18.9428	1.27279e-06	  -18.9593	-5.54067e-06	  -18.9593	 -0.138517	
  -19.0654	-3.01642e-05	  -19.0488	-3.8862e-06	  -19.0324	-6.91457e-06	  -19.0489	-1.3655e-05	  -19.0489	 -0.341374	
  -19.1539	-3.81427e-05	  -19.1377	-1.20184e-05	  -19.1212	-1.50045e-05	  -19.1376	-2.17219e-05	  -19.1376	 -0.543047	
  -19.2417	-4.61409e-05	  -19.2258	-2.00667e-05	    -19.21	-2.30185e-05	  -19.2258	-2.9742e-05	  -19.2258	 -0.743551	
  -19.3292	-5.42239e-05	  -19.3133	-2.80257e-05	  -19.2982	-3.10772e-05	  -19.3136	-3.77756e-05	  -19.3136	  -0.94439	
   -19.416	-6.23023e-05	  -19.4003	-3.60132e-05	  -19.3856	-3.9203e-05	  -19.4006	-4.58395e-05	  -19.4006	  -1.14599	
  -19.5022	-7.02691e-05	  -19.4865	-4.40728e-05	  -19.4719	-4.72967e-05	  -19.4868	-5.38795e-05	  -19.4868	  -1.34699	
  -19.5874	-7.81607e-05	  -19.5718	-5.21192e-05	  -19.5577	-5.52973e-05	  -19.5723	-6.1859e-05	  -19.5723	  -1.54648	
  -19.6716	-8.61472e-05	  -19.6564	-6.00944e-05	  -19.6423	-6.32887e-05	  -19.6568	-6.98435e-05	  -19.6568	  -1.74609	
  -19.7548	-9.41694e-05	  -19.7403	-6.8039e-05	  -19.7261	-7.13382e-05	  -19.7404	-7.78489e-05	  -19.7404	  -1.94622	
  -19.8371	-0.000102034	  -19.8234	-7.60269e-05	  -19.8095	-7.93831e-05	  -19.8233	-8.58148e-05	  -19.8233	  -2.14537	
  -19.9184	-0.000109791	  -19.9053	-8.40411e-05	  -19.8926	-8.73259e-05	  -19.9055	-9.37192e-05	  -19.9055	  -2.34298	
  -19.9989	-0.000117699	  -19.9865	-9.19907e-05	  -19.9745	-9.52141e-05	  -19.9866	-0.000101635	  -19.9866	  -2.54086	
  -20.0786	-0.000125768	  -20.0668	-9.98557e-05	  -20.0551	-0.000103155	  -20.0668	-0.000109593	  -20.0668	  -2.73982	
  -20.1574	-0.000133759	  -20.1463	-0.000107714	   -20.135	-0.000111145	  -20.1462	-0.000117539	  -20.1462	  -2.93848	
  -20.2356	-0.000141531	  -20.2251	-0.000115614	  -20.2137	-0.000119083	  -20.2248	-0.00012541	  -20.2248	  -3.13524	
  -20.3127	-0.000149225	  -20.3031	-0.000123499	  -20.2914	-0.00012692	  -20.3024	-0.000133215	  -20.3024	  -3.33036	
  -20.3892	-0.000157043	  -20.3798	-0.000131297	   -20.368	-0.00013471	   -20.379	-0.000141017	   -20.379	  -3.52542	
  -20.4646	-0.00016494	  -20.4558	-0.000139028	  -20.4438	-0.000142561	  -20.4547	-0.000148843	  -20.4547	  -3.72108	
   -20.539	-0.000172721	  -20.5311	-0.000146772	  -20.5192	-0.000150467	  -20.5298	-0.000156653	  -20.5298	  -3.91633	
   -20.613	-0.000180325	  -20.6053	-0.000154533	  -20.5933	-0.00015832	  -20.6039	-0.000164393	  -20.6039	  -4.10982	
  -20.6861	-0.000187916	  -20.6789	-0.000162218	  -20.6668	-0.00016607	  -20.6773	-0.000172068	  -20.6773	   -4.3017	
  -20.7586	-0.000195624	  -20.7516	-0.000169793	  -20.7395	-0.000173796	  -20.7499	-0.000179738	  -20.7499	  -4.49344	
  -20.8295	-0.000203354	  -20.8236	-0.000177366	  -20.8104	-0.000181575	  -20.8212	-0.000187432	  -20.8212	  -4.68579	
  -20.8998	-0.000210926	   -20.895	-0.000185012	  -20.8805	-0.000189367	  -20.8917	-0.000195102	  -20.8917	  -4.87754	
  -20.9692	-0.000218365	  -20.9649	-0.000192641	    -20.95	-0.000197078	  -20.9614	-0.000202695	  -20.9614	  -5.06737	
  -21.0379	-0.000225845	  -21.0344	-0.000200121	  -21.0188	-0.000204699	  -21.0304	-0.000210222	  -21.0304	  -5.25554	
  -21.1053	-0.000233423	  -21.1031	-0.000207491	  -21.0867	-0.000212324	  -21.0984	-0.000217746	  -21.0984	  -5.44365	
  -21.1716	-0.000240939	  -21.1707	-0.000214907	  -21.1534	-0.000220003	  -21.1653	-0.000225283	  -21.1653	  -5.63207	
  -21.2365	-0.00024836	  -21.2373	-0.000222413	  -21.2195	-0.000227662	  -21.2311	-0.000232812	  -21.2311	  -5.82029	
  -21.3002	-0.000255821	  -21.3026	-0.000229872	  -21.2841	-0.000235234	  -21.2956	-0.000240309	  -21.2956	  -6.00773	
  -21.3624	-0.000263379	  -21.3674	-0.000237163	  -21.3478	-0.000242742	  -21.3592	-0.000247761	  -21.3592	  -6.19403	
  -21.4246	-0.000270872	  -21.4313	-0.000244349	  -21.4103	-0.000250266	  -21.4221	-0.000255162	  -21.4221	  -6.37906	
  -21.4876	-0.000278193	   -21.494	-0.000251625	  -21.4719	-0.000257848	  -21.4845	-0.000262555	  -21.4845	  -6.56389	
  -21.5504	-0.00028547	  -21.5556	-0.000259025	  -21.5326	-0.000265375	  -21.5462	-0.000269957	  -21.5462	  -6.74892	
  -21.6117	-0.00029284	  -21.6163	-0.000266353	  -21.5926	-0.000272757	  -21.6069	-0.000277317	  -21.6069	  -6.93292	
  -21.6721	-0.000300227	  -21.6755	-0.00027348	  -21.6522	-0.000280092	  -21.6666	-0.0002846	  -21.6666	  -7.11499	
  -21.7322	-0.000307512	  -21.7343	-0.00028053	  -21.7113	-0.000287517	  -21.7259	-0.000291853	  -21.7259	  -7.29633	
   -21.792	-0.000314757	  -21.7922	-0.000287679	  -21.7696	-0.000294988	  -21.7846	-0.000299141	  -21.7846	  -7.47853	
   -21.851	-0.000322055	  -21.8493	-0.000294922	  -21.8269	-0.000302352	  -21.8424	-0.000306443	  -21.8424	  -7.66108	
  -21.9088	-0.000329373	  -21.9059	-0.000302096	  -21.8834	-0.000309586	  -21.8994	-0.000313685	  -21.8994	  -7.84213	
  -21.9657	-0.000336607	  -21.9615	-0.000309087	   -21.939	-0.000316817	  -21.9554	-0.000320837	  -21.9554	  -8.02092	
   -22.021	-0.000343753	  -22.0161	-0.00031599	  -21.9937	-0.000324125	  -22.0103	-0.000327956	  -22.0103	   -8.1989	
  -22.0757	-0.00035093	  -22.0696	-0.000322957	  -22.0476	-0.000331426	  -22.0643	-0.000335104	  -22.0643	  -8.37761	
  -22.1296	-0.000358206	  -22.1223	-0.000330049	  -22.1005	-0.000338623	  -22.1175	-0.000342293	  -22.1175	  -8.55731	
  -22.1832	-0.000365467	  -22.1741	-0.000337109	  -22.1526	-0.000345791	    -22.17	-0.000349456	    -22.17	   -8.7364	
  -22.2358	-0.000372593	  -22.2252	-0.000344008	  -22.2033	-0.000352937	  -22.2214	-0.000356513	  -22.2214	  -8.91282	
  -22.2876	-0.000379649	   -22.275	-0.000350834	  -22.2529	-0.000359991	  -22.2719	-0.000363492	  -22.2719	  -9.08729	
  -22.3382	-0.000386774	  -22.3242	-0.00035775	  -22.3013	-0.000366978	  -22.3212	-0.000370501	  -22.3212	  -9.26252	
  -22.3877	-0.00039396	  -22.3725	-0.000364721	  -22.3485	-0.000374018	  -22.3696	-0.000377566	  -22.3696	  -9.43916	
   -22.436	-0.000401063	    -22.42	-0.000371585	  -22.3948	-0.000381125	  -22.4169	-0.000384591	  -22.4169	  -9.61477	
  -22.4832	-0.000408032	  -22.4665	-0.000378315	    -22.44	-0.000388181	  -22.4632	-0.000391509	  -22.4632	  -9.78773	
  -22.5293	-0.000414986	  -22.5124	-0.00038504	  -22.4843	-0.00039509	  -22.5086	-0.000398372	  -22.5086	  -9.95929	
  -22.5749	-0.000422009	  -22.5572	-0.000391836	  -22.5277	-0.000401909	  -22.5532	-0.000405252	  -22.5532	  -10.1313	
  -22.6194	-0.000429037	  -22.6013	-0.000398616	  -22.5707	-0.000408766	  -22.5971	-0.000412139	  -22.5971	  -10.3035	
  -22.6628	-0.000435951	  -22.6446	-0.000405286	  -22.6127	-0.000415672	    -22.64	-0.000418969	    -22.64	  -10.4742	
  -22.7053	-0.000442751	   -22.687	-0.000411879	  -22.6538	-0.00042252	   -22.682	-0.000425717	   -22.682	  -10.6429	
  -22.7466	-0.000449548	  -22.7287	-0.000418491	  -22.6943	-0.000429234	  -22.7232	-0.000432424	  -22.7232	  -10.8106	
  -22.7869	-0.000456395	  -22.7697	-0.000425137	  -22.7339	-0.000435881	  -22.7635	-0.000439138	  -22.7635	  -10.9785	
  -22.8266	-0.000463208	  -22.8094	-0.000431735	   -22.773	-0.00044255	   -22.803	-0.000445831	   -22.803	  -11.1458	
  -22.8654	-0.000469907	  -22.8483	-0.000438231	  -22.8115	-0.000449283	  -22.8417	-0.000452474	  -22.8417	  -11.3118	
  -22.9036	-0.000476534	  -22.8864	-0.000444687	  -22.8497	-0.000455988	  -22.8799	-0.00045907	  -22.8799	  -11.4767	
  -22.9411	-0.00048319	  -22.9234	-0.000451136	   -22.887	-0.000462572	  -22.9172	-0.000465633	  -22.9172	  -11.6408	
   -22.978	-0.000489879	  -22.9589	-0.000457602	  -22.9235	-0.000469063	  -22.9535	-0.000472181	  -22.9535	  -11.8045	
  -23.0139	-0.000496503	  -22.9937	-0.000464064	  -22.9587	-0.000475535	  -22.9888	-0.0004787	  -22.9888	  -11.9675	
  -23.0486	-0.000503015	  -23.0274	-0.000470486	  -22.9931	-0.000481995	  -23.0231	-0.000485165	  -23.0231	  -12.1291	
  -23.0827	-0.000509488	  -23.0604	-0.00047686	  -23.0266	-0.000488426	  -23.0566	-0.000491591	  -23.0566	  -12.2898	
  -23.1155	-0.000515997	  -23.0924	-0.000483188	  -23.0592	-0.000494794	   -23.089	-0.000497993	   -23.089	  -12.4498	
  -23.1476	-0.000522497	  -23.1231	-0.000489496	  -23.0908	-0.000501084	  -23.1205	-0.000504359	  -23.1205	   -12.609	
  -23.1791	-0.000528874	  -23.1533	-0.000495813	  -23.1216	-0.000507314	  -23.1513	-0.000510667	  -23.1513	  -12.7667	
  -23.2097	-0.000535152	  -23.1828	-0.00050213	  -23.1517	-0.000513502	  -23.1814	-0.000516928	  -23.1814	  -12.9232	
  -23.2395	-0.000541468	  -23.2114	-0.000508411	  -23.1806	-0.000519664	  -23.2105	-0.000523181	  -23.2105	  -13.0795	
  -23.2684	-0.000547825	  -23.2391	-0.000514643	  -23.2085	-0.000525828	  -23.2387	-0.000529432	  -23.2387	  -13.2358	
  -23.2966	-0.000554104	  -23.2662	-0.000520865	  -23.2358	-0.000531987	  -23.2662	-0.000535652	  -23.2662	  -13.3913	
  -23.3238	-0.000560264	  -23.2925	-0.000527077	  -23.2622	-0.000538088	  -23.2928	-0.00054181	  -23.2928	  -13.5452	
  -23.3498	-0.000566396	  -23.3177	-0.000533197	  -23.2877	-0.000544083	  -23.3184	-0.000547892	  -23.3184	  -13.6973	
   -23.375	-0.000572572	  -23.3419	-0.000539223	  -23.3122	-0.000550018	   -23.343	-0.000553938	   -23.343	  -13.8484	
   -23.399	-0.000578749	  -23.3649	-0.000545311	  -23.3357	-0.000555986	  -23.3665	-0.000560015	  -23.3665	  -14.0004	
  -23.4222	-0.000584827	  -23.3871	-0.000551513	  -23.3584	-0.000561994	  -23.3892	-0.000566111	  -23.3892	  -14.1528	
  -23.4445	-0.000590802	  -23.4082	-0.000557661	  -23.3807	-0.000567946	  -23.4111	-0.000572136	  -23.4111	  -14.3034	
  -23.4656	-0.000596718	  -23.4284	-0.000563633	  -23.4023	-0.000573795	  -23.4321	-0.000578049	  -23.4321	  -14.4512	
  -23.4857	-0.000602638	  -23.4479	-0.000569536	  -23.4227	-0.000579607	  -23.4521	-0.000583927	  -23.4521	  -14.5982	
  -23.5042	-0.000608663	  -23.4672	-0.000575544	  -23.4422	-0.000585453	  -23.4712	-0.000589887	  -23.4712	  -14.7472	
  -23.5206	-0.000614699	  -23.4855	-0.000581633	  -23.4605	-0.000591305	  -23.4889	-0.000595879	  -23.4889	   -14.897	
  -23.5359	-0.000620586	  -23.5027	-0.00058762	  -23.4776	-0.000597089	  -23.5054	-0.000601765	  -23.5054	  -15.0441	
  -23.5515	-0.000626288	  -23.5195	-0.000593451	  -23.4937	-0.00060279	  -23.5216	-0.000607509	  -23.5216	  -15.1877	
  -23.5683	-0.000632004	  -23.5357	-0.000599269	   -23.509	-0.000608476	  -23.5377	-0.00061325	  -23.5377	  -15.3312	
  -23.5838	-0.000637869	   -23.551	-0.000605187	  -23.5233	-0.000614203	  -23.5527	-0.000619086	  -23.5527	  -15.4772	
  -23.5979	-0.000643746	  -23.5653	-0.000611127	  -23.5369	-0.000619928	  -23.5667	-0.000624933	  -23.5667	  -15.6233	
  -23.6106	-0.000649447	   -23.579	-0.000616944	  -23.5499	-0.000625588	  -23.5798	-0.00063066	  -23.5798	  -15.7665	
  -23.6225	-0.000655013	  -23.5919	-0.000622639	  -23.5623	-0.000631189	  -23.5922	-0.000636281	  -23.5922	   -15.907	
  -23.6332	-0.000660604	   -23.603	-0.000628357	  -23.5744	-0.00063679	  -23.6035	-0.000641917	  -23.6035	  -16.0479	
  -23.6431	-0.000666262	  -23.6128	-0.000634159	  -23.5854	-0.000642413	  -23.6138	-0.000647612	  -23.6138	  -16.1903	
  -23.6519	-0.000671932	  -23.6217	-0.000639927	   -23.596	-0.000648008	  -23.6232	-0.000653289	  -23.6232	  -16.3322	
  -23.6598	-0.000677511	  -23.6296	-0.0006455	  -23.6056	-0.000653532	  -23.6317	-0.000658848	  -23.6317	  -16.4712	
  -23.6668	-0.000683007	   -23.636	-0.000650957	  -23.6148	-0.000659021	  -23.6392	-0.000664328	  -23.6392	  -16.6082	
  -23.6731	-0.000688457	  -23.6404	-0.000656528	  -23.6231	-0.000664525	  -23.6455	-0.000669837	  -23.6455	  -16.7459	
  -23.6788	-0.000693864	  -23.6435	-0.000662213	  -23.6308	-0.000670024	   -23.651	-0.000675367	   -23.651	  -16.8842	
  -23.6837	-0.000699245	  -23.6467	-0.000667724	   -23.637	-0.000675471	  -23.6558	-0.000680813	  -23.6558	  -17.0203	
  -23.6875	-0.00070463	  -23.6502	-0.00067294	  -23.6418	-0.000680865	  -23.6598	-0.000686145	  -23.6598	  -17.1536	
  -23.6903	-0.000709971	  -23.6536	-0.000678121	  -23.6454	-0.000686249	  -23.6631	-0.000691447	  -23.6631	  -17.2862	
  -23.6922	-0.000715181	  -23.6561	-0.000683533	  -23.6481	-0.000691636	  -23.6655	-0.000696783	  -23.6655	  -17.4196	
  -23.6935	-0.000720275	  -23.6574	-0.000689045	  -23.6498	-0.000696977	  -23.6669	-0.000702099	  -23.6669	  -17.5525	
  -23.6941	-0.000725365	  -23.6578	-0.00069434	   -23.651	-0.000702245	  -23.6676	-0.000707317	  -23.6676	  -17.6829	
  -23.6941	-0.000730526	  -23.6577	-0.000699384	  -23.6511	-0.000707471	  -23.6676	-0.00071246	  -23.6676	  -17.8115	
  -23.6934	-0.000735668	  -23.6575	-0.000704473	   -23.651	-0.000712702	  -23.6673	-0.000717614	  -23.6673	  -17.9404	
  -23.6923	-0.000740648	  -23.6571	-0.000709789	    -23.65	-0.000717933	  -23.6665	-0.00072279	  -23.6665	  -18.0697	
  -23.6909	-0.00074549	  -23.6556	-0.000715228	  -23.6481	-0.000723165	  -23.6649	-0.000727961	  -23.6649	   -18.199	
  -23.6885	-0.000750368	   -23.653	-0.000720422	  -23.6452	-0.00072836	  -23.6622	-0.00073305	  -23.6622	  -18.3263	
  -23.6845	-0.000755339	  -23.6495	-0.000725308	  -23.6411	-0.000733465	  -23.6584	-0.000738038	  -23.6584	  -18.4509	
  -23.6789	-0.000760264	  -23.6455	-0.000730258	  -23.6357	-0.000738489	  -23.6534	-0.000743004	  -23.6534	  -18.5751	
  -23.6722	-0.000765021	  -23.6403	-0.000735508	  -23.6294	-0.000743594	  -23.6473	-0.000748041	  -23.6473	   -18.701	
  -23.6648	-0.000769664	  -23.6339	-0.000740838	  -23.6219	-0.000748806	  -23.6402	-0.000753103	  -23.6402	  -18.8276	
  -23.6565	-0.000774355	  -23.6266	-0.000745882	  -23.6136	-0.000753956	  -23.6323	-0.000758064	  -23.6323	  -18.9516	
  -23.6475	-0.000779142	  -23.6184	-0.000750648	   -23.604	-0.000758908	  -23.6233	-0.000762899	  -23.6233	  -19.0725	
  -23.6374	-0.000783901	  -23.6093	-0.000755474	  -23.5933	-0.000763751	  -23.6133	-0.000767709	  -23.6133	  -19.1927	
  -23.6261	-0.000788497	  -23.5994	-0.000760508	  -23.5822	-0.000768691	  -23.6025	-0.000772565	  -23.6025	  -19.3141	
  -23.6135	-0.000793008	  -23.5887	-0.000765508	  -23.5704	-0.000773718	  -23.5909	-0.000777412	  -23.5909	  -19.4353	
  -23.5998	-0.000797587	  -23.5768	-0.000770235	  -23.5578	-0.000778645	  -23.5781	-0.000782156	  -23.5781	  -19.5539	
  -23.5853	-0.00080224	  -23.5643	-0.000774817	  -23.5448	-0.000783359	  -23.5648	-0.000786805	  -23.5648	  -19.6701	
  -23.5697	-0.000806827	  -23.5508	-0.00077953	  -23.5309	-0.000787996	  -23.5505	-0.000791451	  -23.5505	  -19.7863	
  -23.5534	-0.000811288	  -23.5362	-0.000784369	  -23.5161	-0.000792729	  -23.5352	-0.000796129	  -23.5352	  -19.9032	
  -23.5357	-0.000815713	  -23.5202	-0.000789067	  -23.5001	-0.000797521	  -23.5186	-0.000800767	  -23.5186	  -20.0192	
  -23.5178	-0.000820205	  -23.5034	-0.000793545	  -23.4826	-0.000802189	  -23.5012	-0.000805313	  -23.5012	  -20.1328	
  -23.4985	-0.000824735	  -23.4859	-0.000798023	  -23.4637	-0.000806653	  -23.4827	-0.000809803	  -23.4827	  -20.2451	
  -23.4784	-0.000829188	  -23.4677	-0.000802653	  -23.4438	-0.000811089	  -23.4633	-0.00081431	  -23.4633	  -20.3577	
  -23.4578	-0.000833538	  -23.4484	-0.000807288	  -23.4227	-0.000815699	   -23.443	-0.000818842	   -23.443	   -20.471	
  -23.4359	-0.000837882	  -23.4285	-0.000811716	  -23.4005	-0.000820355	  -23.4217	-0.000823318	  -23.4217	  -20.5829	
  -23.4133	-0.000842287	  -23.4081	-0.000815985	  -23.3773	-0.000824835	  -23.3996	-0.000827703	  -23.3996	  -20.6926	
  -23.3899	-0.000846685	  -23.3867	-0.000820333	  -23.3538	-0.000829126	  -23.3768	-0.000832048	  -23.3768	  -20.8012	
  -23.3655	-0.00085099	   -23.364	-0.000824817	  -23.3297	-0.000833429	  -23.3531	-0.000836412	  -23.3531	  -20.9103	
  -23.3399	-0.000855232	    -23.34	-0.000829232	  -23.3047	-0.000837863	  -23.3282	-0.000840776	  -23.3282	  -21.0194	
  -23.3132	-0.0008595	   -23.315	-0.000833439	  -23.2787	-0.000842311	  -23.3023	-0.000845083	  -23.3023	  -21.1271	
  -23.2851	-0.000863803	   -23.289	-0.000837569	  -23.2518	-0.000846584	  -23.2753	-0.000849319	  -23.2753	   -21.233	
  -23.2562	-0.000868066	  -23.2625	-0.00084182	  -23.2239	-0.000850707	  -23.2475	-0.000853531	  -23.2475	  -21.3383	
  -23.2263	-0.000872245	  -23.2354	-0.000846148	  -23.1953	-0.00085485	   -23.219	-0.000857748	   -23.219	  -21.4437	
  -23.1962	-0.000876398	  -23.2073	-0.000850345	   -23.166	-0.000859089	  -23.1898	-0.000861944	  -23.1898	  -21.5486	
  -23.1655	-0.000880584	  -23.1783	-0.000854374	  -23.1352	-0.000863298	  -23.1597	-0.000866085	  -23.1597	  -21.6521	
  -23.1341	-0.000884769	   -23.148	-0.000858397	  -23.1037	-0.00086733	  -23.1286	-0.000870165	  -23.1286	  -21.7541	
  -23.1027	-0.000888883	  -23.1166	-0.0008625	  -23.0716	-0.000871204	  -23.0969	-0.000874196	  -23.0969	  -21.8549	
  -23.0705	-0.000892922	  -23.0837	-0.00086658	  -23.0385	-0.000875133	  -23.0642	-0.000878212	  -23.0642	  -21.9553	
  -23.0376	-0.000896955	  -23.0501	-0.000870507	  -23.0047	-0.0008792	  -23.0308	-0.00088222	  -23.0308	  -22.0555	
  -23.0042	-0.000901015	  -23.0159	-0.000874339	  -22.9702	-0.000883232	  -22.9968	-0.000886195	  -22.9968	  -22.1549	
  -22.9703	-0.000905059	   -22.981	-0.000878223	  -22.9351	-0.00088706	  -22.9621	-0.000890114	  -22.9621	  -22.2529	
  -22.9352	-0.00090905	  -22.9451	-0.000882169	  -22.8994	-0.000890752	  -22.9266	-0.00089399	  -22.9266	  -22.3498	
  -22.8991	-0.000912993	  -22.9085	-0.000886038	   -22.863	-0.000894477	  -22.8902	-0.000897836	  -22.8902	  -22.4459	
   -22.862	-0.000916907	  -22.8711	-0.000889758	  -22.8261	-0.0008983	  -22.8531	-0.000901655	  -22.8531	  -22.5414	
  -22.8239	-0.000920814	   -22.833	-0.000893441	  -22.7879	-0.000902086	   -22.815	-0.000905447	   -22.815	  -22.6362	
  -22.7847	-0.00092472	  -22.7942	-0.000897215	   -22.749	-0.0009057	  -22.7759	-0.000909212	  -22.7759	  -22.7303	
  -22.7447	-0.000928596	  -22.7545	-0.000901007	  -22.7097	-0.000909234	  -22.7363	-0.000912946	  -22.7363	  -22.8236	
  -22.7043	-0.000932432	   -22.714	-0.000904666	  -22.6689	-0.000912846	  -22.6957	-0.000916648	  -22.6957	  -22.9162	
  -22.6631	-0.000936247	  -22.6723	-0.000908197	  -22.6271	-0.000916506	  -22.6542	-0.000920317	  -22.6542	  -23.0079	
  -22.6212	-0.000940044	  -22.6298	-0.000911751	  -22.5845	-0.000920052	  -22.6118	-0.000923949	  -22.6118	  -23.0987	
  -22.5786	-0.000943804	  -22.5864	-0.000915379	  -22.5415	-0.000923463	  -22.5689	-0.000927549	  -22.5689	  -23.1887	
  -22.5351	-0.000947519	  -22.5418	-0.000918955	   -22.498	-0.000926896	  -22.5249	-0.000931123	  -22.5249	  -23.2781	
  -22.4904	-0.000951203	  -22.4966	-0.000922393	  -22.4537	-0.000930438	  -22.4802	-0.000934678	  -22.4802	  -23.3669	
  -22.4449	-0.000954858	  -22.4509	-0.000925802	  -22.4079	-0.000933976	  -22.4346	-0.000938212	  -22.4346	  -23.4553	
  -22.3987	-0.000958467	  -22.4041	-0.000929284	  -22.3615	-0.00093738	  -22.3881	-0.00094171	  -22.3881	  -23.5428	
  -22.3516	-0.000962078	  -22.3565	-0.000932773	  -22.3141	-0.000940683	  -22.3407	-0.000945178	  -22.3407	  -23.6294	
  -22.3033	-0.000965713	  -22.3082	-0.000936133	  -22.2652	-0.000944041	  -22.2922	-0.000948629	  -22.2922	  -23.7157	
  -22.2545	-0.000969279	  -22.2586	-0.000939401	  -22.2155	-0.000947514	  -22.2429	-0.000952064	  -22.2429	  -23.8016	
  -22.2055	-0.000972681	  -22.2085	-0.000942723	  -22.1651	-0.000950922	   -22.193	-0.000955442	   -22.193	  -23.8861	
  -22.1564	-0.000976013	  -22.1574	-0.000946118	  -22.1136	-0.000954129	  -22.1424	-0.000958753	  -22.1424	  -23.9688	
  -22.1064	-0.000979394	  -22.1045	-0.000949462	  -22.0616	-0.000957278	  -22.0909	-0.000962045	  -22.0909	  -24.0511	
   -22.055	-0.00098283	  -22.0509	-0.000952667	  -22.0091	-0.000960591	  -22.0384	-0.000965363	  -22.0384	  -24.1341	
  -22.0021	-0.000986177	  -21.9971	-0.000955807	  -21.9553	-0.000964019	  -21.9848	-0.000968668	  -21.9848	  -24.2167	
  -21.9482	-0.000989398	  -21.9421	-0.000959009	  -21.9004	-0.000967316	  -21.9302	-0.000971907	  -21.9302	  -24.2977	
  -21.8937	-0.000992595	  -21.8862	-0.000962262	  -21.8447	-0.000970415	  -21.8749	-0.000975091	  -21.8749	  -24.3773	
  -21.8389	-0.000995843	  -21.8296	-0.000965446	  -21.7885	-0.000973508	   -21.819	-0.000978266	   -21.819	  -24.4566	
   -21.783	-0.0009991	  -21.7729	-0.000968482	  -21.7317	-0.000976746	  -21.7625	-0.000981443	  -21.7625	  -24.5361	
  -21.7254	-0.00100228	  -21.7164	-0.000971434	  -21.6741	-0.000980025	  -21.7053	-0.000984581	  -21.7053	  -24.6145	
  -21.6671	-0.00100536	  -21.6594	-0.000974436	  -21.6163	-0.000983159	  -21.6476	-0.000987651	  -21.6476	  -24.6913	
  -21.6082	-0.00100842	  -21.6016	-0.00097751	  -21.5573	-0.000986148	   -21.589	-0.000990693	   -21.589	  -24.7673	
  -21.5488	-0.00101156	  -21.5418	-0.000980542	  -21.4975	-0.000989167	  -21.5294	-0.000993757	  -21.5294	  -24.8439	
  -21.4885	-0.0010147	   -21.481	-0.000983455	  -21.4374	-0.000992303	   -21.469	-0.00099682	   -21.469	  -24.9205	
  -21.4276	-0.00101773	  -21.4197	-0.000986318	  -21.3764	-0.000995435	  -21.4079	-0.000999829	  -21.4079	  -24.9957	
  -21.3656	-0.00102067	  -21.3575	-0.000989212	  -21.3151	-0.000998427	  -21.3461	-0.00100277	  -21.3461	  -25.0692	
  -21.3024	-0.00102364	  -21.2946	-0.000992056	  -21.2533	-0.00100132	  -21.2835	-0.00100567	  -21.2835	  -25.1418	
  -21.2383	-0.00102665	  -21.2307	-0.00099486	  -21.1903	-0.00100427	  -21.2198	-0.0010086	  -21.2198	  -25.2149	
  -21.1735	-0.00102956	  -21.1639	-0.000997706	  -21.1266	-0.0010073	  -21.1546	-0.00101152	  -21.1546	  -25.2881	
  -21.1079	-0.00103237	   -21.096	-0.00100052	  -21.0623	-0.00101026	  -21.0888	-0.00101438	  -21.0888	  -25.3596	
  -21.0415	-0.00103518	  -21.0303	-0.00100315	   -20.997	-0.0010131	  -21.0229	-0.00101714	  -21.0229	  -25.4285	
  -20.9737	-0.00103806	  -20.9646	-0.00100564	  -20.9303	-0.00101588	  -20.9562	-0.00101986	  -20.9562	  -25.4965	
  -20.9044	-0.00104089	  -20.8977	-0.00100818	   -20.863	-0.00101873	  -20.8883	-0.0010226	  -20.8883	   -25.565	
  -20.8342	-0.00104359	  -20.8289	-0.00101081	  -20.7947	-0.00102161	  -20.8193	-0.00102533	  -20.8193	  -25.6334	
  -20.7632	-0.00104621	  -20.7591	-0.00101337	  -20.7244	-0.00102439	  -20.7489	-0.00102799	  -20.7489	  -25.6997	
  -20.6916	-0.00104887	  -20.6882	-0.00101578	  -20.6521	-0.00102713	  -20.6773	-0.00103059	  -20.6773	  -25.7649	
  -20.6192	-0.00105158	  -20.6165	-0.00101812	  -20.5779	-0.00102998	  -20.6045	-0.00103323	  -20.6045	  -25.8307	
  -20.5459	-0.00105423	  -20.5443	-0.00102051	  -20.5042	-0.00103283	  -20.5315	-0.00103586	  -20.5315	  -25.8964	
   -20.472	-0.00105674	   -20.472	-0.00102304	  -20.4321	-0.00103549	  -20.4587	-0.00103842	  -20.4587	  -25.9606	
  -20.3977	-0.00105919	  -20.3981	-0.0010256	  -20.3591	-0.00103801	   -20.385	-0.00104093	   -20.385	  -26.0233	
   -20.323	-0.00106169	  -20.3234	-0.00102797	  -20.2846	-0.00104066	  -20.3103	-0.00104344	  -20.3103	   -26.086	
  -20.2477	-0.00106421	  -20.2481	-0.00103015	  -20.2086	-0.00104348	  -20.2348	-0.00104595	  -20.2348	  -26.1486	
  -20.1718	-0.00106665	  -20.1723	-0.00103234	  -20.1314	-0.0010462	  -20.1585	-0.0010484	  -20.1585	  -26.2099	
   -20.095	-0.00106896	  -20.0957	-0.00103466	  -20.0541	-0.00104868	  -20.0816	-0.00105077	  -20.0816	  -26.2692	
  -20.0173	-0.00107127	  -20.0183	-0.00103697	  -19.9766	-0.00105109	  -20.0041	-0.00105311	  -20.0041	  -26.3277	
  -19.9392	-0.00107362	    -19.94	-0.00103909	  -19.8986	-0.00105368	  -19.9259	-0.00105546	  -19.9259	  -26.3865	
  -19.8599	-0.00107594	  -19.8607	-0.00104107	  -19.8197	-0.00105637	  -19.8468	-0.00105779	  -19.8468	  -26.4448	
  -19.7798	-0.00107816	  -19.7807	-0.0010431	  -19.7402	-0.00105885	  -19.7669	-0.00106004	  -19.7669	  -26.5009	
   -19.699	-0.00108029	  -19.6997	-0.00104521	  -19.6597	-0.00106108	  -19.6861	-0.00106219	  -19.6861	  -26.5548	
  -19.6172	-0.00108239	  -19.6177	-0.00104727	  -19.5788	-0.00106335	  -19.6046	-0.00106434	  -19.6046	  -26.6084	
  -19.5351	-0.00108453	  -19.5348	-0.00104918	  -19.4971	-0.00106588	  -19.5223	-0.00106653	  -19.5223	  -26.6631	
  -19.4524	-0.00108669	  -19.4511	-0.00105102	  -19.4146	-0.00106842	  -19.4394	-0.00106871	  -19.4394	  -26.7177	
  -19.3692	-0.00108877	  -19.3668	-0.00105293	  -19.3309	-0.0010707	  -19.3556	-0.0010708	  -19.3556	    -26.77	
  -19.2853	-0.00109073	  -19.2815	-0.0010549	  -19.2462	-0.00107281	   -19.271	-0.00107281	   -19.271	  -26.8203	
  -19.2007	-0.00109262	  -19.1954	-0.00105679	   -19.161	-0.00107504	  -19.1857	-0.00107482	  -19.1857	  -26.8704	
  -19.1153	-0.00109451	  -19.1091	-0.00105855	  -19.0755	-0.00107745	     -19.1	-0.00107684	     -19.1	  -26.9209	
  -19.0294	-0.00109639	  -19.0219	-0.00106029	  -18.9894	-0.00107979	  -19.0135	-0.00107883	  -19.0135	  -26.9706	
  -18.9422	-0.00109825	  -18.9336	-0.00106212	  -18.9025	-0.00108189	  -18.9261	-0.00108075	  -18.9261	  -27.0188	
  -18.8542	-0.00110009	  -18.8448	-0.00106396	  -18.8151	-0.00108389	   -18.838	-0.00108264	   -18.838	  -27.0661	
   -18.766	-0.00110187	  -18.7556	-0.00106573	  -18.7267	-0.00108604	  -18.7494	-0.00108455	  -18.7494	  -27.1136	
  -18.6771	-0.00110361	  -18.6655	-0.0010674	  -18.6373	-0.00108828	    -18.66	-0.00108643	    -18.66	  -27.1608	
  -18.5877	-0.00110531	  -18.5745	-0.00106904	  -18.5468	-0.00109039	  -18.5697	-0.00108824	  -18.5697	  -27.2061	
  -18.4976	-0.00110701	  -18.4828	-0.00107073	  -18.4556	-0.00109228	  -18.4787	-0.00109001	  -18.4787	  -27.2502	
   -18.407	-0.0011087	  -18.3903	-0.00107249	  -18.3632	-0.00109415	  -18.3869	-0.00109178	  -18.3869	  -27.2945	
  -18.3161	-0.00111034	  -18.2972	-0.00107422	  -18.2702	-0.00109617	  -18.2945	-0.00109358	  -18.2945	  -27.3394	
  -18.2249	-0.00111192	  -18.2039	-0.00107586	  -18.1767	-0.0010982	  -18.2018	-0.00109533	  -18.2018	  -27.3832	
   -18.133	-0.00111347	  -18.1098	-0.00107747	  -18.0828	-0.00110005	  -18.1085	 -0.001097	  -18.1085	   -27.425	
  -18.0403	-0.00111502	  -18.0151	-0.00107913	  -17.9882	-0.00110175	  -18.0145	-0.00109863	  -18.0145	  -27.4658	
  -17.9466	-0.00111655	  -17.9202	-0.00108079	  -17.8927	-0.00110349	  -17.9199	-0.00110028	  -17.9199	  -27.5069	
   -17.852	-0.00111804	  -17.8249	-0.00108238	  -17.7963	-0.00110535	  -17.8244	-0.00110192	  -17.8244	  -27.5481	
  -17.7566	-0.00111946	  -17.7288	-0.00108391	  -17.6986	-0.00110718	   -17.728	-0.00110352	   -17.728	  -27.5879	
  -17.6601	-0.00112087	  -17.6323	-0.00108543	  -17.6003	-0.00110885	  -17.6309	-0.00110505	  -17.6309	  -27.6262	
  -17.5627	-0.00112227	  -17.5351	-0.00108696	  -17.5013	-0.0011104	   -17.533	-0.00110655	   -17.533	  -27.6636	
  -17.4645	-0.00112366	  -17.4369	-0.00108852	  -17.4016	-0.00111197	  -17.4343	-0.00110805	  -17.4343	  -27.7013	
  -17.3654	-0.00112499	  -17.3375	-0.00109004	  -17.3012	-0.00111363	  -17.3347	-0.00110955	  -17.3347	  -27.7388	
   -17.265	-0.00112626	  -17.2371	-0.00109148	  -17.1998	-0.00111529	   -17.234	-0.00111101	   -17.234	  -27.7752	
  -17.1637	-0.0011275	  -17.1362	-0.00109284	  -17.0977	-0.00111681	  -17.1326	-0.00111239	  -17.1326	  -27.8096	
  -17.0617	-0.00112871	   -17.035	-0.00109417	   -16.995	-0.00111822	  -17.0306	-0.0011137	  -17.0306	  -27.8426	
  -16.9589	-0.00112988	  -16.9328	-0.00109553	  -16.8919	-0.00111964	  -16.9279	-0.00111502	  -16.9279	  -27.8754	
  -16.8554	-0.00113104	  -16.8294	-0.00109688	  -16.7879	-0.0011211	  -16.8242	-0.00111634	  -16.8242	  -27.9085	
  -16.7515	-0.00113219	  -16.7253	-0.00109814	  -16.6833	-0.00112254	    -16.72	-0.00111762	    -16.72	  -27.9405	
  -16.6466	-0.00113326	  -16.6206	-0.00109934	  -16.5778	-0.00112389	   -16.615	-0.00111883	   -16.615	  -27.9708	
  -16.5412	-0.00113423	   -16.515	-0.00110053	  -16.4722	-0.0011252	  -16.5095	-0.00111999	  -16.5095	  -27.9997	
  -16.4353	-0.00113516	   -16.409	-0.00110173	  -16.3663	-0.00112649	  -16.4035	-0.00112113	  -16.4035	  -28.0281	
  -16.3287	-0.00113611	  -16.3023	-0.00110291	  -16.2598	-0.00112775	  -16.2969	-0.00112226	  -16.2969	  -28.0564	
  -16.2219	-0.00113708	  -16.1947	-0.00110404	  -16.1529	-0.00112894	  -16.1898	-0.00112335	  -16.1898	  -28.0838	
  -16.1145	-0.00113798	  -16.0868	-0.00110509	  -16.0452	-0.00113011	  -16.0821	-0.0011244	  -16.0821	  -28.1099	
  -16.0062	-0.00113878	  -15.9779	-0.0011061	  -15.9367	-0.00113127	  -15.9736	-0.00112538	  -15.9736	  -28.1346	
  -15.8974	-0.00113947	  -15.8682	-0.00110715	  -15.8277	-0.00113238	  -15.8644	-0.00112633	  -15.8644	  -28.1584	
  -15.7874	-0.00114018	  -15.7578	-0.00110826	   -15.718	-0.00113338	  -15.7544	-0.00112728	  -15.7544	  -28.1819	
  -15.6769	-0.00114095	  -15.6467	-0.00110933	  -15.6078	-0.00113433	  -15.6438	-0.0011282	  -15.6438	  -28.2051	
  -15.5654	-0.00114168	  -15.5352	-0.00111025	  -15.4969	-0.00113531	  -15.5325	-0.00112908	  -15.5325	   -28.227	
  -15.4532	-0.00114232	  -15.4232	-0.00111109	  -15.3854	-0.00113631	  -15.4206	-0.00112991	  -15.4206	  -28.2477	
  -15.3403	-0.00114289	  -15.3102	 -0.001112	  -15.2737	-0.00113723	  -15.3081	-0.00113071	  -15.3081	  -28.2676	
  -15.2265	-0.00114348	  -15.1968	-0.00111297	  -15.1617	-0.00113803	   -15.195	-0.00113149	   -15.195	  -28.2873	
  -15.1117	-0.00114405	  -15.0827	-0.0011139	  -15.0499	-0.00113878	  -15.0815	-0.00113224	  -15.0815	  -28.3061	
  -14.9966	-0.00114451	  -14.9685	-0.00111471	  -14.9377	-0.00113956	  -14.9676	-0.00113293	  -14.9676	  -28.3232	
  -14.8808	-0.00114489	  -14.8531	-0.00111546	  -14.8248	-0.00114037	  -14.8529	-0.00113357	  -14.8529	  -28.3393	
  -14.7643	-0.00114527	  -14.7366	-0.00111626	  -14.7113	-0.00114111	  -14.7374	-0.00113421	  -14.7374	  -28.3554	
   -14.647	-0.00114566	  -14.6194	-0.0011171	  -14.5976	-0.00114174	  -14.6213	-0.00113484	  -14.6213	  -28.3709	
  -14.5291	 -0.001146	  -14.5019	-0.00111786	  -14.4834	-0.00114232	  -14.5048	-0.00113539	  -14.5048	  -28.3849	
  -14.4108	-0.00114623	  -14.3833	-0.00111852	  -14.3691	-0.00114293	  -14.3877	-0.00113589	  -14.3877	  -28.3973	
  -14.2918	-0.0011464	  -14.2642	-0.00111919	   -14.254	-0.00114354	    -14.27	-0.00113638	    -14.27	  -28.4095	
  -14.1723	-0.00114661	  -14.1443	-0.00111991	  -14.1382	-0.00114407	  -14.1516	-0.00113686	  -14.1516	  -28.4215	
   -14.052	-0.00114681	  -14.0248	-0.00112053	  -14.0219	-0.00114449	  -14.0329	-0.00113728	  -14.0329	  -28.4319	
  -13.9313	-0.00114689	  -13.9052	-0.00112103	   -13.905	-0.00114489	  -13.9138	-0.00113761	  -13.9138	  -28.4401	
    -13.81	-0.00114688	  -13.7846	-0.00112149	  -13.7877	-0.00114531	  -13.7941	-0.00113789	  -13.7941	  -28.4473	
  -13.6887	-0.00114689	  -13.6626	 -0.001122	  -13.6694	-0.0011457	  -13.6735	-0.0011382	  -13.6735	  -28.4549	
  -13.5669	-0.00114697	  -13.5393	-0.00112254	  -13.5502	 -0.001146	  -13.5521	-0.0011385	  -13.5521	  -28.4626	
  -13.4443	-0.00114702	  -13.4154	-0.00112299	  -13.4302	-0.00114623	    -13.43	-0.00113875	    -13.43	  -28.4687	
  -13.3212	-0.00114695	  -13.2919	-0.00112327	  -13.3099	-0.00114646	  -13.3077	-0.00113889	  -13.3077	  -28.4723	
  -13.1977	-0.00114681	  -13.1684	-0.00112349	   -13.189	-0.00114668	   -13.185	-0.00113899	   -13.185	  -28.4748	
  -13.0735	-0.0011467	  -13.0445	-0.00112377	  -13.0676	-0.00114686	  -13.0619	-0.00113911	  -13.0619	  -28.4777	
  -12.9489	-0.00114663	  -12.9194	-0.00112407	  -12.9458	-0.00114699	   -12.938	-0.00113923	   -12.938	  -28.4808	
  -12.8237	-0.00114652	  -12.7938	-0.00112427	  -12.8239	-0.00114706	  -12.8138	-0.00113928	  -12.8138	  -28.4821	
   -12.698	-0.00114629	  -12.6681	-0.00112433	   -12.702	-0.00114707	  -12.6894	-0.00113923	  -12.6894	  -28.4807	
  -12.5716	-0.00114601	  -12.5423	-0.00112435	  -12.5797	-0.00114704	  -12.5645	-0.00113913	  -12.5645	  -28.4783	
  -12.4448	-0.00114576	  -12.4162	-0.00112443	  -12.4561	-0.00114701	   -12.439	-0.00113907	   -12.439	  -28.4767	
  -12.3175	-0.00114554	  -12.2896	-0.00112454	  -12.3313	-0.00114698	  -12.3128	-0.00113902	  -12.3128	  -28.4754	
  -12.1899	-0.00114524	  -12.1624	-0.00112455	  -12.2052	-0.00114688	  -12.1858	-0.00113889	  -12.1858	  -28.4722	
  -12.0617	-0.00114484	  -12.0345	-0.00112447	  -12.0783	-0.00114673	  -12.0582	-0.00113868	  -12.0582	   -28.467	
  -11.9329	-0.00114442	  -11.9055	-0.00112436	  -11.9508	-0.00114651	  -11.9297	-0.00113843	  -11.9297	  -28.4608	
  -11.8037	-0.00114403	  -11.7762	-0.00112428	  -11.8227	-0.00114622	  -11.8009	-0.00113818	  -11.8009	  -28.4544	
  -11.6739	-0.00114363	  -11.6465	-0.00112421	  -11.6938	-0.00114591	  -11.6714	-0.00113792	  -11.6714	  -28.4479	
  -11.5441	-0.00114314	  -11.5163	-0.00112409	  -11.5643	-0.00114563	  -11.5416	-0.00113762	  -11.5416	  -28.4405	
   -11.414	-0.00114257	  -11.3855	-0.00112388	  -11.4336	-0.00114535	  -11.4111	-0.00113727	  -11.4111	  -28.4317	
  -11.2831	-0.00114201	  -11.2546	-0.00112363	  -11.3021	-0.00114496	  -11.2799	-0.00113687	  -11.2799	  -28.4217	
  -11.1516	-0.00114149	  -11.1231	-0.0011234	  -11.1698	-0.00114448	  -11.1482	-0.00113645	  -11.1482	  -28.4113	
  -11.0195	-0.00114094	   -10.991	-0.00112316	  -11.0371	-0.00114398	  -11.0159	-0.00113603	  -11.0159	  -28.4007	
  -10.8871	-0.00114031	  -10.8588	-0.00112284	  -10.9038	-0.0011435	  -10.8833	-0.00113555	  -10.8833	  -28.3887	
   -10.754	-0.00113958	  -10.7256	-0.00112246	  -10.7701	-0.00114295	  -10.7499	 -0.001135	  -10.7499	  -28.3749	
  -10.6204	-0.00113883	  -10.5918	-0.00112206	  -10.6361	-0.00114233	  -10.6161	-0.00113441	  -10.6161	  -28.3602	
  -10.4862	-0.00113809	  -10.4577	-0.00112167	  -10.5013	-0.00114168	  -10.4817	-0.00113381	  -10.4817	  -28.3453	
  -10.3518	-0.00113735	   -10.323	-0.00112122	  -10.3662	-0.00114103	   -10.347	-0.0011332	   -10.347	    -28.33	
   -10.217	-0.00113659	  -10.1879	-0.00112069	  -10.2305	-0.00114038	  -10.2118	-0.00113255	  -10.2118	  -28.3138	
  -10.0821	-0.00113576	  -10.0525	-0.0011201	  -10.0942	-0.00113968	  -10.0763	-0.00113185	  -10.0763	  -28.2962	
  -9.94686	-0.00113487	  -9.91704	-0.00111951	    -9.958	-0.00113893	  -9.94063	-0.00113111	  -9.94063	  -28.2777	
  -9.81131	-0.00113397	  -9.78129	-0.00111893	  -9.82128	-0.00113816	  -9.80463	-0.00113035	  -9.80463	  -28.2589	
  -9.67493	-0.00113307	  -9.64528	-0.00111829	  -9.68412	-0.00113739	  -9.66811	-0.00112959	  -9.66811	  -28.2396	
  -9.53827	-0.00113216	  -9.50877	-0.00111758	  -9.54709	-0.00113661	  -9.53138	-0.00112878	  -9.53138	  -28.2196	
  -9.40143	-0.0011312	  -9.37209	-0.00111682	  -9.40987	-0.00113578	  -9.39446	-0.00112794	  -9.39446	  -28.1984	
  -9.26407	-0.00113019	  -9.23508	-0.00111609	   -9.2723	-0.00113488	  -9.25715	-0.00112706	  -9.25715	  -28.1764	
   -9.1263	-0.00112916	  -9.09744	-0.00111538	  -9.13469	-0.00113395	  -9.11948	-0.00112617	  -9.11948	  -28.1541	
   -8.9886	-0.00112814	  -8.95951	-0.00111461	  -8.99708	-0.00113305	  -8.98173	-0.00112527	  -8.98173	  -28.1316	
  -8.85023	-0.00112709	  -8.82115	-0.00111374	  -8.85936	-0.00113215	  -8.84358	-0.00112433	  -8.84358	  -28.1082	
  -8.71113	-0.00112598	  -8.68242	-0.00111282	   -8.7217	-0.00113117	  -8.70508	-0.00112332	  -8.70508	  -28.0831	
  -8.57142	-0.00112481	  -8.54327	-0.00111192	  -8.58324	-0.00113008	  -8.56598	-0.00112227	  -8.56598	  -28.0567	
  -8.43186	-0.00112364	  -8.40423	-0.00111102	  -8.44512	-0.00112898	  -8.42707	-0.00112121	  -8.42707	  -28.0303	
  -8.29208	-0.00112246	  -8.26472	-0.00111002	  -8.30619	-0.00112795	  -8.28767	-0.00112014	  -8.28767	  -28.0036	
  -8.15197	-0.00112124	  -8.12505	-0.00110893	  -8.16642	-0.00112692	  -8.14781	-0.00111903	  -8.14781	  -27.9758	
  -8.01142	-0.00111995	  -7.98552	-0.00110781	  -8.02592	-0.00112579	  -8.00762	-0.00111785	  -8.00762	  -27.9463	
  -7.87049	-0.00111863	   -7.8457	-0.00110673	  -7.88494	-0.00112458	  -7.86705	-0.00111664	  -7.86705	  -27.9161	
  -7.72995	-0.00111731	  -7.70578	-0.00110564	   -7.7441	-0.00112338	  -7.72661	-0.00111545	  -7.72661	  -27.8861	
  -7.58891	-0.00111598	  -7.56566	-0.00110448	  -7.60287	-0.00112224	  -7.58581	-0.00111423	  -7.58581	  -27.8559	
  -7.44721	-0.00111457	   -7.4254	-0.00110324	  -7.46174	-0.00112107	  -7.44478	-0.00111296	  -7.44478	   -27.824	
  -7.30498	-0.00111309	  -7.28449	-0.00110196	  -7.32033	-0.00111982	  -7.30327	-0.00111162	  -7.30327	  -27.7906	
  -7.16236	-0.00111158	  -7.14305	-0.00110072	  -7.17879	-0.00111848	   -7.1614	-0.00111026	   -7.1614	  -27.7564	
  -7.01955	-0.00111009	  -7.00093	-0.00109948	  -7.03634	-0.00111712	  -7.01894	-0.0011089	  -7.01894	  -27.7224	
  -6.87655	-0.00110856	  -6.85815	-0.00109819	  -6.89381	-0.00111577	  -6.87617	-0.00110751	  -6.87617	  -27.6877	
  -6.73329	-0.00110695	  -6.71542	-0.00109681	  -6.75089	-0.00111439	   -6.7332	-0.00110605	   -6.7332	  -27.6512	
  -6.58985	-0.00110527	  -6.57224	-0.00109534	  -6.60788	-0.00111295	  -6.58999	-0.00110452	  -6.58999	   -27.613	
  -6.44593	-0.00110357	  -6.42913	-0.00109389	  -6.46467	-0.00111149	  -6.44657	-0.00110298	  -6.44657	  -27.5746	
  -6.30131	-0.00110187	  -6.28577	-0.00109249	  -6.32152	-0.00111004	  -6.30287	-0.00110146	  -6.30287	  -27.5366	
  -6.15648	-0.00110012	  -6.14206	-0.00109106	  -6.17836	-0.00110853	  -6.15897	-0.00109991	  -6.15897	  -27.4976	
  -6.01131	-0.0010983	  -5.99824	-0.00108951	  -6.03569	-0.00110694	  -6.01508	-0.00109825	  -6.01508	  -27.4563	
  -5.86616	-0.00109639	  -5.85387	-0.00108788	  -5.89293	-0.0011053	  -5.87099	-0.00109652	  -5.87099	  -27.4131	
  -5.72114	-0.00109445	  -5.70916	-0.00108626	  -5.74999	-0.00110365	  -5.72676	-0.00109478	  -5.72676	  -27.3696	
   -5.5757	-0.00109255	  -5.56416	-0.00108466	  -5.60654	-0.00110197	  -5.58213	-0.00109306	  -5.58213	  -27.3266	
  -5.43015	-0.00109065	  -5.41861	 -0.001083	  -5.46269	-0.00110024	  -5.43715	-0.0010913	  -5.43715	  -27.2824	
  -5.28482	-0.00108862	  -5.27281	-0.0010812	  -5.31857	-0.00109844	  -5.29207	-0.00108942	  -5.29207	  -27.2355	
  -5.13929	-0.00108644	  -5.12698	-0.00107934	  -5.17418	-0.0010966	  -5.14682	-0.00108746	  -5.14682	  -27.1866	
  -4.99335	-0.00108424	  -4.98072	-0.00107753	  -5.02935	-0.00109475	  -5.00114	-0.00108551	  -5.00114	  -27.1376	
  -4.84717	-0.0010821	  -4.83403	-0.00107577	  -4.88458	-0.00109285	  -4.85526	-0.00108358	  -4.85526	  -27.0894	
  -4.70062	-0.00108001	  -4.68716	-0.00107392	  -4.73979	-0.0010909	  -4.70919	-0.00108161	  -4.70919	  -27.0402	
  -4.55399	-0.00107779	   -4.5402	-0.00107193	  -4.59496	-0.00108889	  -4.56305	-0.00107954	  -4.56305	  -26.9884	
  -4.40742	-0.0010754	  -4.39329	-0.00106991	  -4.45009	-0.00108685	  -4.41694	-0.00107739	  -4.41694	  -26.9347	
  -4.26052	-0.00107299	  -4.24638	-0.00106794	  -4.30475	-0.0010848	  -4.27055	-0.00107524	  -4.27055	  -26.8811	
  -4.11329	-0.00107063	  -4.09952	-0.00106596	  -4.15878	-0.00108272	  -4.12386	-0.0010731	  -4.12386	  -26.8276	
  -3.96552	-0.00106827	  -3.95276	-0.00106385	  -4.01253	-0.00108057	  -3.97694	-0.0010709	  -3.97694	  -26.7724	
  -3.81769	-0.00106571	  -3.80582	-0.00106174	  -3.86631	-0.00107813	  -3.82994	-0.00106853	  -3.82994	  -26.7132	
  -3.66966	-0.00106303	  -3.65874	-0.00105978	  -3.71975	-0.00107561	  -3.68272	-0.00106614	  -3.68272	  -26.6536	
