# User: ACHyster
# File name: C:/ACHYSTER/ACHyster SENS/SHAMS/CoFe2O4-1gl-water-60 Glycerol-Sens-08-03-2023/CoFe2O4-1gl-water-60 Glycerol- 10_100F- 24 kAm -Sens-08-03-20230006#1.txt
# Saved at: mi. mar. 8 13:28:09 2023
# Hyster Loop (3 iterations). Intensity: 24.0 kA/m; Tuned frequency: 79.9 kHz
# Units x axis: (kA/m)
# Units y axis: "Repeats y" & "Average y" (10^(-3)Am^2); "Mass avg y" (Am^2/kg)
# Magnetic mass: 4e-05 g
# Parameter      	Repeat   1	Repeat   2	Repeat   3	Average   	Sigma     
# H_C (kA/m)     	      16.5	      17.7	      17.5	      17.2	       0.5
# M_R (Am^2/kg)  	      13.0	      14.2	      13.8	      13.7	       0.5
# M_max (Am^2/kg)	      13.3	      12.4	      12.3	      12.7	       0.4
# Area (mJ/kg)   	    1156.4	    1271.2	    1222.2	    1216.6	      47.0
# SAR (W/g)      	      92.4	     101.6	      97.7	      97.2	       3.8
#Repeat 1 x	Repeat 1 y	Repeat 2 x	Repeat 2 y	Repeat 3 x	Repeat 3 y	Average x 	Average y 	Mass avg x 	Mass avg y 
  -3.58544	-0.000577529	  -3.54442	-0.00062441	  -3.54856	-0.000604576	  -3.55947	-0.000602172	  -3.55947	  -15.0543	
   -3.4355	-0.000575161	  -3.39421	-0.000622724	  -3.39866	-0.000602864	  -3.40946	-0.00060025	  -3.40946	  -15.0063	
  -3.28509	-0.000572792	  -3.24337	-0.000621063	  -3.24803	-0.000601067	  -3.25883	-0.000598307	  -3.25883	  -14.9577	
  -3.13527	-0.000570497	  -3.09348	-0.000619375	  -3.09776	-0.000599119	  -3.10884	-0.00059633	  -3.10884	  -14.9083	
  -2.98493	-0.00056834	  -2.94341	-0.000617612	  -2.94831	-0.000597019	  -2.95888	-0.000594324	  -2.95888	  -14.8581	
   -2.8346	-0.000566333	  -2.79367	-0.000615737	  -2.79908	-0.000594804	  -2.80911	-0.000592291	  -2.80911	  -14.8073	
  -2.68387	-0.000564448	  -2.64381	-0.000613735	  -2.64923	-0.000592475	  -2.65897	-0.000590219	  -2.65897	  -14.7555	
  -2.53314	-0.000562623	  -2.49317	-0.000611616	  -2.49905	-0.000590109	  -2.50845	-0.000588116	  -2.50845	  -14.7029	
   -2.3824	-0.000560776	  -2.34231	-0.00060941	  -2.34854	-0.000587777	  -2.35775	-0.000585988	  -2.35775	  -14.6497	
  -2.23162	-0.00055883	  -2.19122	-0.000607161	  -2.19719	-0.000585534	  -2.20668	-0.000583841	  -2.20668	   -14.596	
  -2.08078	-0.000556714	  -2.03992	-0.000604916	  -2.04557	-0.000583415	  -2.05542	-0.000581682	  -2.05542	  -14.5421	
  -1.93041	-0.000554402	  -1.88891	-0.000602713	  -1.89369	-0.000581407	  -1.90433	-0.000579507	  -1.90433	  -14.4877	
  -1.77937	-0.000551904	  -1.73764	-0.00060057	  -1.74206	-0.000579476	  -1.75302	-0.000577317	  -1.75302	  -14.4329	
  -1.62877	-0.000549272	   -1.5861	-0.000598487	  -1.59066	-0.000577557	  -1.60184	-0.000575105	  -1.60184	  -14.3776	
  -1.47827	-0.000546584	   -1.4343	-0.000596439	  -1.43891	-0.000575558	  -1.45049	-0.00057286	  -1.45049	  -14.3215	
  -1.32759	-0.000543914	  -1.28224	-0.00059439	  -1.28685	-0.00057342	  -1.29889	-0.000570575	  -1.29889	  -14.2644	
  -1.17724	-0.000541328	  -1.13045	-0.000592292	  -1.13446	-0.000571079	  -1.14738	-0.000568233	  -1.14738	  -14.2058	
  -1.02717	-0.000538862	 -0.978372	-0.000590104	 -0.981246	-0.000568519	 -0.995597	-0.000565828	 -0.995597	  -14.1457	
 -0.877345	-0.000536513	 -0.826525	-0.000587802	   -0.8283	-0.000565774	 -0.844057	-0.000563363	 -0.844057	  -14.0841	
  -0.72719	-0.00053425	 -0.674355	-0.000585381	 -0.675067	-0.000562892	 -0.692204	-0.000560841	 -0.692204	   -14.021	
 -0.577235	-0.000532006	 -0.522923	-0.000582853	 -0.522079	-0.000559961	 -0.540746	-0.000558273	 -0.540746	  -13.9568	
 -0.427439	-0.000529701	  -0.37162	-0.000580251	 -0.368783	-0.000557074	 -0.389281	-0.000555675	 -0.389281	  -13.8919	
 -0.277369	-0.000527271	  -0.22016	-0.000577614	 -0.215843	-0.000554277	 -0.237791	-0.000553054	 -0.237791	  -13.8263	
 -0.126897	-0.000524671	-0.0687959	-0.000574986	-0.0625595	-0.000551635	 -0.086084	-0.000550431	 -0.086084	  -13.7608	
 0.0234454	-0.000521893	 0.0824999	-0.0005724	 0.0905276	-0.000549148	  0.065491	-0.000547814	  0.065491	  -13.6953	
  0.173691	-0.000518969	  0.233748	-0.000569868	  0.243969	-0.000546773	  0.217136	-0.000545203	  0.217136	  -13.6301	
  0.323868	-0.000515966	  0.384975	-0.00056738	  0.397225	-0.000544456	  0.368689	-0.0005426	  0.368689	   -13.565	
  0.474006	-0.000512977	  0.536202	-0.000564914	  0.550325	-0.000542112	  0.520178	-0.000540001	  0.520178	     -13.5	
  0.624133	-0.000510052	  0.687446	-0.000562437	  0.703816	-0.000539659	  0.671798	-0.000537383	  0.671798	  -13.4346	
  0.773749	-0.000507219	  0.838727	-0.000559907	  0.857681	-0.000537037	  0.823385	-0.000534721	  0.823385	   -13.368	
  0.922789	-0.000504473	  0.990061	-0.000557288	   1.01177	-0.0005342	  0.974872	-0.000531987	  0.974872	  -13.2997	
   1.06989	-0.000501767	   1.14146	-0.000554561	   1.16567	-0.000531162	   1.12567	-0.000529163	   1.12567	  -13.2291	
   1.21628	-0.000499037	   1.29242	-0.000551725	   1.31942	-0.000527966	   1.27604	-0.000526243	   1.27604	  -13.1561	
   1.36206	-0.000496223	   1.44351	-0.000548798	   1.47304	-0.000524685	    1.4262	-0.000523236	    1.4262	  -13.0809	
   1.50732	-0.000493281	   1.59475	-0.000545815	   1.62654	-0.000521405	    1.5762	-0.000520167	    1.5762	  -13.0042	
   1.65266	-0.000490188	   1.74614	-0.00054281	   1.77996	-0.000518197	   1.72625	-0.000517065	   1.72625	  -12.9266	
   1.79864	-0.000486949	   1.89717	-0.000539818	   1.93331	-0.000515119	   1.87637	-0.000513962	   1.87637	  -12.8491	
   1.94602	-0.00048357	   2.04906	-0.000536862	   2.08726	-0.000512184	   2.02745	-0.000510872	   2.02745	  -12.7718	
     2.095	-0.000480128	   2.20058	-0.000533945	   2.24113	-0.000509381	    2.1789	-0.000507818	    2.1789	  -12.6955	
   2.24336	-0.000476706	    2.3523	-0.000531058	   2.39492	-0.000506642	    2.3302	-0.000504802	    2.3302	    -12.62	
   2.39329	-0.000473346	   2.50371	-0.000528174	   2.54813	-0.000503891	   2.48171	-0.000501804	   2.48171	  -12.5451	
   2.54364	-0.000470086	   2.65433	-0.000525257	   2.70083	-0.000501059	   2.63293	-0.000498801	   2.63293	    -12.47	
    2.6949	-0.000466949	   2.80476	-0.000522275	   2.85358	-0.000498076	   2.78441	-0.000495767	   2.78441	  -12.3942	
   2.84756	-0.000463897	   2.95451	-0.0005192	   3.00536	-0.000494909	   2.93581	-0.000492669	   2.93581	  -12.3167	
   2.99942	-0.000460885	   3.10368	-0.000516023	   3.15678	-0.000491571	   3.08663	-0.000489493	   3.08663	  -12.2373	
   3.15056	-0.000457859	   3.25297	-0.000512747	   3.30881	-0.000488085	   3.23745	-0.00048623	   3.23745	  -12.1558	
   3.30315	-0.000454738	   3.40281	-0.000509393	   3.46102	-0.000484525	   3.38899	-0.000482885	   3.38899	  -12.0721	
     3.455	-0.000451469	   3.55264	-0.00050599	   3.61341	-0.000480956	   3.54035	-0.000479472	   3.54035	  -11.9868	
   3.60566	-0.000448014	   3.70197	-0.00050257	   3.76547	-0.000477434	   3.69103	-0.000476006	   3.69103	  -11.9001	
   3.75682	-0.000444372	   3.85139	-0.000499158	   3.91723	-0.000474008	   3.84181	-0.000472513	   3.84181	  -11.8128	
   3.90584	-0.000440599	    4.0004	-0.000495768	   4.06822	-0.000470677	   3.99149	-0.000469015	   3.99149	  -11.7254	
   4.05344	-0.000436758	   4.14905	-0.000492399	   4.21904	-0.000467416	   4.14051	-0.000465524	   4.14051	  -11.6381	
   4.20134	-0.000432921	   4.29793	-0.000489036	   4.36972	-0.000464182	   4.28967	-0.000462046	   4.28967	  -11.5512	
   4.34877	-0.000429158	   4.44613	-0.000485652	   4.52017	-0.000460907	   4.43836	-0.000458572	   4.43836	  -11.4643	
     4.495	-0.000425504	   4.59464	-0.000482221	   4.67056	-0.000457541	   4.58673	-0.000455089	   4.58673	  -11.3772	
   4.64332	-0.000421984	   4.74191	-0.000478714	   4.82091	-0.000454055	   4.73538	-0.000451584	   4.73538	  -11.2896	
   4.79096	-0.000418575	   4.88963	-0.000475118	   4.97021	-0.000450449	    4.8836	-0.000448047	    4.8836	  -11.2012	
   4.93643	-0.000415212	   5.03727	-0.00047143	   5.11909	-0.000446732	   5.03093	-0.000444458	   5.03093	  -11.1115	
   5.08259	-0.000411824	   5.18541	-0.000467662	   5.26707	-0.000442912	   5.17836	-0.000440799	   5.17836	    -11.02	
    5.2294	-0.000408335	   5.33297	-0.000463838	   5.41376	-0.000439019	   5.32538	-0.000437064	   5.32538	  -10.9266	
   5.37579	-0.000404691	   5.48057	-0.000459988	    5.5598	-0.000435077	   5.47205	-0.000433252	   5.47205	  -10.8313	
   5.52185	-0.000400861	   5.62718	-0.000456142	   5.70437	-0.000431101	    5.6178	-0.000429368	    5.6178	  -10.7342	
   5.66763	-0.000396853	   5.77449	-0.000452317	   5.84856	-0.000427121	   5.76356	-0.00042543	   5.76356	  -10.6358	
   5.81214	-0.000392714	   5.92195	-0.000448521	   5.99243	-0.000423144	   5.90884	-0.00042146	   5.90884	  -10.5365	
   5.95658	-0.00038851	   6.06905	-0.000444748	   6.13553	-0.000419174	   6.05372	-0.000417477	   6.05372	  -10.4369	
   6.10099	-0.000384315	   6.21639	-0.000440977	    6.2785	-0.000415209	   6.19863	-0.000413501	   6.19863	  -10.3375	
   6.24543	-0.000380192	   6.36398	-0.000437183	   6.42244	-0.000411193	   6.34395	-0.000409523	   6.34395	  -10.2381	
   6.38939	-0.000376174	   6.51129	-0.00043334	   6.56731	-0.000407144	   6.48933	-0.000405553	   6.48933	  -10.1388	
   6.53403	-0.000372266	   6.65735	-0.000429425	   6.71203	-0.000403073	   6.63447	-0.000401588	   6.63447	  -10.0397	
   6.67774	-0.00036843	   6.80256	-0.000425437	   6.85666	-0.000398956	   6.77899	-0.000397608	   6.77899	  -9.94019	
   6.82066	-0.000364607	   6.94779	-0.000421405	   7.00229	-0.000394806	   6.92358	-0.000393606	   6.92358	  -9.84015	
   6.96446	-0.000360733	   7.09363	-0.000417323	   7.14731	-0.000390657	   7.06846	-0.000389571	   7.06846	  -9.73927	
   7.10754	-0.000356746	   7.23953	-0.000413185	   7.29232	-0.000386503	   7.21313	-0.000385478	   7.21313	  -9.63694	
   7.25001	-0.000352608	   7.38552	-0.000409004	   7.43633	-0.000382373	   7.35729	-0.000381328	   7.35729	   -9.5332	
    7.3925	-0.00034831	   7.53059	-0.000404786	   7.58051	-0.000378252	    7.5012	-0.000377116	    7.5012	   -9.4279	
   7.53452	-0.000343879	    7.6759	-0.000400521	   7.72488	-0.000374124	    7.6451	-0.000372841	    7.6451	  -9.32103	
   7.67617	-0.000339361	    7.8199	-0.000396209	   7.86738	-0.000369985	   7.78781	-0.000368518	   7.78781	  -9.21296	
   7.81764	-0.000334815	   7.96365	-0.000391859	   8.00885	-0.000365781	   7.93005	-0.000364152	   7.93005	  -9.10379	
   7.95889	-0.000330299	   8.10735	-0.00038748	   8.15194	-0.00036151	   8.07273	-0.000359763	   8.07273	  -8.99408	
   8.09947	-0.000325855	   8.25106	-0.000383066	   8.29287	-0.000357167	   8.21446	-0.000355362	   8.21446	  -8.88406	
   8.23946	-0.000321497	    8.3948	-0.000378635	   8.43241	-0.000352748	   8.35556	-0.00035096	   8.35556	    -8.774	
   8.37952	-0.000317216	   8.53862	-0.000374214	   8.57283	-0.000348294	   8.49699	-0.000346574	   8.49699	  -8.66436	
   8.51864	-0.000312972	     8.681	-0.000369799	   8.71201	-0.000343818	   8.63722	-0.000342197	   8.63722	  -8.55491	
     8.658	-0.000308722	   8.82314	-0.000365389	   8.85169	-0.000339326	   8.77761	-0.000337812	   8.77761	  -8.44531	
   8.79725	-0.000304411	   8.96499	-0.000360985	    8.9924	-0.000334863	   8.91821	-0.00033342	   8.91821	  -8.33549	
    8.9358	-0.000299997	   9.10727	-0.000356574	   9.13255	-0.000330438	   9.05854	-0.000329003	   9.05854	  -8.22508	
    9.0743	-0.000295457	   9.24895	-0.000352134	    9.2717	-0.000326057	   9.19832	-0.000324549	   9.19832	  -8.11373	
   9.21176	-0.000290789	   9.39013	-0.000347642	   9.41106	-0.000321709	   9.33765	-0.000320047	   9.33765	  -8.00117	
   9.34887	-0.000286021	   9.53195	-0.000343094	   9.55066	-0.000317357	   9.47716	-0.000315491	   9.47716	  -7.88727	
   9.48571	-0.000281197	   9.67336	-0.000338487	   9.68949	-0.000312986	   9.61619	-0.00031089	   9.61619	  -7.77224	
   9.62237	-0.000276362	    9.8134	-0.000333816	   9.82873	-0.000308556	   9.75483	-0.000306245	   9.75483	  -7.65613	
   9.75894	-0.000271564	   9.95328	-0.000329094	   9.96683	-0.000304044	   9.89302	-0.000301568	   9.89302	  -7.53919	
   9.89471	-0.00026683	   10.0928	-0.000324339	   10.1035	-0.000299452	   10.0304	-0.000296874	   10.0304	  -7.42184	
   10.0301	-0.000262171	   10.2318	-0.000319571	   10.2405	-0.000294781	   10.1675	-0.000292174	   10.1675	  -7.30435	
   10.1657	-0.000257574	   10.3699	-0.000314794	   10.3772	-0.00029006	   10.3043	-0.000287476	   10.3043	   -7.1869	
   10.3005	-0.000253004	   10.5077	-0.000310017	   10.5128	-0.00028532	   10.4403	-0.00028278	   10.4403	  -7.06951	
   10.4352	-0.00024842	   10.6447	-0.000305243	   10.6478	-0.000280588	   10.5759	-0.000278084	   10.5759	  -6.95209	
   10.5698	-0.000243775	   10.7812	-0.000300464	    10.783	-0.000275894	   10.7114	-0.000273377	   10.7114	  -6.83443	
    10.704	-0.000239032	   10.9172	-0.000295664	   10.9179	-0.000271244	   10.8464	-0.000268647	   10.8464	  -6.71617	
   10.8379	-0.000234181	   11.0529	-0.00029084	   11.0525	-0.000266635	   10.9811	-0.000263885	   10.9811	  -6.59713	
   10.9715	-0.000229225	    11.188	-0.000285986	   11.1871	-0.000262052	   11.1155	-0.000259087	   11.1155	  -6.47719	
   11.1049	-0.000224191	   11.3229	-0.000281098	   11.3217	-0.000257462	   11.2499	-0.00025425	   11.2499	  -6.35626	
   11.2378	-0.000219116	   11.4573	-0.000276174	   11.4568	-0.000252838	    11.384	-0.000249376	    11.384	   -6.2344	
   11.3697	-0.000214042	   11.5912	-0.000271217	   11.5915	-0.000248155	   11.5175	-0.000244471	   11.5175	  -6.11178	
   11.5012	-0.000209005	   11.7243	-0.000266234	   11.7258	-0.000243401	   11.6504	-0.000239547	   11.6504	  -5.98867	
   11.6326	-0.000204025	   11.8566	-0.000261233	   11.8598	-0.000238581	    11.783	-0.000234613	    11.783	  -5.86532	
   11.7639	-0.000199101	   11.9878	-0.000256221	   11.9937	-0.000233702	   11.9151	-0.000229675	   11.9151	  -5.74186	
   11.8947	-0.000194217	   12.1187	-0.000251204	   12.1275	-0.000228787	    12.047	-0.000224736	    12.047	  -5.61839	
   12.0247	-0.000189337	   12.2489	-0.000246178	   12.2601	-0.000223861	   12.1779	-0.000219792	   12.1779	   -5.4948	
    12.154	-0.000184433	   12.3785	-0.000241135	   12.3925	-0.000218928	   12.3083	-0.000214832	   12.3083	   -5.3708	
   12.2832	-0.00017946	   12.5081	-0.00023607	   12.5235	-0.000214075	   12.4383	-0.000209868	   12.4383	   -5.2467	
   12.4119	-0.000174417	   12.6373	-0.000230984	    12.654	-0.00020928	   12.5677	-0.000204893	   12.5677	  -5.12234	
   12.5402	-0.000169311	   12.7667	-0.000225881	   12.7841	-0.000204534	    12.697	-0.000199909	    12.697	  -4.99772	
   12.6678	-0.00016412	   12.8948	-0.000220764	   12.9139	-0.000199852	   12.8255	-0.000194912	   12.8255	   -4.8728	
   12.7942	-0.000158901	   13.0223	-0.000215643	   13.0429	-0.000195136	   12.9531	-0.000189893	   12.9531	  -4.74733	
   12.9207	-0.000153666	   13.1489	-0.000210521	   13.1715	-0.00019035	   13.0804	-0.000184846	   13.0804	  -4.62114	
    13.047	-0.000148423	   13.2747	-0.000205392	   13.2993	-0.000185455	    13.207	-0.000179757	    13.207	  -4.49392	
   13.1725	-0.000143186	   13.4003	-0.000200252	   13.4258	-0.000180403	   13.3329	-0.000174614	   13.3329	  -4.36534	
   13.2969	-0.000137949	   13.5255	-0.000195094	   13.5518	-0.000175223	   13.4581	-0.000169422	   13.4581	  -4.23555	
    13.421	-0.000132721	   13.6499	-0.000189912	   13.6773	-0.000169928	   13.5827	-0.000164187	   13.5827	  -4.10467	
   13.5449	-0.000127504	   13.7741	-0.000184721	   13.8026	-0.000164606	   13.7072	-0.000158944	   13.7072	  -3.97359	
   13.6677	-0.00012229	   13.8983	-0.000179493	   13.9271	-0.000159365	    13.831	-0.000153716	    13.831	  -3.84291	
   13.7905	-0.000117116	    14.022	-0.000174249	   14.0517	-0.000154251	   13.9548	-0.000148539	   13.9548	  -3.71346	
   13.9136	-0.000111979	    14.145	-0.000168993	   14.1753	-0.000149324	    14.078	-0.000143432	    14.078	   -3.5858	
   14.0357	-0.00010687	   14.2675	-0.000163698	   14.2985	-0.000144603	   14.2006	-0.00013839	   14.2006	  -3.45976	
   14.1573	-0.000101789	   14.3896	-0.000158402	   14.4205	-0.00014004	   14.3225	-0.00013341	   14.3225	  -3.33526	
   14.2785	-9.67082e-05	   14.5113	-0.000153094	   14.5427	-0.000135563	   14.4442	-0.000128455	   14.4442	  -3.21137	
      14.4	-9.16343e-05	   14.6329	-0.000147747	   14.6646	-0.000131046	   14.5658	-0.000123476	   14.5658	  -3.08689	
   14.5204	-8.65361e-05	   14.7533	-0.000142369	   14.7853	-0.000126421	   14.6863	-0.000118442	   14.6863	  -2.96105	
   14.6403	-8.13823e-05	   14.8724	-0.000136946	   14.9055	-0.000121622	   14.8061	-0.000113317	   14.8061	  -2.83292	
   14.7599	-7.6184e-05	   14.9902	-0.000131483	   15.0245	-0.000116604	   14.9249	-0.00010809	   14.9249	  -2.70225	
   14.8783	-7.09335e-05	   15.1077	-0.000125986	   15.1424	-0.000111405	   15.0428	-0.000102775	   15.0428	  -2.56937	
   14.9964	-6.56379e-05	   15.2248	-0.000120475	   15.2595	-0.000106085	   15.1602	-9.73994e-05	   15.1602	  -2.43498	
   15.1136	-6.03243e-05	   15.3419	-0.000114989	   15.3759	-0.000100729	   15.2771	-9.20141e-05	   15.2771	  -2.30035	
   15.2298	-5.50066e-05	   15.4575	-0.000109541	   15.4918	-9.54402e-05	    15.393	-8.66626e-05	    15.393	  -2.16656	
    15.345	-4.97101e-05	   15.5723	-0.000104149	   15.6068	-9.02823e-05	    15.508	-8.13804e-05	    15.508	  -2.03451	
   15.4596	-4.44598e-05	    15.686	-9.88259e-05	   15.7213	-8.53077e-05	   15.6223	-7.61978e-05	   15.6223	  -1.90495	
   15.5742	-3.92769e-05	      15.8	-9.35551e-05	   15.8347	-8.05068e-05	   15.7363	-7.1113e-05	   15.7363	  -1.77782	
    15.688	-3.41877e-05	   15.9132	-8.83145e-05	   15.9475	-7.58283e-05	   15.8496	-6.61102e-05	   15.8496	  -1.65275	
   15.8007	-2.9184e-05	   16.0261	-8.30647e-05	   16.0598	-7.12075e-05	   15.9622	-6.11521e-05	   15.9622	   -1.5288	
   15.9125	-2.42369e-05	   16.1376	-7.77774e-05	   16.1718	-6.65514e-05	    16.074	-5.61886e-05	    16.074	  -1.40471	
   16.0231	-1.93088e-05	   16.2495	-7.24357e-05	   16.2831	-6.17762e-05	   16.1852	-5.11736e-05	   16.1852	  -1.27934	
   16.1321	-1.4349e-05	    16.361	-6.70245e-05	   16.3939	-5.68329e-05	   16.2957	-4.60688e-05	   16.2957	  -1.15172	
     16.24	-9.31368e-06	   16.4717	-6.15496e-05	   16.5039	-5.17086e-05	   16.4052	-4.08573e-05	   16.4052	  -1.02143	
   16.3468	-4.18317e-06	   16.5817	-5.60406e-05	   16.6138	-4.64417e-05	   16.5141	-3.55551e-05	   16.5141	 -0.888879	
    16.453	1.05065e-06	   16.6914	-5.05289e-05	   16.7233	-4.10903e-05	   16.6226	-3.01895e-05	   16.6226	 -0.754738	
   16.5576	6.36561e-06	   16.8004	-4.50561e-05	   16.8321	-3.57345e-05	   16.7301	-2.48083e-05	   16.7301	 -0.620208	
   16.6622	1.17041e-05	   16.9088	-3.96475e-05	   16.9402	-3.04589e-05	   16.8371	-1.94674e-05	   16.8371	 -0.486686	
   16.7673	1.70214e-05	   17.0169	-3.43336e-05	    17.048	-2.5318e-05	    16.944	-1.42101e-05	    16.944	 -0.355252	
    16.872	2.22321e-05	   17.1243	-2.91369e-05	   17.1551	-2.03429e-05	   17.0505	-9.08257e-06	   17.0505	 -0.227064	
   16.9771	 2.728e-05	   17.2303	-2.40311e-05	   17.2618	-1.55222e-05	   17.1564	-4.09109e-06	   17.1564	 -0.102277	
   17.0826	3.21635e-05	   17.3357	-1.89654e-05	   17.3672	-1.08011e-05	   17.2618	7.99004e-07	   17.2618	 0.0199751	
   17.1882	3.69173e-05	   17.4401	-1.38868e-05	   17.4721	-6.1012e-06	   17.3668	5.64309e-06	   17.3668	  0.141077	
    17.294	4.16101e-05	   17.5428	-8.73565e-06	   17.5757	-1.33003e-06	   17.4709	1.05148e-05	   17.4709	  0.262871	
   17.3982	4.6316e-05	   17.6441	-3.46289e-06	   17.6789	3.55681e-06	   17.5737	 1.547e-05	   17.5737	  0.386749	
   17.5015	5.10964e-05	   17.7437	1.94318e-06	   17.7817	8.58511e-06	   17.6757	2.05416e-05	   17.6757	  0.513539	
   17.6042	 5.602e-05	   17.8426	7.45701e-06	    17.884	1.3746e-05	   17.7769	2.5741e-05	   17.7769	  0.643525	
    17.706	6.10866e-05	   17.9404	1.30272e-05	   17.9858	 1.897e-05	   17.8774	3.10279e-05	   17.8774	  0.775698	
   17.8061	6.6274e-05	   18.0369	1.85945e-05	    18.087	2.41885e-05	   17.9767	3.63524e-05	   17.9767	  0.908809	
   17.9059	7.15441e-05	   18.1345	2.41228e-05	   18.1873	2.9334e-05	   18.0759	4.1667e-05	   18.0759	   1.04168	
   18.0057	7.68008e-05	   18.2329	2.95319e-05	   18.2873	3.43515e-05	   18.1753	4.68947e-05	   18.1753	   1.17237	
   18.1034	8.19672e-05	    18.331	3.47748e-05	   18.3864	3.92221e-05	   18.2736	5.1988e-05	   18.2736	    1.2997	
   18.2005	8.6987e-05	   18.4291	3.9867e-05	   18.4842	4.39459e-05	   18.3712	5.69333e-05	   18.3712	   1.42333	
    18.297	9.1824e-05	   18.5279	4.48377e-05	    18.581	4.85831e-05	   18.4686	6.17483e-05	   18.4686	   1.54371	
   18.3924	9.64952e-05	   18.6265	4.97145e-05	   18.6772	5.32219e-05	   18.5654	6.64772e-05	   18.5654	   1.66193	
   18.4886	0.000101032	   18.7252	5.45754e-05	   18.7729	5.79183e-05	   18.6622	7.11754e-05	   18.6622	   1.77938	
   18.5845	0.000105523	   18.8219	5.94616e-05	   18.8679	6.27323e-05	   18.7581	7.59056e-05	   18.7581	   1.89764	
   18.6789	0.000110044	   18.9187	6.44334e-05	    18.962	6.76991e-05	   18.8532	8.07253e-05	   18.8532	   2.01813	
   18.7738	0.000114664	   19.0153	6.95205e-05	   19.0559	7.28058e-05	   18.9483	8.56633e-05	   18.9483	   2.14158	
   18.8681	0.000119441	   19.1096	7.47045e-05	   19.1483	7.80037e-05	    19.042	9.07163e-05	    19.042	   2.26791	
   18.9618	0.000124392	   19.2032	7.99779e-05	   19.2399	8.32212e-05	   19.1349	9.58637e-05	   19.1349	   2.39659	
    19.055	0.000129489	   19.2962	8.52996e-05	   19.3312	8.83925e-05	   19.2275	0.00010106	   19.2275	   2.52651	
   19.1474	0.000134678	    19.386	9.05939e-05	   19.4218	9.34592e-05	   19.3184	0.000106244	   19.3184	    2.6561	
   19.2388	0.000139865	   19.4734	9.58125e-05	   19.5121	9.83761e-05	   19.4081	0.000111351	   19.4081	   2.78378	
   19.3295	0.000144977	   19.5621	 0.0001009	   19.6012	0.000103147	   19.4976	0.000116341	   19.4976	   2.90854	
   19.4198	0.000149946	    19.649	0.000105846	     19.69	0.000107761	   19.5863	0.000121185	   19.5863	   3.02962	
   19.5099	0.000154739	   19.7346	0.000110671	   19.7777	0.000112299	    19.674	0.000125903	    19.674	   3.14758	
   19.5985	0.00015937	   19.8206	0.000115398	   19.8641	0.000116856	   19.7611	0.000130541	   19.7611	   3.26353	
   19.6864	0.000163891	   19.9053	0.000120074	   19.9494	0.000121486	    19.847	0.00013515	    19.847	   3.37876	
   19.7729	0.000168365	    19.989	0.000124763	   20.0346	0.000126249	   19.9322	0.000139792	   19.9322	    3.4948	
   19.8574	0.00017288	    20.073	0.000129506	   20.1194	0.000131191	   20.0166	0.000144526	   20.0166	   3.61315	
   19.9412	0.00017751	   20.1566	0.000134341	    20.203	0.000136292	   20.1003	0.000149381	   20.1003	   3.73453	
   20.0236	0.000182287	   20.2384	0.000139264	   20.2853	0.000141503	   20.1824	0.000154351	   20.1824	   3.85878	
    20.105	0.000187222	   20.3194	0.000144262	   20.3676	0.000146734	    20.264	0.000159406	    20.264	   3.98515	
   20.1857	0.000192278	   20.3993	0.000149298	   20.4498	0.000151903	   20.3449	0.000164493	   20.3449	   4.11233	
    20.265	0.00019739	    20.477	0.000154318	   20.5298	0.000156952	   20.4239	0.000169553	   20.4239	   4.23883	
   20.3441	0.00020249	   20.5541	0.00015927	   20.6095	0.00016182	   20.5026	0.000174527	   20.5026	   4.36316	
   20.4225	0.000207499	   20.6313	0.000164119	   20.6888	0.000166476	   20.5809	0.000179365	   20.5809	   4.48412	
   20.4998	0.000212364	   20.7073	0.000168845	   20.7671	0.000170949	   20.6581	0.000184053	   20.6581	   4.60132	
   20.5771	0.000217082	   20.7823	0.00017346	   20.8447	0.000175306	   20.7347	0.000188616	   20.7347	   4.71539	
    20.653	0.000221652	   20.8568	0.00017799	   20.9214	0.000179661	   20.8104	0.000193101	   20.8104	   4.82752	
   20.7278	0.00022612	   20.9301	0.000182482	   20.9976	0.000184031	   20.8852	0.000197544	   20.8852	   4.93861	
   20.8015	0.000230556	   21.0025	0.000186988	    21.073	0.000188536	    20.959	0.000202027	    20.959	   5.05067	
   20.8749	0.000235028	   21.0744	0.000191548	   21.1479	0.000193209	   21.0324	0.000206595	   21.0324	   5.16487	
   20.9477	0.000239599	   21.1454	0.000196187	   21.2227	0.000197975	   21.1053	0.000211254	   21.1053	   5.28135	
   21.0194	0.000244301	   21.2155	0.000200907	   21.2982	0.000202811	   21.1777	0.000216006	   21.1777	   5.40016	
   21.0901	0.000249129	   21.2851	0.000205685	   21.3736	0.000207625	   21.2496	0.000220813	   21.2496	   5.52033	
   21.1604	0.000254057	   21.3539	0.00021048	    21.447	0.000212333	   21.3205	0.000225623	   21.3205	   5.64058	
     21.23	0.000259013	   21.4219	0.000215243	    21.522	0.000216892	   21.3913	0.000230383	   21.3913	   5.75956	
   21.2983	0.000263931	   21.4894	0.000219934	   21.5967	0.000221248	   21.4615	0.000235038	   21.4615	   5.87594	
    21.366	0.000268746	   21.5562	0.000224527	   21.6667	0.000225477	   21.5296	0.000239583	   21.5296	   5.98958	
   21.4332	0.000273412	   21.6215	0.000229021	   21.7352	0.000229635	   21.5966	0.000244023	   21.5966	   6.10057	
   21.5004	0.00027792	   21.6863	0.00023343	   21.8029	0.000233785	   21.6632	0.000248378	   21.6632	   6.20946	
   21.5671	0.00028229	   21.7505	0.000237785	   21.8658	0.000238035	   21.7278	0.000252703	   21.7278	   6.31759	
   21.6331	0.000286577	   21.8144	0.000242123	   21.9271	0.000242441	   21.7916	0.000257047	   21.7916	   6.42617	
   21.6977	0.000290843	   21.8779	0.000246483	   21.9874	0.00024702	   21.8543	0.000261449	   21.8543	   6.53621	
   21.7619	0.000295146	   21.9413	0.000250889	   22.0454	0.000251748	   21.9162	0.000265928	   21.9162	    6.6482	
   21.8254	0.000299538	   22.0033	0.000255351	   22.1022	0.000256529	    21.977	0.000270473	    21.977	   6.76182	
   21.8877	0.000304039	   22.0649	0.000259857	   22.1593	0.000261302	   22.0373	0.000275066	   22.0373	   6.87665	
    21.949	0.000308634	    22.126	0.000264384	   22.2169	0.000265949	   22.0973	0.000279655	   22.0973	   6.99138	
   22.0093	0.000313287	   22.1863	0.000268901	   22.2734	0.000270401	   22.1563	0.000284196	   22.1563	    7.1049	
   22.0689	0.000317936	   22.2452	0.000273373	   22.3297	0.000274646	   22.2146	0.000288652	   22.2146	   7.21629	
   22.1283	0.000322527	   22.3027	0.000277775	   22.3855	0.000278688	   22.2722	0.000292997	   22.2722	   7.32491	
   22.1867	0.000327007	   22.3596	0.00028209	   22.4407	0.000282616	    22.329	0.000297238	    22.329	   7.43095	
   22.2441	0.000331349	   22.4154	0.00028632	   22.4957	0.000286516	   22.3851	0.000301395	   22.3851	   7.53487	
   22.3014	0.000335549	   22.4699	0.000290476	   22.5493	0.000290458	   22.4402	0.000305494	   22.4402	   7.63736	
   22.3574	0.000339632	   22.5236	0.000294585	   22.6019	0.000294536	   22.4943	0.000309584	   22.4943	   7.73961	
   22.4125	0.000343645	   22.5759	0.000298676	   22.6534	0.000298764	   22.5472	0.000313695	   22.5472	   7.84237	
   22.4671	0.000347645	   22.6271	0.000302782	   22.7027	0.000303122	    22.599	0.00031785	    22.599	   7.94624	
   22.5205	0.000351686	   22.6778	0.00030692	   22.7508	0.000307584	   22.6497	0.000322063	   22.6497	   8.05158	
   22.5728	 0.0003558	   22.7278	0.000311098	   22.7983	0.000312063	   22.6996	0.00032632	   22.6996	   8.15801	
   22.6242	0.000359993	   22.7776	0.000315307	   22.8455	0.000316484	   22.7491	0.000330595	   22.7491	   8.26486	
   22.6737	0.000364253	   22.8269	0.000319526	   22.8913	0.000320779	   22.7973	0.000334853	   22.7973	   8.37131	
   22.7229	0.000368546	   22.8747	0.000323724	   22.9367	0.000324908	   22.8448	0.00033906	   22.8448	   8.47649	
    22.771	0.000372817	   22.9214	0.000327869	   22.9816	0.000328885	   22.8913	0.00034319	   22.8913	   8.57976	
   22.8179	0.00037701	    22.967	0.000331943	   23.0262	0.00033273	    22.937	0.000347227	    22.937	   8.68068	
   22.8631	0.000381082	   23.0109	0.000335934	     23.07	0.000336495	   22.9813	0.000351171	   22.9813	   8.77927	
   22.9076	0.000385014	   23.0545	0.000339845	   23.1135	0.000340265	   23.0252	0.000355042	   23.0252	   8.87604	
   22.9509	0.000388814	   23.0974	0.000343694	   23.1561	0.00034409	   23.0681	0.000358866	   23.0681	   8.97164	
   22.9934	0.000392512	   23.1393	0.000347507	    23.197	0.000348012	   23.1099	0.000362677	   23.1099	   9.06693	
    23.035	0.000396159	   23.1803	0.00035132	   23.2375	0.000352055	   23.1509	0.000366511	   23.1509	   9.16278	
   23.0751	0.000399805	   23.2202	0.000355156	   23.2768	0.000356179	   23.1907	0.00037038	   23.1907	    9.2595	
   23.1144	0.000403498	   23.2596	0.000359025	    23.315	0.000360338	   23.2296	0.000374287	   23.2296	   9.35717	
   23.1527	0.000407265	   23.2982	0.000362932	   23.3519	0.000364463	   23.2676	0.00037822	   23.2676	   9.45549	
   23.1905	0.000411103	   23.3356	0.000366883	   23.3877	0.000368484	   23.3046	0.000382157	   23.3046	   9.55392	
   23.2267	0.000414991	   23.3722	0.000370827	   23.4226	0.000372351	   23.3405	0.000386056	   23.3405	   9.65141	
   23.2622	0.000418883	    23.408	0.000374756	   23.4569	0.00037605	   23.3757	0.000389896	   23.3757	   9.74741	
   23.2966	0.00042273	    23.443	0.000378627	   23.4902	0.000379593	   23.4099	0.00039365	   23.4099	   9.84125	
   23.3297	0.000426493	   23.4776	0.000382363	   23.5227	0.00038304	   23.4433	0.000397299	   23.4433	   9.93247	
   23.3622	0.000430139	   23.5106	0.00038598	   23.5543	0.000386452	   23.4757	0.000400857	   23.4757	   10.0214	
   23.3933	0.000433662	   23.5428	0.000389494	   23.5844	0.000389898	   23.5068	0.000404351	   23.5068	   10.1088	
   23.4234	0.000437076	   23.5741	0.000392928	   23.6139	0.00039343	   23.5371	0.000407811	   23.5371	   10.1953	
   23.4521	0.00044041	    23.605	0.000396344	   23.6423	0.00039707	   23.5665	0.000411274	   23.5665	   10.2819	
   23.4801	0.000443708	   23.6342	0.000399777	   23.6703	0.000400816	   23.5949	0.000414767	   23.5949	   10.3692	
   23.5073	0.00044701	   23.6624	0.000403286	   23.6973	0.000404621	   23.6223	0.000418306	   23.6223	   10.4576	
   23.5337	0.000450348	     23.69	0.000406902	   23.7243	0.000408425	   23.6493	0.000421892	   23.6493	   10.5473	
   23.5588	0.00045374	    23.717	0.000410611	   23.7496	0.000412165	   23.6751	0.000425505	   23.6751	   10.6376	
    23.583	0.00045718	   23.7434	0.000414403	   23.7738	0.000415786	   23.7001	0.000429123	   23.7001	   10.7281	
    23.607	0.000460647	   23.7686	0.000418206	   23.7965	0.00041926	    23.724	0.000432704	    23.724	   10.8176	
   23.6297	0.000464104	   23.7932	0.000421946	    23.818	0.000422587	    23.747	0.000436212	    23.747	   10.9053	
   23.6515	0.000467511	   23.8171	0.000425553	   23.8384	0.000425793	    23.769	0.000439619	    23.769	   10.9905	
   23.6725	0.000470834	   23.8398	0.00042896	   23.8579	0.000428927	   23.7901	0.000442907	   23.7901	   11.0727	
   23.6927	0.00047405	   23.8613	0.000432197	    23.877	0.000432046	   23.8103	0.000446098	   23.8103	   11.1524	
   23.7125	0.000477156	   23.8816	0.000435252	   23.8945	0.00043521	   23.8295	0.000449206	   23.8295	   11.2302	
   23.7314	0.000480164	   23.9017	0.000438183	   23.9116	0.000438454	   23.8483	0.000452267	   23.8483	   11.3067	
   23.7495	0.000483112	   23.9212	0.000441106	   23.9278	0.000441784	   23.8662	0.000455334	   23.8662	   11.3834	
   23.7663	0.000486008	   23.9393	0.000444085	   23.9429	0.00044519	   23.8828	0.000458428	   23.8828	   11.4607	
   23.7833	0.000488894	   23.9562	0.000447193	   23.9576	0.000448632	    23.899	0.000461573	    23.899	   11.5393	
   23.7989	0.000491802	    23.971	0.000450474	   23.9709	0.000452058	   23.9136	0.000464778	   23.9136	   11.6195	
   23.8137	0.000494726	   23.9852	0.000453903	   23.9839	0.000455416	   23.9276	0.000468015	   23.9276	   11.7004	
   23.8271	0.000497693	   23.9979	0.000457446	    23.996	0.000458658	   23.9403	0.000471266	   23.9403	   11.7816	
   23.8398	0.000500694	   24.0097	0.000460997	   24.0078	0.000461767	   23.9524	0.000474486	   23.9524	   11.8621	
   23.8517	0.000503706	   24.0196	0.000464463	   24.0188	0.000464749	   23.9634	0.000477639	   23.9634	    11.941	
   23.8624	0.000506714	   24.0286	0.000467779	   24.0284	0.000467633	   23.9732	0.000480709	   23.9732	   12.0177	
   23.8725	0.000509681	   24.0364	0.000470883	   24.0372	0.000470469	    23.982	0.000483678	    23.982	   12.0919	
   23.8814	0.00051259	   24.0431	0.00047378	   24.0447	0.000473309	   23.9897	0.00048656	   23.9897	    12.164	
   23.8898	0.000515409	   24.0486	0.000476505	   24.0506	0.000476205	   23.9963	0.000489373	   23.9963	   12.2343	
   23.8971	0.000518112	    24.053	0.000479128	    24.056	0.000479185	    24.002	0.000492142	    24.002	   12.3035	
   23.9039	0.000520714	   24.0566	0.000481749	   24.0604	0.000482249	   24.0069	0.000494904	   24.0069	   12.3726	
   23.9097	0.000523226	   24.0592	0.00048444	   24.0633	0.000485372	   24.0107	0.000497679	   24.0107	    12.442	
   23.9146	0.000525662	   24.0604	0.00048727	   24.0659	0.00048851	   24.0136	0.000500481	   24.0136	    12.512	
   23.9187	0.000528096	   24.0609	0.000490275	   24.0672	0.00049161	   24.0156	0.000503327	   24.0156	   12.5832	
   23.9208	0.000530549	   24.0604	0.000493422	   24.0677	0.000494628	   24.0163	 0.0005062	   24.0163	    12.655	
   23.9229	0.000533041	   24.0598	0.000496661	   24.0666	0.000497527	   24.0164	0.000509076	   24.0164	   12.7269	
   23.9237	0.000535601	   24.0581	0.000499911	   24.0645	0.000500294	   24.0154	0.000511936	   24.0154	   12.7984	
   23.9229	0.000538196	   24.0554	0.000503091	   24.0614	0.000502946	   24.0132	0.000514744	   24.0132	   12.8686	
   23.9207	0.000540802	   24.0517	0.000506134	   24.0569	0.000505517	   24.0098	0.000517484	   24.0098	   12.9371	
   23.9171	0.000543376	   24.0478	0.000508994	   24.0512	0.000508054	   24.0054	0.000520141	   24.0054	   13.0035	
   23.9122	0.000545862	    24.042	0.000511679	   24.0448	0.000510601	   23.9997	0.000522714	   23.9997	   13.0679	
   23.9063	0.000548247	   24.0357	0.00051429	   24.0375	0.000513194	   23.9931	0.000525244	   23.9931	   13.1311	
   23.8993	0.000550496	   24.0281	0.000516862	   24.0294	0.000515854	   23.9856	0.000527737	   23.9856	   13.1934	
   23.8915	0.000552633	   24.0201	0.00051944	   24.0204	0.000518575	   23.9773	0.000530216	   23.9773	   13.2554	
   23.8823	0.00055471	   24.0112	0.000522087	   24.0107	0.000521337	   23.9681	0.000532711	   23.9681	   13.3178	
    23.873	0.000556766	   24.0015	0.000524826	   24.0003	0.000524105	   23.9583	0.000535232	   23.9583	   13.3808	
   23.8631	0.000558864	   23.9911	0.000527612	   23.9889	0.000526834	   23.9477	0.00053777	   23.9477	   13.4442	
   23.8527	0.000561048	   23.9796	0.000530417	   23.9769	0.000529485	   23.9364	0.000540317	   23.9364	   13.5079	
   23.8412	0.000563333	   23.9671	0.000533203	   23.9636	0.000532035	    23.924	0.000542857	    23.924	   13.5714	
   23.8289	0.00056571	   23.9532	0.000535938	   23.9495	0.000534477	   23.9106	0.000545375	   23.9106	   13.6344	
    23.816	0.00056813	   23.9379	0.000538583	   23.9348	0.000536824	   23.8962	0.000547846	   23.8962	   13.6961	
   23.8019	0.000570551	   23.9214	0.000541119	   23.9195	0.000539105	    23.881	0.000550258	    23.881	   13.7565	
   23.7862	0.000572909	   23.9041	0.000543578	   23.9033	0.000541353	   23.8645	0.000552614	   23.8645	   13.8153	
   23.7692	0.000575149	   23.8854	0.000546008	   23.8852	0.000543607	   23.8466	0.000554922	   23.8466	    13.873	
   23.7514	0.00057725	   23.8661	0.000548434	   23.8671	0.000545892	   23.8282	0.000557192	   23.8282	   13.9298	
   23.7331	0.000579206	   23.8458	0.000550902	   23.8484	0.000548221	   23.8091	0.000559443	   23.8091	   13.9861	
   23.7144	0.000581047	   23.8241	0.00055345	   23.8292	0.00055059	   23.7892	0.000561696	   23.7892	   14.0424	
   23.6947	0.000582821	   23.8023	0.000556078	   23.8097	0.000552983	   23.7689	0.000563961	   23.7689	    14.099	
   23.6747	0.000584581	   23.7793	0.000558764	   23.7893	0.000555371	   23.7478	0.000566239	   23.7478	    14.156	
   23.6524	0.000586391	   23.7558	0.000561479	   23.7673	0.000557711	   23.7252	0.000568527	   23.7252	   14.2132	
   23.6293	0.000588284	   23.7326	0.000564167	   23.7437	0.000559977	   23.7019	0.000570809	   23.7019	   14.2702	
   23.6059	0.000590271	   23.7081	0.000566779	   23.7189	0.000562151	   23.6776	0.000573067	   23.6776	   14.3267	
   23.5807	0.000592341	   23.6819	0.000569274	   23.6935	0.000564233	   23.6521	0.000575282	   23.6521	   14.3821	
   23.5541	0.000594454	   23.6554	0.000571638	   23.6667	0.00056624	   23.6254	0.000577444	   23.6254	   14.4361	
   23.5262	0.000596564	   23.6286	0.000573883	   23.6391	0.000568196	    23.598	0.000579547	    23.598	   14.4887	
   23.4976	0.000598617	   23.6005	0.000576038	   23.6103	0.000570137	   23.5695	0.000581597	   23.5695	   14.5399	
   23.4681	0.000600572	   23.5714	0.000578148	   23.5811	0.00057209	   23.5402	0.000583603	   23.5402	   14.5901	
   23.4373	0.00060241	   23.5414	0.000580265	   23.5511	0.000574075	   23.5099	0.000585583	   23.5099	   14.6396	
   23.4059	0.000604128	   23.5103	0.000582428	   23.5205	0.000576103	   23.4789	0.000587553	   23.4789	   14.6888	
   23.3742	0.000605754	   23.4783	0.000584664	   23.4883	0.000578162	   23.4469	0.000589527	   23.4469	   14.7382	
   23.3411	0.000607331	   23.4449	0.000586978	   23.4564	0.00058023	   23.4141	0.000591513	   23.4141	   14.7878	
   23.3074	0.000608904	    23.411	0.00058935	   23.4239	0.000582287	   23.3808	0.000593513	   23.3808	   14.8378	
   23.2728	0.00061052	   23.3772	0.000591743	   23.3909	0.000584308	    23.347	0.000595524	    23.347	   14.8881	
   23.2374	0.000612201	   23.3423	0.000594106	   23.3567	0.000586275	   23.3121	0.000597527	   23.3121	   14.9382	
   23.2008	0.000613951	   23.3062	0.000596388	   23.3207	0.000588176	   23.2759	0.000599505	   23.2759	   14.9876	
   23.1629	0.000615757	   23.2692	0.000598555	   23.2844	0.000590007	   23.2388	0.00060144	   23.2388	    15.036	
   23.1244	0.000617583	    23.231	0.000600591	   23.2473	0.000591773	   23.2009	0.000603315	   23.2009	   15.0829	
   23.0853	0.000619389	   23.1917	0.00060251	    23.209	0.000593474	    23.162	0.000605124	    23.162	   15.1281	
   23.0461	0.000621137	   23.1506	0.000604346	   23.1694	0.000595119	    23.122	0.000606867	    23.122	   15.1717	
   23.0056	0.000622791	   23.1084	0.000606146	    23.129	0.000596729	    23.081	0.000608555	    23.081	   15.2139	
   22.9637	0.000624336	   23.0654	0.000607965	   23.0872	0.000598316	   23.0388	0.000610206	   23.0388	   15.2551	
   22.9209	0.000625771	    23.022	0.000609844	   23.0443	0.000599893	   22.9957	0.000611836	   22.9957	   15.2959	
   22.8777	0.000627112	    22.977	0.000611805	    23.001	0.000601487	   22.9519	0.000613468	   22.9519	   15.3367	
   22.8337	0.00062839	   22.9309	0.000613843	   22.9568	0.000603102	   22.9071	0.000615111	   22.9071	   15.3778	
    22.789	0.000629646	   22.8843	0.000615924	   22.9115	0.000604736	   22.8616	0.000616769	   22.8616	   15.4192	
   22.7435	0.000630915	   22.8364	0.000618005	   22.8658	0.000606401	   22.8152	0.000618441	   22.8152	    15.461	
   22.6967	0.00063223	   22.7875	0.000620036	   22.8194	0.000608047	   22.7679	0.000620105	   22.7679	   15.5026	
   22.6494	0.000633604	   22.7374	0.000621976	   22.7714	0.00060967	   22.7194	0.00062175	   22.7194	   15.5437	
   22.6014	0.000635031	   22.6867	0.000623803	   22.7232	0.000611253	   22.6704	0.000623362	   22.6704	   15.5841	
   22.5523	0.000636501	    22.635	0.000625514	   22.6745	0.00061277	   22.6206	0.000624928	   22.6206	   15.6232	
   22.5019	0.000637962	   22.5829	0.000627124	    22.625	0.000614221	   22.5699	0.000626435	   22.5699	   15.6609	
   22.4509	0.000639384	   22.5287	0.000628665	   22.5743	0.000615628	    22.518	0.000627892	    22.518	   15.6973	
   22.3991	0.000640741	   22.4746	0.000630171	   22.5221	0.000616992	   22.4653	0.000629301	   22.4653	   15.7325	
   22.3472	0.000641998	   22.4196	0.000631678	   22.4694	0.000618361	   22.4121	0.000630679	   22.4121	    15.767	
   22.2948	0.000643156	   22.3645	0.000633214	   22.4157	0.000619722	   22.3583	0.000632031	   22.3583	   15.8008	
   22.2412	0.000644234	   22.3085	0.000634786	   22.3619	0.000621081	   22.3038	0.000633367	   22.3038	   15.8342	
   22.1866	0.000645247	   22.2512	0.000636397	   22.3065	0.000622441	   22.2481	0.000634695	   22.2481	   15.8674	
   22.1309	0.000646246	   22.1938	0.000638031	   22.2504	0.000623784	   22.1917	0.00063602	   22.1917	   15.9005	
   22.0742	0.000647245	   22.1352	0.000639661	   22.1938	0.000625105	   22.1344	0.000637337	   22.1344	   15.9334	
   22.0162	0.000648267	   22.0762	0.000641272	    22.137	0.000626399	   22.0765	0.000638646	   22.0765	   15.9662	
   21.9574	0.000649323	   22.0164	0.000642831	   22.0791	0.000627658	   22.0176	0.000639938	   22.0176	   15.9984	
   21.8973	0.000650399	   21.9562	0.00064432	   22.0199	0.000628895	   21.9578	0.000641204	   21.9578	   16.0301	
   21.8369	0.000651481	   21.8952	0.000645742	   21.9593	0.000630101	   21.8971	0.000642441	   21.8971	    16.061	
   21.7748	0.00065255	   21.8332	0.000647093	   21.8985	0.000631289	   21.8355	0.000643644	   21.8355	   16.0911	
   21.7118	0.000653584	   21.7706	0.000648394	   21.8372	0.00063246	   21.7732	0.000644812	   21.7732	   16.1203	
   21.6477	0.00065457	   21.7074	0.000649677	   21.7748	0.000633612	     21.71	0.000645953	     21.71	   16.1488	
   21.5822	0.000655494	   21.6436	0.000650961	   21.7114	0.000634755	   21.6458	0.00064707	   21.6458	   16.1767	
   21.5163	0.000656362	   21.5783	0.000652273	   21.6474	0.000635883	   21.5807	0.000648173	   21.5807	   16.2043	
   21.4497	0.000657185	   21.5128	0.00065362	    21.583	0.000636996	   21.5152	0.000649267	   21.5152	   16.2317	
   21.3822	0.000657976	   21.4464	0.00065499	   21.5179	0.000638095	   21.4488	0.000650353	   21.4488	   16.2588	
   21.3134	0.000658758	   21.3789	0.000656372	   21.4519	0.000639171	   21.3814	0.000651434	   21.3814	   16.2858	
   21.2438	0.000659549	   21.3115	0.000657738	   21.3852	0.000640232	   21.3135	0.000652506	   21.3135	   16.3127	
   21.1732	0.000660359	   21.2433	0.000659061	   21.3174	0.000641273	   21.2446	0.000653564	   21.2446	   16.3391	
   21.1007	0.000661194	   21.1742	0.000660325	    21.248	0.000642291	   21.1743	0.000654603	   21.1743	   16.3651	
   21.0274	0.000662042	   21.1041	0.000661515	   21.1778	0.000643295	   21.1031	0.000655617	   21.1031	   16.3904	
   20.9535	0.000662893	   21.0326	0.000662647	   21.1057	0.00064428	   21.0306	0.000656607	   21.0306	   16.4152	
   20.8788	0.000663724	   20.9597	0.000663737	    21.033	0.000645255	   20.9572	0.000657572	   20.9572	   16.4393	
   20.8036	0.000664516	   20.8868	0.000664807	    20.959	0.00064622	   20.8831	0.000658514	   20.8831	   16.4629	
   20.7277	0.00066526	   20.8135	0.000665884	    20.883	0.000647174	   20.8081	0.000659439	   20.8081	    16.486	
   20.6519	0.000665947	   20.7397	0.000666988	   20.8065	0.000648123	   20.7327	0.000660352	   20.7327	   16.5088	
   20.5751	0.000666582	    20.665	0.000668126	   20.7284	0.000649061	   20.6562	0.000661256	   20.6562	   16.5314	
   20.4975	0.000667176	   20.5893	0.000669293	   20.6499	0.000649984	   20.5789	0.000662151	   20.5789	   16.5538	
   20.4193	0.000667744	   20.5135	0.000670469	   20.5698	0.000650893	   20.5008	0.000663035	   20.5008	   16.5759	
   20.3409	0.000668305	   20.4372	0.000671636	   20.4889	0.000651778	   20.4223	0.000663906	   20.4223	   16.5977	
   20.2615	0.000668869	   20.3592	0.000672767	   20.4071	0.000652635	   20.3426	0.000664757	   20.3426	   16.6189	
   20.1819	0.000669452	   20.2805	0.00067384	   20.3242	0.000653464	   20.2622	0.000665585	   20.2622	   16.6396	
   20.1015	0.000670053	   20.2008	0.000674847	   20.2406	0.000654268	    20.181	0.00066639	    20.181	   16.6597	
   20.0204	0.000670662	   20.1199	0.000675792	   20.1571	0.000654962	   20.0992	0.000667139	   20.0992	   16.6785	
   19.9394	0.000671266	   20.0385	0.000676684	   20.0725	0.000655586	   20.0168	0.000667845	   20.0168	   16.6961	
   19.8574	0.000671844	   19.9561	0.000677545	   19.9865	0.000656197	   19.9333	0.000668529	   19.9333	   16.7132	
   19.7752	0.000672384	   19.8731	0.000678395	   19.9006	0.000656801	   19.8496	0.000669193	   19.8496	   16.7298	
   19.6916	0.000672877	   19.7898	0.000679254	   19.8136	0.00065744	    19.765	0.000669857	    19.765	   16.7464	
   19.6069	0.000673321	   19.7059	0.000680129	   19.7258	0.000658188	   19.6795	0.000670546	   19.6795	   16.7636	
   19.5211	0.000673721	   19.6208	0.000681022	   19.6375	0.000659044	   19.5931	0.000671262	   19.5931	   16.7816	
    19.435	0.000674093	   19.5347	0.000681925	   19.5492	0.000659989	   19.5063	0.000672002	   19.5063	   16.8001	
   19.3478	0.000674452	   19.4482	0.000682824	     19.46	0.000660942	   19.4187	0.000672739	   19.4187	   16.8185	
   19.2603	0.000674819	   19.3604	0.000683699	   19.3704	0.000661858	   19.3304	0.000673459	   19.3304	   16.8365	
   19.1724	0.000675207	   19.2711	0.000684532	   19.2797	0.000662701	   19.2411	0.000674147	   19.2411	   16.8537	
   19.0835	0.000675626	    19.181	0.00068531	   19.1881	0.00066339	   19.1509	0.000674775	   19.1509	   16.8694	
   18.9929	0.000676059	   19.0897	0.000686027	   19.0962	0.000663895	   19.0596	0.000675327	   19.0596	   16.8832	
    18.902	0.000676486	   18.9983	0.000686688	   19.0031	0.000664247	   18.9678	0.000675807	   18.9678	   16.8952	
   18.8097	0.000676877	    18.906	0.000687315	   18.9087	0.00066449	   18.8748	0.000676228	   18.8748	   16.9057	
   18.7168	0.000677203	   18.8126	0.000687897	    18.814	0.000664698	   18.7811	0.000676599	   18.7811	    16.915	
   18.6238	0.000677449	   18.7186	0.000688459	   18.7183	0.000664932	   18.6869	0.000676947	   18.6869	   16.9237	
   18.5301	0.000677617	   18.6235	0.000689043	   18.6222	0.000665261	   18.5919	0.000677307	   18.5919	   16.9327	
   18.4354	0.000677722	   18.5275	0.000689588	   18.5247	0.000665785	   18.4958	0.000677698	   18.4958	   16.9425	
     18.34	0.000677794	   18.4304	0.000690159	   18.4268	0.000666485	   18.3991	0.000678146	   18.3991	   16.9536	
   18.2438	0.000677844	   18.3322	0.000690748	    18.328	0.00066729	   18.3013	0.000678627	   18.3013	   16.9657	
   18.1462	0.000677912	   18.2338	0.000691313	   18.2279	0.000668131	   18.2026	0.000679119	   18.2026	    16.978	
   18.0475	0.000678029	   18.1344	0.000691856	   18.1267	0.000668922	   18.1029	0.000679602	   18.1029	   16.9901	
   17.9493	0.000678193	   18.0345	0.000692349	   18.0256	0.000669551	   18.0031	0.000680031	   18.0031	   17.0008	
     17.85	0.000678396	    17.934	0.000692776	   17.9237	0.000669974	   17.9026	0.000680382	   17.9026	   17.0096	
   17.7497	0.000678637	   17.8326	0.000693125	   17.8212	0.000670188	   17.8012	0.00068065	   17.8012	   17.0162	
   17.6489	0.000678882	   17.7309	0.000693368	   17.7185	0.00067022	   17.6994	0.000680823	   17.6994	   17.0206	
   17.5474	0.000679102	   17.6286	0.000693558	   17.6148	0.000670129	   17.5969	0.00068093	   17.5969	   17.0232	
   17.4457	0.000679275	   17.5256	0.000693709	   17.5112	0.000670012	   17.4942	0.000680999	   17.4942	    17.025	
   17.3429	0.000679382	   17.4219	0.000693838	   17.4065	0.000669962	   17.3904	0.00068106	   17.3904	   17.0265	
   17.2391	0.000679414	   17.3177	0.000693998	   17.3015	0.000670062	   17.2861	0.000681158	   17.2861	    17.029	
   17.1347	0.000679368	    17.213	0.000694202	   17.1951	0.000670344	   17.1809	0.000681304	   17.1809	   17.0326	
   17.0292	0.000679273	    17.108	0.000694462	   17.0874	 0.0006708	   17.0749	0.000681512	   17.0749	   17.0378	
   16.9229	0.000679128	   17.0022	0.000694764	   16.9788	0.000671382	    16.968	0.000681758	    16.968	   17.0439	
   16.8162	0.000678965	    16.896	0.00069508	   16.8696	  0.000672	   16.8606	0.000682015	   16.8606	   17.0504	
   16.7094	0.000678821	   16.7892	0.00069539	   16.7602	0.000672569	    16.753	0.00068226	    16.753	   17.0565	
   16.6014	0.000678686	   16.6823	0.00069565	   16.6495	0.000673019	   16.6444	0.000682452	   16.6444	   17.0613	
   16.4926	0.000678587	   16.5751	0.000695831	   16.5379	0.00067328	   16.5352	0.000682566	   16.5352	   17.0641	
   16.3834	0.000678529	   16.4664	0.000695851	   16.4254	0.000673334	   16.4251	0.000682572	   16.4251	   17.0643	
   16.2732	0.000678501	   16.3568	0.000695728	   16.3124	0.00067321	   16.3141	0.00068248	   16.3141	    17.062	
   16.1618	0.000678489	   16.2469	0.000695533	   16.1988	0.000672959	   16.2025	0.000682327	   16.2025	   17.0582	
   16.0504	0.000678431	   16.1359	0.000695293	   16.0851	0.00067267	   16.0905	0.000682131	   16.0905	   17.0533	
   15.9381	0.000678271	   16.0246	0.000695082	   15.9706	0.000672434	   15.9778	0.000681929	   15.9778	   17.0482	
   15.8256	0.00067803	   15.9124	0.000695011	   15.8546	0.000672326	   15.8642	0.000681789	   15.8642	   17.0447	
   15.7126	0.000677674	   15.7993	0.000695095	   15.7377	 0.0006724	   15.7499	0.000681723	   15.7499	   17.0431	
   15.5985	0.00067725	   15.6851	0.000695327	   15.6198	0.000672645	   15.6345	0.000681741	   15.6345	   17.0435	
   15.4843	0.000676848	   15.5704	0.000695644	   15.5019	0.000673012	   15.5189	0.000681835	   15.5189	   17.0459	
   15.3699	0.000676483	   15.4555	0.000695978	   15.3833	0.000673436	   15.4029	0.000681966	   15.4029	   17.0491	
   15.2545	0.000676236	     15.34	0.000696271	   15.2639	0.000673818	   15.2862	0.000682108	   15.2862	   17.0527	
   15.1382	0.00067608	   15.2236	0.000696391	   15.1448	0.000674068	   15.1689	0.00068218	   15.1689	   17.0545	
   15.0214	0.000675968	   15.1068	0.000696252	   15.0263	0.000674121	   15.0515	0.000682114	   15.0515	   17.0528	
   14.9035	0.000675881	   14.9894	0.000695861	   14.9088	0.000673934	   14.9339	0.000681892	   14.9339	   17.0473	
   14.7851	0.000675712	    14.871	0.000695247	   14.7916	0.000673576	   14.8159	0.000681512	   14.8159	   17.0378	
   14.6659	0.000675337	   14.7519	0.000694497	   14.6749	0.000673092	   14.6976	0.000680975	   14.6976	   17.0244	
    14.546	0.000674743	    14.632	0.000693705	   14.5582	0.00067257	   14.5787	0.000680339	   14.5787	   17.0085	
   14.4253	0.000673921	   14.5119	0.00069298	   14.4407	0.000672114	   14.4593	0.000679671	   14.4593	   16.9918	
   14.3037	0.000672921	   14.3916	0.000692429	   14.3231	0.000671781	   14.3395	0.000679044	   14.3395	   16.9761	
   14.1812	0.000671808	   14.2709	0.00069208	   14.2046	0.000671596	   14.2189	0.000678495	   14.2189	   16.9624	
   14.0577	0.000670692	    14.149	0.000691932	   14.0861	0.000671569	   14.0976	0.000678064	   14.0976	   16.9516	
   13.9338	0.000669695	   14.0266	0.000691939	   13.9654	0.000671631	   13.9753	0.000677755	   13.9753	   16.9439	
   13.8093	0.000668887	   13.9035	0.000691994	   13.8432	0.000671743	    13.852	0.000677541	    13.852	   16.9385	
   13.6858	0.000668279	   13.7797	0.000691993	   13.7215	0.000671821	    13.729	0.000677364	    13.729	   16.9341	
    13.562	0.000667865	   13.6552	0.000691846	   13.5986	0.000671793	   13.6053	0.000677168	   13.6053	   16.9292	
   13.4373	0.000667559	   13.5304	0.000691493	   13.4744	0.000671635	   13.4807	0.000676896	   13.4807	   16.9224	
   13.3127	0.000667265	   13.4054	0.000690926	   13.3504	0.000671336	   13.3562	0.000676509	   13.3562	   16.9127	
   13.1865	0.000666868	   13.2795	0.00069017	   13.2255	0.000670913	   13.2305	0.000675984	   13.2305	   16.8996	
   13.0592	0.000666285	   13.1526	0.00068932	   13.0997	0.000670416	   13.1039	0.00067534	   13.1039	   16.8835	
   12.9315	0.000665484	   13.0247	0.000688461	   12.9741	0.000669889	   12.9768	0.000674611	   12.9768	   16.8653	
   12.8027	0.000664466	   12.8962	0.000687673	   12.8475	0.000669401	   12.8488	0.000673847	   12.8488	   16.8462	
   12.6729	0.000663284	   12.7666	0.00068703	   12.7204	0.000668991	   12.7199	0.000673102	   12.7199	   16.8275	
   12.5429	0.000662026	    12.637	0.000686561	   12.5932	0.000668681	    12.591	0.000672422	    12.591	   16.8106	
   12.4133	0.000660776	   12.5067	0.000686239	   12.4661	0.000668468	    12.462	0.000671828	    12.462	   16.7957	
   12.2829	0.00065962	   12.3757	0.000686014	   12.3377	0.000668315	   12.3321	0.000671316	   12.3321	   16.7829	
   12.1511	0.000658608	   12.2446	 0.0006858	   12.2091	0.000668176	   12.2016	0.000670861	   12.2016	   16.7715	
   12.0197	0.000657755	   12.1136	0.00068552	   12.0802	0.000667995	   12.0712	0.000670423	   12.0712	   16.7606	
   11.8879	0.000657035	   11.9829	 0.0006851	   11.9504	0.000667718	   11.9404	0.000669951	   11.9404	   16.7488	
   11.7562	0.000656378	   11.8511	0.000684499	   11.8207	0.000667321	   11.8093	0.000669399	   11.8093	    16.735	
    11.624	0.000655718	   11.7188	0.000683717	     11.69	0.00066679	   11.6776	0.000668742	   11.6776	   16.7185	
   11.4918	0.000654981	    11.586	0.000682788	   11.5582	0.000666146	   11.5453	0.000667972	   11.5453	   16.6993	
   11.3588	0.000654103	   11.4532	0.00068178	   11.4269	0.000665436	    11.413	0.000667106	    11.413	   16.6777	
   11.2252	0.000653061	   11.3197	0.000680779	   11.2949	0.000664702	   11.2799	0.000666181	   11.2799	   16.6545	
    11.092	0.000651856	   11.1861	0.000679879	   11.1628	0.000663999	    11.147	0.000665245	    11.147	   16.6311	
    10.958	0.000650534	   11.0522	0.000679145	   11.0305	0.000663361	   11.0136	0.000664346	   11.0136	   16.6087	
   10.8237	0.000649159	   10.9181	0.000678578	   10.8974	0.000662795	   10.8797	0.000663511	   10.8797	   16.5878	
   10.6891	0.000647802	   10.7837	0.000678147	    10.764	0.000662292	   10.7456	0.000662747	   10.7456	   16.5687	
   10.5547	0.000646532	   10.6484	0.000677783	   10.6302	0.000661808	   10.6111	0.000662041	   10.6111	    16.551	
   10.4198	0.000645384	   10.5132	0.000677392	   10.4956	0.000661297	   10.4762	0.000661358	   10.4762	   16.5339	
    10.284	0.000644363	   10.3775	0.00067688	   10.3604	0.000660715	   10.3406	0.000660653	   10.3406	   16.5163	
   10.1482	0.000643452	   10.2417	0.00067617	   10.2253	0.000660021	   10.2051	0.000659881	   10.2051	    16.497	
   10.0114	0.000642595	    10.106	0.000675256	   10.0897	0.000659204	    10.069	0.000659018	    10.069	   16.4755	
   9.87451	0.000641725	   9.96963	0.000674151	   9.95362	0.00065827	   9.93259	0.000658049	   9.93259	   16.4512	
   9.73702	0.000640774	   9.83262	0.000672907	   9.81695	0.000657255	   9.79553	0.000656979	   9.79553	   16.4245	
   9.59891	0.000639687	   9.69548	0.000671603	   9.68073	0.000656205	   9.65837	0.000655832	   9.65837	   16.3958	
   9.46068	0.000638448	   9.55762	0.000670335	   9.54383	0.000655165	   9.52071	0.000654649	   9.52071	   16.3662	
   9.32228	0.000637072	   9.41957	0.000669175	   9.40675	0.000654171	   9.38287	0.000653473	   9.38287	   16.3368	
    9.1838	0.000635609	   9.28167	0.000668164	   9.26904	0.000653242	   9.24484	0.000652338	   9.24484	   16.3085	
     9.044	0.000634126	   9.14345	0.000667291	   9.13162	0.00065237	   9.10635	0.000651262	   9.10635	   16.2816	
   8.90449	0.000632681	   9.00435	0.000666548	   8.99386	0.000651542	   8.96757	0.000650257	   8.96757	   16.2564	
   8.76469	0.000631327	   8.86492	0.000665871	   8.85521	0.000650716	   8.82827	0.000649305	   8.82827	   16.2326	
   8.62454	0.000630084	   8.72511	0.000665186	   8.71569	0.00064985	   8.68845	0.000648373	   8.68845	   16.2093	
   8.48351	0.000628937	   8.58542	0.000664444	   8.57477	0.00064891	    8.5479	0.00064743	    8.5479	   16.1858	
   8.34213	0.000627841	   8.44527	0.000663569	   8.43356	0.000647869	   8.40699	0.000646426	   8.40699	   16.1607	
   8.20038	0.000626741	   8.30463	0.000662548	   8.29153	0.000646722	   8.26551	0.000645337	   8.26551	   16.1334	
   8.05784	0.00062558	   8.16336	0.000661376	   8.14906	0.000645486	   8.12342	0.000644147	   8.12342	   16.1037	
    7.9144	0.000624317	   8.02211	0.000660071	   8.00629	0.000644188	   7.98093	0.000642859	   7.98093	   16.0715	
   7.77114	0.00062294	   7.88083	0.000658706	   7.86266	0.00064287	   7.83821	0.000641505	   7.83821	   16.0376	
   7.62695	0.000621454	   7.73946	0.00065735	   7.71978	0.00064157	   7.69539	0.000640125	   7.69539	   16.0031	
   7.48343	0.000619901	   7.59849	0.000656055	   7.57648	0.000640318	    7.5528	0.000638758	    7.5528	   15.9689	
     7.341	0.000618323	   7.45678	0.000654874	   7.43276	0.000639128	   7.41018	0.000637441	   7.41018	    15.936	
   7.19744	0.000616762	   7.31539	0.000653798	   7.28912	0.000637992	   7.26731	0.000636184	   7.26731	   15.9046	
   7.05423	0.000615265	   7.17358	0.000652814	   7.14618	0.000636885	   7.12466	0.000634988	   7.12466	   15.8747	
   6.90986	0.000613838	     7.032	0.000651877	   7.00264	0.000635772	    6.9815	0.000633829	    6.9815	   15.8457	
    6.7649	0.000612475	   6.88952	0.000650916	   6.85904	0.000634612	   6.83782	0.000632668	   6.83782	   15.8167	
   6.61937	0.000611163	   6.74669	0.000649874	   6.71533	0.000633374	    6.6938	0.00063147	    6.6938	   15.7868	
   6.47378	0.000609856	    6.6035	0.000648705	   6.57149	0.000632039	   6.54959	 0.0006302	   6.54959	    15.755	
    6.3276	0.000608511	   6.45993	0.000647388	   6.42747	0.000630608	     6.405	0.000628836	     6.405	   15.7209	
   6.18187	0.000607096	   6.31596	0.000645942	   6.28325	0.000629103	   6.26036	0.00062738	   6.26036	   15.6845	
   6.03652	0.000605577	   6.17158	0.000644397	   6.13881	0.000627555	   6.11564	0.000625843	   6.11564	   15.6461	
   5.89122	0.000603957	   6.02732	0.000642819	   5.99385	0.000626003	    5.9708	0.00062426	    5.9708	   15.6065	
   5.74567	0.000602251	   5.88311	0.000641264	   5.84812	0.000624478	   5.82563	0.000622664	   5.82563	   15.5666	
   5.60036	0.000600486	   5.73839	0.000639775	   5.70268	0.000623003	   5.68048	0.000621088	   5.68048	   15.5272	
   5.45525	0.000598704	   5.59421	0.000638383	   5.55696	0.000621584	   5.53547	0.000619557	   5.53547	   15.4889	
   5.31027	0.000596939	   5.45047	0.000637078	   5.41094	0.000620204	   5.39056	0.000618074	   5.39056	   15.4518	
   5.16538	0.000595226	   5.30657	0.000635828	    5.2646	0.000618833	   5.24552	0.000616629	   5.24552	   15.4157	
      5.02	0.000593571	     5.163	0.000634589	   5.11847	0.000617437	   5.10049	0.000615199	   5.10049	     15.38	
   4.87413	0.000591943	   5.01918	0.000633296	   4.97248	0.00061598	   4.95526	0.00061374	   4.95526	   15.3435	
    4.7283	0.000590356	   4.87494	0.000631903	   4.82607	0.00061444	   4.80977	0.000612233	   4.80977	   15.3058	
     4.583	0.000588759	   4.72988	0.000630377	   4.67923	0.000612809	   4.66404	0.000610648	   4.66404	   15.2662	
    4.4371	0.000587108	   4.58509	0.000628705	   4.53302	0.000611096	    4.5184	0.00060897	    4.5184	   15.2242	
   4.29112	0.000585404	   4.43945	0.000626917	   4.38629	0.000609323	   4.37229	0.000607215	   4.37229	   15.1804	
   4.14505	0.000583601	   4.29351	0.000625054	   4.23906	0.000607521	   4.22587	0.000605392	   4.22587	   15.1348	
   3.99884	0.000581692	   4.14779	0.000623165	   4.09186	0.00060572	   4.07949	0.000603526	   4.07949	   15.0881	
   3.85142	0.000579687	   4.00222	0.000621304	   3.94464	0.000603946	   3.93276	0.000601646	   3.93276	   15.0411	
   3.70444	0.000577587	   3.85572	0.000619508	   3.79687	0.00060221	   3.78568	0.000599768	   3.78568	   14.9942	
   3.55718	0.000575448	   3.70897	0.000617811	    3.6488	0.000600509	   3.63832	0.000597923	   3.63832	   14.9481	
   3.40974	0.000573275	   3.56131	0.000616175	    3.5007	0.000598827	   3.49059	0.000596092	   3.49059	   14.9023	
   3.26213	0.000571106	   3.41331	0.000614543	   3.35255	0.000597139	   3.34266	0.000594263	   3.34266	   14.8566	
   3.11327	0.000568999	   3.26496	0.000612873	   3.20431	0.000595418	   3.19418	0.00059243	   3.19418	   14.8107	
   2.96429	0.000566938	   3.11627	0.000611102	   3.05545	0.000593643	   3.04534	0.000590561	   3.04534	    14.764	
   2.81569	0.000564929	   2.96672	0.000609187	   2.90651	0.000591795	   2.89631	0.000588637	   2.89631	   14.7159	
   2.66741	0.000562965	   2.81738	0.000607126	   2.75747	0.000589873	   2.74742	0.000586655	   2.74742	   14.6664	
   2.51887	0.000560996	   2.66823	0.000604933	   2.60832	0.000587884	   2.59847	0.000584604	   2.59847	   14.6151	
    2.3702	0.00055899	   2.51909	0.000602654	   2.45942	0.000585847	   2.44957	0.000582497	   2.44957	   14.5624	
   2.22126	 0.0005569	   2.36955	0.000600329	   2.30982	0.000583784	   2.30021	0.000580338	   2.30021	   14.5084	
   2.07254	0.000554699	   2.21959	0.000598027	   2.15954	0.000581715	   2.15056	0.000578147	   2.15056	   14.4537	
   1.92402	0.000552393	   2.06977	0.000595827	   2.01019	0.000579657	   2.00133	0.000575959	   2.00133	    14.399	
   1.77565	0.000549979	   1.92005	0.000593731	   1.86063	0.000577615	   1.85211	0.000573775	   1.85211	   14.3444	
   1.62739	0.000547491	   1.77038	0.000591721	   1.71084	0.000575582	   1.70287	0.000571598	   1.70287	   14.2899	
   1.47919	0.000544967	   1.62075	0.000589754	    1.5603	0.000573542	   1.55341	0.000569421	   1.55341	   14.2355	
   1.33103	0.000542437	   1.47061	0.000587758	   1.41008	0.000571473	   1.40391	0.000567223	   1.40391	   14.1806	
   1.18274	0.000539936	   1.32062	0.000585687	   1.25989	0.000569353	   1.25442	0.000564992	   1.25442	   14.1248	
   1.03496	0.000537471	   1.17062	0.000583451	   1.10995	0.00056717	   1.10518	0.000562698	   1.10518	   14.0674	
  0.886565	0.000535042	   1.02111	0.000581053	  0.959183	0.000564915	   0.95562	0.000560336	   0.95562	   14.0084	
  0.738627	0.000532632	  0.870453	0.000578505	  0.808149	0.00056259	  0.805743	0.000557909	  0.805743	   13.9477	
  0.590551	0.000530202	  0.719768	0.000575851	  0.657375	0.000560214	  0.655898	0.000555422	  0.655898	   13.8856	
  0.441796	0.000527725	  0.569561	0.000573169	  0.506299	0.000557803	  0.505885	0.000552899	  0.505885	   13.8225	
  0.292388	0.000525173	  0.418724	0.000570546	  0.354923	0.000555384	  0.355345	0.000550368	  0.355345	   13.7592	
  0.142879	0.000522533	  0.268464	0.000568037	  0.203648	0.000552971	  0.204997	0.000547847	  0.204997	   13.6962	
-0.00674428	0.000519803	  0.117536	0.000565674	 0.0515274	0.000550571	 0.0541064	0.000545349	 0.0541064	   13.6337	
 -0.156499	0.000516995	-0.0340276	0.000563412	 -0.100336	0.000548181	-0.0969543	0.000542863	-0.0969543	   13.5716	
 -0.306401	0.000514143	 -0.184624	0.000561207	 -0.251984	0.000545785	  -0.24767	0.000540378	  -0.24767	   13.5095	
 -0.455938	0.000511269	 -0.334876	0.000559005	 -0.403453	0.000543361	 -0.398089	0.000537878	 -0.398089	    13.447	
 -0.606212	0.000508398	 -0.485356	0.000556703	 -0.555298	0.000540887	 -0.548955	0.000535329	 -0.548955	   13.3832	
 -0.756137	0.00050555	 -0.636594	0.000554224	 -0.707508	0.000538342	  -0.70008	0.000532705	  -0.70008	   13.3176	
 -0.906286	0.000502728	 -0.787499	0.000551565	 -0.860065	0.000535716	 -0.851283	0.000530003	 -0.851283	   13.2501	
  -1.05601	0.000499923	 -0.938511	0.000548712	   -1.0123	0.00053301	  -1.00228	0.000527215	  -1.00228	   13.1804	
  -1.20603	0.000497113	  -1.08873	0.000545711	   -1.1644	0.000530233	  -1.15305	0.000524353	  -1.15305	   13.1088	
  -1.35582	0.00049427	  -1.23928	0.000542615	  -1.31637	0.000527403	  -1.30382	0.000521429	  -1.30382	   13.0357	
  -1.50541	0.000491365	  -1.39017	0.000539499	  -1.46774	0.000524542	  -1.45444	0.000518469	  -1.45444	   12.9617	
  -1.65485	0.000488378	  -1.54085	0.000536437	  -1.61855	0.00052167	  -1.60475	0.000515495	  -1.60475	   12.8874	
  -1.80418	0.000485299	  -1.69085	0.000533457	  -1.76942	0.000518801	  -1.75482	0.000512519	  -1.75482	    12.813	
  -1.95291	0.000482144	  -1.84129	0.000530593	  -1.92034	0.000515938	  -1.90485	0.000509558	  -1.90485	   12.7389	
  -2.10164	0.000478901	   -1.9911	0.000527844	  -2.06976	0.000513076	  -2.05417	0.000506607	  -2.05417	   12.6652	
  -2.25079	0.000475561	  -2.14143	0.000525158	  -2.21862	0.000510199	  -2.20361	0.000503639	  -2.20361	    12.591	
  -2.39996	0.000472212	  -2.29171	0.000522485	  -2.36726	0.000507287	  -2.35298	0.000500661	  -2.35298	   12.5165	
  -2.54917	0.000468833	  -2.44146	0.000519754	  -2.51571	0.000504321	  -2.50211	0.000497636	  -2.50211	   12.4409	
  -2.69897	0.00046546	  -2.59127	0.00051691	   -2.6635	0.000501286	  -2.65124	0.000494552	  -2.65124	   12.3638	
  -2.84776	0.000462151	  -2.74062	0.000513911	  -2.81124	0.000498177	  -2.79987	0.000491413	  -2.79987	   12.2853	
  -2.99775	0.000458898	  -2.88959	0.000510738	  -2.95948	0.000494999	  -2.94894	0.000488212	  -2.94894	   12.2053	
  -3.14782	0.000455718	  -3.03927	0.000507419	  -3.10718	0.000491767	  -3.09809	0.000484968	  -3.09809	   12.1242	
  -3.29746	0.000452601	   -3.1886	0.000503996	  -3.25543	0.000488503	  -3.24716	 0.0004817	  -3.24716	   12.0425	
   -3.4466	0.000449495	  -3.33762	0.00050052	  -3.40359	0.000485228	  -3.39594	0.000478414	  -3.39594	   11.9604	
  -3.59544	0.000446435	  -3.48637	0.000497061	  -3.55182	0.000481956	  -3.54455	0.00047515	  -3.54455	   11.8788	
  -3.74455	 0.0004433	  -3.63493	0.000493662	  -3.69962	0.000478695	  -3.69303	0.000471886	  -3.69303	   11.7971	
  -3.89341	0.000440013	  -3.78332	0.000490347	  -3.84757	0.000475444	  -3.84143	0.000468602	  -3.84143	    11.715	
  -4.04155	0.000436552	  -3.93158	0.000487113	  -3.99517	0.000472186	  -3.98943	0.000465283	  -3.98943	   11.6321	
  -4.18958	0.000432877	   -4.0803	0.000483926	  -4.14248	 0.0004689	  -4.13745	0.000461901	  -4.13745	   11.5475	
  -4.33753	0.000428989	  -4.22839	0.000480749	  -4.29009	0.000465564	  -4.28534	0.000458434	  -4.28534	   11.4608	
  -4.48493	0.000424942	  -4.37648	0.000477525	  -4.43799	0.000462164	  -4.43313	0.000454877	  -4.43313	   11.3719	
  -4.63197	0.00042082	  -4.52354	0.000474204	  -4.58541	0.000458688	  -4.58031	0.000451237	  -4.58031	   11.2809	
   -4.7786	0.000416751	  -4.67022	0.000470758	   -4.7332	0.000455134	  -4.72734	0.000447548	  -4.72734	   11.1887	
  -4.92435	0.000412782	  -4.81762	0.000467178	  -4.88085	0.000451514	  -4.87428	0.000443825	  -4.87428	   11.0956	
  -5.06987	0.000408966	  -4.96468	0.000463483	  -5.02892	0.000447846	  -5.02116	0.000440099	  -5.02116	   11.0025	
  -5.21467	0.000405332	  -5.11145	0.000459712	  -5.17688	0.000444155	  -5.16767	0.000436399	  -5.16767	     10.91	
  -5.35888	0.000401852	  -5.25851	0.000455914	  -5.32373	0.000440463	  -5.31371	0.000432743	  -5.31371	   10.8186	
  -5.50204	0.000398457	  -5.40588	0.000452141	  -5.47011	0.000436784	  -5.45934	0.000429127	  -5.45934	   10.7282	
  -5.64429	0.00039505	  -5.55251	0.000448426	  -5.61557	0.000433123	  -5.60412	0.000425533	  -5.60412	   10.6383	
  -5.78668	0.000391535	  -5.69863	0.000444783	  -5.76075	0.000429472	  -5.74868	0.00042193	  -5.74868	   10.5482	
  -5.92936	0.000387845	  -5.84367	 0.0004412	  -5.90623	0.00042581	  -5.89309	0.000418285	  -5.89309	   10.4571	
  -6.07185	0.000383922	  -5.98879	0.000437647	  -6.05152	0.000422122	  -6.03738	0.000414564	  -6.03738	   10.3641	
  -6.21472	0.00037978	  -6.13456	0.000434077	  -6.19665	0.000418386	  -6.18198	0.000410748	  -6.18198	   10.2687	
  -6.35799	0.000375471	  -6.27992	0.000430446	  -6.34117	0.000414582	  -6.32636	0.000406833	  -6.32636	   10.1708	
  -6.50012	0.000371064	  -6.42493	0.000426716	  -6.48516	0.000410698	  -6.47007	0.000402826	  -6.47007	   10.0707	
  -6.64176	0.000366652	  -6.56966	0.000422864	  -6.62923	0.000406742	  -6.61355	0.000398753	  -6.61355	   9.96882	
    -6.783	0.000362315	  -6.71419	0.000418889	  -6.77289	0.000402728	   -6.7567	0.000394644	   -6.7567	    9.8661	
  -6.92341	0.000358113	  -6.85856	0.000414814	  -6.91571	0.000398674	  -6.89923	0.000390534	  -6.89923	   9.76335	
  -7.06468	0.000354066	  -7.00336	0.000410681	  -7.05832	0.000394601	  -7.04212	0.000386449	  -7.04212	   9.66123	
  -7.20627	0.000350141	  -7.14859	0.000406535	  -7.20079	0.000390531	  -7.18522	0.000382402	  -7.18522	   9.56005	
  -7.34768	0.000346283	  -7.29373	0.000402413	  -7.34369	0.000386474	  -7.32837	0.00037839	  -7.32837	   9.45975	
  -7.48845	0.000342404	  -7.43831	0.000398344	    -7.486	0.000382435	  -7.47092	0.000374394	  -7.47092	   9.35986	
  -7.62921	0.000338427	  -7.58293	0.000394332	  -7.62675	0.000378406	  -7.61297	0.000370388	  -7.61297	   9.25971	
  -7.76951	0.000334297	  -7.72659	0.000390366	   -7.7672	0.000374369	  -7.75443	0.000366344	  -7.75443	    9.1586	
  -7.90968	0.000329979	   -7.8702	0.000386419	  -7.90688	0.000370306	  -7.89558	0.000362235	  -7.89558	   9.05587	
  -8.04954	0.000325487	  -8.01406	0.000382449	  -8.04644	0.000366204	  -8.03668	0.000358047	  -8.03668	   8.95117	
  -8.18917	0.000320861	   -8.1582	0.000378415	  -8.18543	0.000362064	   -8.1776	0.00035378	   -8.1776	    8.8445	
  -8.32759	0.000316168	  -8.30108	0.000374287	  -8.32448	0.000357881	  -8.31772	0.000349445	  -8.31772	   8.73613	
  -8.46603	0.00031149	  -8.44387	0.000370059	  -8.46311	0.00035364	  -8.45767	0.000345063	  -8.45767	   8.62658	
  -8.60453	0.000306886	  -8.58666	0.000365742	  -8.60143	0.000349336	  -8.59754	0.000340655	  -8.59754	   8.51637	
  -8.74263	0.000302394	  -8.72895	0.000361353	  -8.73899	0.000344967	  -8.73686	0.000336238	  -8.73686	   8.40595	
  -8.88095	0.000298024	  -8.87031	0.00035692	  -8.87698	0.000340525	  -8.87608	0.000331823	  -8.87608	   8.29558	
  -9.01836	0.000293739	  -9.01075	0.000352479	  -9.01463	0.000336021	  -9.01458	0.000327413	  -9.01458	   8.18532	
  -9.15617	0.000289487	  -9.15051	0.00034805	  -9.15178	0.000331475	  -9.15282	0.000323004	  -9.15282	    8.0751	
  -9.29337	0.000285203	  -9.29024	0.000343643	  -9.28905	0.000326914	  -9.29089	0.000318586	  -9.29089	   7.96466	
  -9.43112	0.000280822	  -9.42947	0.000339254	  -9.42598	0.000322355	  -9.42886	0.000314144	  -9.42886	    7.8536	
  -9.56892	0.000276304	   -9.5683	0.000334864	  -9.56266	0.000317797	  -9.56663	0.000309655	  -9.56663	   7.74138	
  -9.70631	0.000271627	  -9.70631	0.000330448	  -9.69814	0.000313244	  -9.70359	0.000305106	  -9.70359	   7.62766	
  -9.84285	0.000266806	  -9.84415	0.000325988	  -9.83363	0.000308711	  -9.84021	0.000300502	  -9.84021	   7.51254	
  -9.97869	0.00026188	  -9.98241	0.00032147	  -9.96762	0.000304168	  -9.97624	0.000295839	  -9.97624	   7.39598	
  -10.1145	0.00025691	  -10.1206	0.000316894	  -10.1015	0.000299605	  -10.1122	0.000291136	  -10.1122	   7.27841	
  -10.2508	0.000251959	  -10.2572	0.000312275	  -10.2352	0.000295035	  -10.2478	0.000286423	  -10.2478	   7.16057	
  -10.3867	0.000247076	  -10.3935	0.000307628	  -10.3694	0.000290435	  -10.3832	0.000281713	  -10.3832	   7.04282	
  -10.5227	0.000242295	  -10.5301	0.00030298	  -10.5036	0.000285795	  -10.5188	0.000277023	  -10.5188	   6.92558	
  -10.6584	0.000237615	  -10.6666	0.000298344	  -10.6378	0.000281142	  -10.6543	0.000272367	  -10.6543	   6.80917	
  -10.7934	0.000233009	  -10.8018	0.000293731	  -10.7711	0.000276445	  -10.7888	0.000267728	  -10.7888	   6.69321	
  -10.9283	0.000228433	  -10.9361	0.000289139	  -10.9036	0.00027171	  -10.9227	0.000263094	  -10.9227	   6.57735	
  -11.0632	0.000223828	  -11.0701	0.000284558	  -11.0366	0.000266939	  -11.0566	0.000258441	  -11.0566	   6.46104	
  -11.1976	0.000219145	  -11.2035	0.000279949	  -11.1691	0.000262127	  -11.1901	0.00025374	  -11.1901	    6.3435	
  -11.3317	0.000214349	  -11.3363	0.000275314	  -11.3016	0.000257265	  -11.3232	0.000248976	  -11.3232	    6.2244	
  -11.4651	0.000209432	  -11.4675	0.000270616	  -11.4333	0.000252363	  -11.4553	0.000244137	  -11.4553	   6.10342	
  -11.5988	0.000204407	   -11.598	0.000265842	  -11.5653	0.000247418	  -11.5874	0.000239222	  -11.5874	   5.98056	
  -11.7315	0.000199307	  -11.7284	0.000260998	  -11.6976	0.000242456	  -11.7192	0.000234254	  -11.7192	   5.85634	
  -11.8633	0.000194177	  -11.8588	0.000256088	  -11.8293	0.000237493	  -11.8504	0.000229253	  -11.8504	   5.73132	
  -11.9948	0.000189057	  -11.9876	0.000251122	  -11.9604	0.000232561	   -11.981	0.000224247	   -11.981	   5.60616	
  -12.1254	0.00018398	  -12.1164	0.000246136	  -12.0914	0.000227669	  -12.1111	0.000219262	  -12.1111	   5.48154	
   -12.256	0.000178969	  -12.2446	0.000241146	   -12.222	0.000222813	  -12.2409	0.000214309	  -12.2409	   5.35773	
  -12.3857	0.000174021	  -12.3722	0.00023619	   -12.352	0.00021798	    -12.37	0.000209397	    -12.37	   5.23493	
   -12.514	0.000169132	     -12.5	0.00023129	   -12.481	0.000213192	  -12.4983	0.000204538	  -12.4983	   5.11344	
  -12.6424	0.000164259	   -12.627	0.000226462	   -12.609	0.000208388	  -12.6261	0.000199703	  -12.6261	   4.99258	
  -12.7697	0.000159373	  -12.7534	0.000221688	  -12.7369	0.000203514	  -12.7533	0.000194858	  -12.7533	   4.87146	
  -12.8963	0.000154446	  -12.8782	0.00021692	  -12.8647	0.000198558	  -12.8797	0.000189975	  -12.8797	   4.74936	
  -13.0227	0.000149431	  -13.0033	0.000212107	  -12.9914	0.000193494	  -13.0058	0.000185011	  -13.0058	   4.62526	
  -13.1483	0.000144333	  -13.1272	 0.0002072	  -13.1177	0.000188294	  -13.1311	0.000179942	  -13.1311	   4.49856	
  -13.2741	0.000139169	  -13.2501	0.000202147	  -13.2437	0.000182988	   -13.256	0.000174768	   -13.256	    4.3692	
  -13.3996	0.000133962	  -13.3727	0.000196937	  -13.3692	 0.0001776	  -13.3805	 0.0001695	  -13.3805	    4.2375	
   -13.524	0.000128769	  -13.4957	0.000191594	  -13.4948	0.000172202	  -13.5048	0.000164189	  -13.5048	   4.10471	
  -13.6473	0.00012363	  -13.6186	0.000186172	   -13.619	0.000166845	  -13.6283	0.000158882	  -13.6283	   3.97205	
  -13.7698	0.000118584	    -13.74	0.000180736	  -13.7436	0.000161548	  -13.7512	0.000153623	  -13.7512	   3.84056	
  -13.8923	0.000113647	  -13.8618	0.000175338	  -13.8677	0.000156358	  -13.8739	0.000148448	  -13.8739	    3.7112	
  -14.0137	0.000108785	  -13.9823	0.000170026	  -13.9904	0.000151319	  -13.9955	0.000143377	  -13.9955	   3.58442	
  -14.1346	0.000103966	  -14.1019	0.000164842	   -14.113	0.000146401	  -14.1165	0.000138403	  -14.1165	   3.46008	
  -14.2549	9.91435e-05	  -14.2223	0.000159773	  -14.2351	0.000141531	  -14.2374	0.000133483	  -14.2374	   3.33707	
  -14.3746	9.42741e-05	  -14.3414	0.000154793	  -14.3567	0.000136678	  -14.3576	0.000128581	  -14.3576	   3.21454	
  -14.4946	8.93123e-05	  -14.4596	0.00014986	  -14.4776	0.000131768	  -14.4773	0.000123646	  -14.4773	   3.09116	
  -14.6139	8.42196e-05	   -14.577	0.000144901	  -14.5979	0.000126733	  -14.5962	0.000118618	  -14.5962	   2.96545	
  -14.7321	7.89838e-05	  -14.6932	0.000139857	  -14.7177	0.00012154	  -14.7143	0.00011346	  -14.7143	    2.8365	
  -14.8494	7.36571e-05	  -14.8081	0.000134718	  -14.8368	0.000116184	  -14.8314	0.000108186	  -14.8314	   2.70465	
  -14.9666	6.83074e-05	  -14.9223	0.00012945	  -14.9542	0.000110695	  -14.9477	0.000102818	  -14.9477	   2.57044	
  -15.0832	6.30327e-05	  -15.0365	0.000124065	  -15.0708	0.000105124	  -15.0635	9.7407e-05	  -15.0635	   2.43518	
   -15.199	5.79071e-05	  -15.1503	0.000118604	  -15.1867	9.95489e-05	  -15.1787	9.20201e-05	  -15.1787	    2.3005	
  -15.3136	5.29599e-05	  -15.2641	0.00011311	  -15.3021	9.40688e-05	  -15.2933	8.67131e-05	  -15.2933	   2.16783	
  -15.4277	4.81684e-05	  -15.3779	0.000107633	  -15.4173	8.8737e-05	  -15.4076	8.15127e-05	  -15.4076	   2.03782	
  -15.5417	4.34614e-05	  -15.4908	0.000102218	  -15.5323	8.35854e-05	  -15.5216	7.64214e-05	  -15.5216	   1.91054	
  -15.6551	3.87566e-05	  -15.6031	9.68829e-05	  -15.6474	7.8615e-05	  -15.6352	7.14182e-05	  -15.6352	   1.78545	
  -15.7676	3.39736e-05	  -15.7144	9.16481e-05	  -15.7606	7.37782e-05	  -15.7475	6.64666e-05	  -15.7475	   1.66167	
  -15.8798	2.90324e-05	  -15.8254	8.64948e-05	  -15.8737	6.89974e-05	  -15.8596	6.15082e-05	  -15.8596	    1.5377	
  -15.9912	2.3898e-05	  -15.9368	8.13866e-05	  -15.9867	6.41792e-05	  -15.9716	5.64879e-05	  -15.9716	    1.4122	
  -16.1023	1.85911e-05	  -16.0478	7.62824e-05	  -16.0995	5.92468e-05	  -16.0832	5.13734e-05	  -16.0832	   1.28434	
  -16.2117	1.31486e-05	   -16.158	7.1144e-05	  -16.2111	5.4155e-05	  -16.1936	4.61492e-05	  -16.1936	   1.15373	
  -16.3207	7.65404e-06	  -16.2676	6.59301e-05	  -16.3214	4.88876e-05	  -16.3032	4.08239e-05	  -16.3032	    1.0206	
  -16.4285	2.2175e-06	  -16.3768	6.06217e-05	  -16.4309	4.34709e-05	  -16.4121	3.54367e-05	  -16.4121	  0.885918	
  -16.5359	-3.09511e-06	  -16.4859	5.52138e-05	  -16.5395	3.79713e-05	  -16.5205	 3.003e-05	  -16.5205	   0.75075	
   -16.642	-8.22664e-06	   -16.595	4.97501e-05	   -16.648	3.24713e-05	  -16.6283	2.46649e-05	  -16.6283	  0.616623	
  -16.7477	-1.31444e-05	  -16.7037	4.42005e-05	  -16.7553	2.70547e-05	  -16.7356	1.93702e-05	  -16.7356	  0.484256	
  -16.8532	-1.78926e-05	  -16.8116	3.86254e-05	  -16.8618	2.17787e-05	  -16.8422	1.41705e-05	  -16.8422	  0.354262	
  -16.9586	-2.25476e-05	   -16.918	3.31162e-05	  -16.9677	1.66727e-05	  -16.9481	9.08042e-06	  -16.9481	  0.227011	
  -17.0637	-2.7186e-05	  -17.0237	2.76705e-05	  -17.0727	1.17265e-05	  -17.0534	4.07034e-06	  -17.0534	  0.101758	
  -17.1685	-3.19122e-05	  -17.1284	2.23737e-05	  -17.1771	6.88817e-06	   -17.158	-8.83435e-07	   -17.158	-0.0220859	
  -17.2711	-3.67966e-05	  -17.2329	1.72225e-05	    -17.28	2.09055e-06	  -17.2614	-5.82786e-06	  -17.2614	 -0.145697	
  -17.3731	-4.19003e-05	  -17.3364	1.22105e-05	  -17.3818	-2.74047e-06	  -17.3638	-1.08101e-05	  -17.3638	 -0.270252	
  -17.4741	-4.72149e-05	  -17.4395	7.32496e-06	  -17.4833	-7.67463e-06	  -17.4656	-1.58548e-05	  -17.4656	 -0.396371	
   -17.574	-5.26682e-05	  -17.5418	 2.488e-06	  -17.5834	-1.27503e-05	  -17.5664	-2.09768e-05	  -17.5664	 -0.524421	
   -17.673	-5.81675e-05	  -17.6438	-2.3336e-06	  -17.6832	-1.7972e-05	  -17.6667	-2.61577e-05	  -17.6667	 -0.653942	
  -17.7708	-6.36212e-05	  -17.7456	-7.20658e-06	  -17.7829	-2.33025e-05	  -17.7664	-3.13767e-05	  -17.7664	 -0.784419	
  -17.8681	-6.89351e-05	  -17.8464	-1.2212e-05	  -17.8826	-2.86828e-05	  -17.8657	-3.661e-05	  -17.8657	  -0.91525	
  -17.9647	-7.4058e-05	  -17.9465	-1.73511e-05	  -17.9821	-3.40441e-05	  -17.9644	-4.18177e-05	  -17.9644	  -1.04544	
  -18.0599	-7.89597e-05	  -18.0462	-2.26264e-05	  -18.0809	-3.93171e-05	  -18.0623	-4.69678e-05	  -18.0623	  -1.17419	
  -18.1549	-8.36733e-05	  -18.1445	-2.8003e-05	  -18.1789	-4.44506e-05	  -18.1595	-5.20423e-05	  -18.1595	  -1.30106	
  -18.2495	-8.82837e-05	  -18.2419	-3.34104e-05	  -18.2758	-4.94217e-05	  -18.2557	-5.70386e-05	  -18.2557	  -1.42597	
   -18.343	-9.28881e-05	  -18.3393	-3.87768e-05	  -18.3722	-5.42409e-05	  -18.3515	-6.19686e-05	  -18.3515	  -1.54922	
  -18.4367	-9.75819e-05	  -18.4368	-4.40105e-05	  -18.4676	-5.89597e-05	   -18.447	-6.68507e-05	   -18.447	  -1.67127	
  -18.5296	-0.000102445	  -18.5334	-4.90746e-05	  -18.5626	-6.36433e-05	  -18.5419	-7.17211e-05	  -18.5419	  -1.79303	
   -18.622	-0.000107512	  -18.6295	-5.39497e-05	   -18.656	-6.83586e-05	  -18.6358	-7.66069e-05	  -18.6358	  -1.91517	
  -18.7143	-0.000112764	  -18.7241	-5.86537e-05	  -18.7481	-7.31639e-05	  -18.7289	-8.15271e-05	  -18.7289	  -2.03818	
  -18.8071	-0.000118131	  -18.8178	-6.32627e-05	  -18.8393	-7.80898e-05	  -18.8214	-8.64945e-05	  -18.8214	  -2.16236	
  -18.8991	-0.000123527	  -18.9112	-6.78154e-05	  -18.9303	-8.31377e-05	  -18.9135	-9.14933e-05	  -18.9135	  -2.28733	
    -18.99	-0.000128854	  -19.0035	-7.24082e-05	  -19.0203	-8.8272e-05	  -19.0046	-9.65113e-05	  -19.0046	  -2.41278	
    -19.08	-0.000134025	   -19.095	-7.71133e-05	  -19.1099	-9.34331e-05	   -19.095	-0.000101524	   -19.095	   -2.5381	
  -19.1695	-0.000138989	  -19.1855	-8.19411e-05	  -19.1997	-9.85595e-05	  -19.1849	-0.000106497	  -19.1849	  -2.66241	
  -19.2588	-0.000143737	  -19.2759	-8.69397e-05	  -19.2893	-0.000103588	  -19.2746	-0.000111422	  -19.2746	  -2.78554	
  -19.3466	-0.000148315	  -19.3658	-9.20721e-05	  -19.3784	-0.000108481	  -19.3636	-0.000116289	  -19.3636	  -2.90723	
  -19.4331	-0.000152804	  -19.4545	-9.72825e-05	  -19.4662	-0.000113227	  -19.4513	-0.000121105	  -19.4513	  -3.02761	
  -19.5194	-0.000157299	  -19.5422	-0.000102518	  -19.5532	-0.000117843	  -19.5383	-0.000125887	  -19.5383	  -3.14717	
  -19.6045	-0.000161887	  -19.6294	-0.000107687	  -19.6395	-0.00012238	  -19.6245	-0.000130651	  -19.6245	  -3.26629	
  -19.6878	-0.000166626	  -19.7163	-0.00011275	   -19.725	-0.000126899	  -19.7097	-0.000135425	  -19.7097	  -3.38562	
  -19.7708	-0.000171531	  -19.8031	-0.000117657	  -19.8089	-0.000131455	  -19.7943	-0.000140214	  -19.7943	  -3.50536	
  -19.8532	-0.000176572	  -19.8902	-0.000122385	  -19.8915	-0.000136095	  -19.8783	-0.000145017	  -19.8783	  -3.62543	
  -19.9348	-0.000181682	  -19.9755	-0.000126973	  -19.9739	-0.000140835	  -19.9614	-0.00014983	  -19.9614	  -3.74574	
  -20.0163	-0.000186778	  -20.0605	-0.000131462	  -20.0556	-0.000145662	  -20.0441	-0.000154634	  -20.0441	  -3.86585	
  -20.0965	-0.000191776	  -20.1445	-0.000135931	  -20.1365	-0.000150546	  -20.1258	-0.000159418	  -20.1258	  -3.98544	
  -20.1762	-0.000196561	  -20.2278	-0.000140448	  -20.2164	-0.000155431	  -20.2068	-0.000164147	  -20.2068	  -4.10367	
  -20.2547	-0.000201133	  -20.3096	-0.000145058	  -20.2956	-0.000160262	  -20.2866	-0.000168818	  -20.2866	  -4.22044	
  -20.3324	-0.00020554	  -20.3903	-0.000149799	   -20.374	-0.000164992	  -20.3656	-0.000173444	  -20.3656	  -4.33609	
  -20.4089	-0.000209841	  -20.4704	-0.000154652	  -20.4515	-0.000169595	  -20.4436	-0.000178029	  -20.4436	  -4.45073	
  -20.4843	-0.00021413	    -20.55	-0.000159587	  -20.5293	-0.000174076	  -20.5212	-0.000182598	  -20.5212	  -4.56494	
  -20.5588	-0.000218511	   -20.629	-0.000164552	  -20.6056	-0.000178458	  -20.5978	-0.000187174	  -20.5978	  -4.67935	
  -20.6323	-0.000223045	  -20.7071	-0.000169473	  -20.6823	-0.000182789	  -20.6739	-0.000191769	  -20.6739	  -4.79423	
  -20.7056	-0.000227763	  -20.7846	-0.000174304	  -20.7586	-0.000187121	  -20.7496	-0.000196396	  -20.7496	   -4.9099	
  -20.7782	-0.000232632	  -20.8609	-0.000179011	  -20.8342	-0.0001915	  -20.8244	-0.000201048	  -20.8244	  -5.02619	
  -20.8496	-0.000237598	  -20.9368	-0.000183585	  -20.9096	-0.000195961	  -20.8987	-0.000205715	  -20.8987	  -5.14286	
  -20.9207	-0.00024257	  -21.0114	-0.000188052	  -20.9842	-0.000200513	  -20.9721	-0.000210378	  -20.9721	  -5.25945	
  -20.9913	-0.000247428	  -21.0837	-0.000192445	   -21.058	-0.000205138	  -21.0443	-0.000215004	  -21.0443	  -5.37509	
  -21.0609	-0.000252101	  -21.1546	-0.000196822	  -21.1315	-0.000209802	  -21.1157	-0.000219575	  -21.1157	  -5.48937	
  -21.1293	-0.000256546	  -21.2247	-0.00020124	  -21.2044	-0.000214454	  -21.1861	-0.00022408	  -21.1861	  -5.60201	
  -21.1974	-0.000260762	  -21.2941	-0.000205726	  -21.2766	-0.000219046	   -21.256	-0.000228511	   -21.256	  -5.71279	
  -21.2649	-0.000264806	  -21.3618	-0.0002103	  -21.3477	-0.000223539	  -21.3248	-0.000232882	  -21.3248	  -5.82205	
  -21.3318	-0.000268765	  -21.4291	-0.000214948	  -21.4188	-0.000227912	  -21.3932	-0.000237208	  -21.3932	  -5.93021	
  -21.3988	-0.000272747	   -21.496	-0.000219636	  -21.4891	-0.00023217	  -21.4613	-0.000241518	  -21.4613	  -6.03794	
  -21.4644	-0.000276854	  -21.5616	-0.000224322	  -21.5582	-0.000236338	  -21.5281	-0.000245838	  -21.5281	  -6.14595	
  -21.5287	-0.000281143	  -21.6269	-0.000228958	  -21.6268	-0.000240461	  -21.5941	-0.000250187	  -21.5941	  -6.25467	
  -21.5923	-0.000285633	  -21.6913	-0.000233499	  -21.6945	-0.000244587	  -21.6593	-0.000254573	  -21.6593	  -6.36432	
  -21.6549	-0.000290284	   -21.754	-0.000237924	  -21.7618	-0.000248755	  -21.7236	-0.000258988	  -21.7236	   -6.4747	
   -21.717	-0.000295014	  -21.8154	-0.000242233	  -21.8285	-0.00025299	   -21.787	-0.000263412	   -21.787	   -6.5853	
  -21.7783	-0.000299726	  -21.8761	-0.000246456	  -21.8934	-0.000257295	  -21.8493	-0.000267825	  -21.8493	  -6.69564	
  -21.8394	-0.000304301	  -21.9353	-0.000250631	  -21.9569	-0.000261653	  -21.9105	-0.000272195	  -21.9105	  -6.80487	
  -21.9004	-0.00030869	  -21.9935	-0.000254804	  -22.0194	-0.00026603	  -21.9711	-0.000276508	  -21.9711	  -6.91271	
  -21.9603	-0.000312856	  -22.0516	-0.000259016	  -22.0809	-0.000270379	  -22.0309	-0.000280751	  -22.0309	  -7.01876	
  -22.0184	-0.000316811	  -22.1098	-0.000263289	  -22.1411	-0.000274659	  -22.0898	-0.00028492	  -22.0898	  -7.12299	
  -22.0751	-0.000320649	  -22.1671	-0.000267632	  -22.2001	-0.00027884	  -22.1474	-0.00028904	  -22.1474	  -7.22601	
  -22.1308	-0.000324441	  -22.2228	-0.00027203	  -22.2582	-0.000282913	  -22.2039	-0.000293128	  -22.2039	   -7.3282	
   -22.186	-0.000328276	  -22.2773	-0.000276444	  -22.3153	-0.000286886	  -22.2595	-0.000297202	  -22.2595	  -7.43005	
  -22.2401	-0.000332241	  -22.3306	-0.000280791	  -22.3718	-0.000290788	  -22.3142	-0.000301273	  -22.3142	  -7.53183	
  -22.2933	-0.000336361	  -22.3831	-0.000285042	   -22.427	-0.00029466	  -22.3678	-0.000305354	  -22.3678	  -7.63386	
  -22.3458	-0.000340645	  -22.4347	-0.000289202	   -22.481	-0.000298546	  -22.4205	-0.000309465	  -22.4205	  -7.73661	
  -22.3971	-0.000345021	  -22.4851	-0.000293264	  -22.5342	-0.00030248	  -22.4721	-0.000313588	  -22.4721	   -7.8397	
  -22.4478	-0.000349399	   -22.534	-0.000297258	  -22.5869	-0.000306472	  -22.5229	-0.000317709	  -22.5229	  -7.94274	
  -22.4974	-0.000353711	  -22.5828	-0.000301273	   -22.639	-0.000310519	  -22.5731	-0.000321834	  -22.5731	  -8.04586	
  -22.5458	-0.000357847	  -22.6319	-0.000305361	  -22.6899	-0.000314598	  -22.6225	-0.000325935	  -22.6225	  -8.14838	
  -22.5939	-0.000361775	  -22.6795	-0.000309548	  -22.7394	-0.000318673	  -22.6709	-0.000329998	  -22.6709	  -8.24996	
  -22.6416	-0.000365496	  -22.7256	-0.000313822	  -22.7881	-0.0003227	  -22.7184	-0.000334006	  -22.7184	  -8.35015	
  -22.6888	-0.000369044	  -22.7707	-0.000318153	  -22.8364	-0.00032665	  -22.7653	-0.000337949	  -22.7653	  -8.44872	
  -22.7343	-0.000372516	  -22.8158	-0.000322487	   -22.883	-0.000330505	   -22.811	-0.000341836	   -22.811	   -8.5459	
  -22.7779	-0.000375994	  -22.8598	-0.000326746	   -22.929	-0.000334262	  -22.8556	-0.000345667	  -22.8556	  -8.64168	
  -22.8214	-0.000379566	  -22.9031	-0.00033086	  -22.9743	-0.000337941	  -22.8996	-0.000349456	  -22.8996	  -8.73639	
  -22.8642	-0.000383314	   -22.946	-0.000334814	  -23.0188	-0.000341573	   -22.943	-0.000353234	   -22.943	  -8.83084	
  -22.9061	-0.000387225	   -22.988	-0.000338609	  -23.0625	-0.000345194	  -22.9855	-0.000357009	  -22.9855	  -8.92524	
   -22.947	-0.000391272	  -23.0295	-0.000342269	  -23.1052	-0.000348837	  -23.0273	-0.000360793	  -23.0273	  -9.01982	
  -22.9875	-0.000395387	  -23.0694	-0.000345863	   -23.147	-0.000352528	  -23.0679	-0.000364593	  -23.0679	  -9.11483	
  -23.0274	-0.000399464	  -23.1081	-0.000349495	  -23.1871	-0.00035627	  -23.1076	-0.00036841	  -23.1076	  -9.21024	
  -23.0657	-0.000403415	  -23.1467	-0.000353228	  -23.2262	-0.000360056	  -23.1462	-0.000372233	  -23.1462	  -9.30582	
  -23.1027	-0.000407158	  -23.1849	-0.00035711	  -23.2649	-0.000363857	  -23.1842	-0.000376042	  -23.1842	  -9.40104	
  -23.1386	-0.000410679	  -23.2222	-0.000361162	  -23.3018	-0.000367642	  -23.2209	-0.000379828	  -23.2209	  -9.49569	
  -23.1737	-0.000414008	  -23.2586	-0.000365353	  -23.3386	-0.000371376	   -23.257	-0.000383579	   -23.257	  -9.58947	
  -23.2081	-0.000417198	  -23.2941	-0.000369613	  -23.3742	-0.000375032	  -23.2921	-0.000387281	  -23.2921	  -9.68202	
  -23.2407	-0.00042035	  -23.3296	-0.00037386	  -23.4094	-0.000378596	  -23.3266	-0.000390936	  -23.3266	  -9.77339	
  -23.2725	-0.000423556	  -23.3651	-0.000378006	  -23.4428	-0.000382074	  -23.3601	-0.000394546	  -23.3601	  -9.86364	
   -23.304	-0.000426877	  -23.3988	-0.000381986	  -23.4753	-0.000385484	  -23.3927	-0.000398116	  -23.3927	  -9.95289	
  -23.3345	-0.000430348	   -23.432	-0.000385759	  -23.5071	-0.000388858	  -23.4245	-0.000401655	  -23.4245	  -10.0414	
  -23.3646	-0.000433954	  -23.4639	-0.000389345	  -23.5374	-0.000392228	  -23.4553	-0.000405176	  -23.4553	  -10.1294	
  -23.3943	-0.00043765	  -23.4957	-0.000392789	  -23.5658	-0.000395615	  -23.4852	-0.000408685	  -23.4852	  -10.2171	
  -23.4234	-0.000441361	  -23.5266	-0.000396178	  -23.5933	-0.000399058	  -23.5144	-0.000412199	  -23.5144	   -10.305	
   -23.452	-0.000445007	  -23.5556	-0.000399587	    -23.62	-0.000402562	  -23.5425	-0.000415719	  -23.5425	   -10.393	
  -23.4794	-0.000448547	  -23.5838	-0.000403082	  -23.6453	-0.000406076	  -23.5695	-0.000419235	  -23.5695	  -10.4809	
  -23.5052	-0.000451949	  -23.6111	-0.00040672	  -23.6702	-0.000409612	  -23.5955	-0.000422761	  -23.5955	   -10.569	
  -23.5298	-0.000455213	  -23.6376	-0.000410508	  -23.6943	-0.000413118	  -23.6206	-0.00042628	  -23.6206	   -10.657	
  -23.5533	-0.000458377	   -23.663	-0.000414409	   -23.718	-0.000416545	  -23.6447	-0.000429777	  -23.6447	  -10.7444	
  -23.5762	-0.000461497	  -23.6864	-0.000418373	  -23.7402	-0.000419866	  -23.6676	-0.000433245	  -23.6676	  -10.8311	
   -23.598	-0.000464615	  -23.7086	-0.000422316	  -23.7614	-0.000423061	  -23.6893	-0.000436664	  -23.6893	  -10.9166	
  -23.6188	-0.000467768	    -23.73	-0.000426169	  -23.7818	-0.000426139	  -23.7102	-0.000440025	  -23.7102	  -11.0006	
   -23.639	-0.000470954	  -23.7506	-0.000429874	  -23.8002	-0.000429128	  -23.7299	-0.000443319	  -23.7299	   -11.083	
  -23.6586	-0.000474162	  -23.7705	-0.000433394	  -23.8178	-0.000432068	   -23.749	-0.000446541	   -23.749	  -11.1635	
  -23.6766	-0.000477384	   -23.789	-0.000436745	  -23.8352	-0.000435034	  -23.7669	-0.000449721	  -23.7669	   -11.243	
  -23.6936	-0.000480561	  -23.8074	-0.000439965	  -23.8522	-0.000438064	  -23.7844	-0.000452863	  -23.7844	  -11.3216	
  -23.7098	-0.000483671	  -23.8247	-0.000443116	  -23.8681	-0.000441193	  -23.8009	-0.000455993	  -23.8009	  -11.3998	
   -23.724	-0.000486694	  -23.8418	-0.000446277	  -23.8821	-0.000444433	   -23.816	-0.000459135	   -23.816	  -11.4784	
  -23.7374	-0.000489607	  -23.8576	-0.000449509	   -23.896	-0.000447747	  -23.8303	-0.000462288	  -23.8303	  -11.5572	
  -23.7504	-0.000492409	  -23.8726	-0.000452863	  -23.9085	-0.000451088	  -23.8438	-0.000465453	  -23.8438	  -11.6363	
   -23.762	-0.00049513	  -23.8864	-0.000456345	  -23.9204	-0.000454388	  -23.8563	-0.000468621	  -23.8563	  -11.7155	
  -23.7728	-0.000497795	   -23.899	-0.000459929	  -23.9311	-0.000457583	  -23.8676	-0.000471769	  -23.8676	  -11.7942	
  -23.7828	-0.00050046	  -23.9105	-0.000463562	  -23.9412	-0.000460635	  -23.8782	-0.000474886	  -23.8782	  -11.8721	
  -23.7921	-0.000503157	  -23.9204	-0.000467151	  -23.9496	-0.000463523	  -23.8874	-0.000477943	  -23.8874	  -11.9486	
  -23.8002	-0.000505926	  -23.9295	-0.000470628	  -23.9573	-0.000466271	  -23.8957	-0.000480942	  -23.8957	  -12.0235	
  -23.8071	-0.000508773	  -23.9377	-0.000473951	   -23.964	-0.000468931	  -23.9029	-0.000483885	  -23.9029	  -12.0971	
  -23.8125	-0.000511669	   -23.945	-0.000477081	  -23.9703	-0.000471558	  -23.9092	-0.000486769	  -23.9092	  -12.1692	
  -23.8173	-0.000514591	   -23.952	-0.000480049	  -23.9757	-0.000474225	   -23.915	-0.000489622	   -23.915	  -12.2405	
  -23.8218	-0.000517472	  -23.9581	-0.000482906	  -23.9802	-0.000476979	    -23.92	-0.000492453	    -23.92	  -12.3113	
  -23.8253	-0.000520256	  -23.9629	-0.000485718	  -23.9845	-0.000479849	  -23.9242	-0.000495274	  -23.9242	  -12.3819	
  -23.8279	-0.00052291	   -23.968	-0.000488562	  -23.9869	-0.000482834	  -23.9276	-0.000498102	  -23.9276	  -12.4526	
  -23.8298	-0.000525407	  -23.9718	-0.000491504	  -23.9892	-0.000485892	  -23.9303	-0.000500935	  -23.9303	  -12.5234	
  -23.8309	-0.00052777	  -23.9745	-0.000494571	  -23.9904	-0.000488968	  -23.9319	-0.00050377	  -23.9319	  -12.5942	
  -23.8308	-0.00053004	  -23.9761	-0.000497752	  -23.9899	-0.000492002	  -23.9322	-0.000506598	  -23.9322	  -12.6649	
  -23.8295	-0.000532264	  -23.9771	-0.000501007	   -23.989	-0.000494935	  -23.9319	-0.000509402	  -23.9319	  -12.7351	
  -23.8273	-0.00053451	  -23.9772	-0.000504272	  -23.9867	-0.000497736	  -23.9304	-0.000512172	  -23.9304	  -12.8043	
  -23.8236	-0.00053681	  -23.9764	-0.000507469	  -23.9836	-0.000500396	  -23.9279	-0.000514892	  -23.9279	  -12.8723	
  -23.8196	-0.000539198	  -23.9753	-0.000510548	  -23.9798	-0.000502933	  -23.9249	-0.00051756	  -23.9249	   -12.939	
  -23.8144	-0.000541675	  -23.9729	-0.000513471	  -23.9754	-0.000505392	  -23.9209	-0.000520179	  -23.9209	  -13.0045	
  -23.8082	-0.000544204	   -23.969	-0.000516231	    -23.97	-0.000507829	  -23.9158	-0.000522755	  -23.9158	  -13.0689	
   -23.801	-0.000546742	  -23.9646	-0.000518853	  -23.9636	-0.000510298	  -23.9097	-0.000525298	  -23.9097	  -13.1324	
  -23.7923	-0.000549234	  -23.9587	-0.00052139	  -23.9558	-0.000512838	  -23.9022	-0.000527821	  -23.9022	  -13.1955	
  -23.7828	-0.000551625	  -23.9513	-0.000523901	  -23.9467	-0.000515465	  -23.8936	-0.00053033	  -23.8936	  -13.2583	
   -23.772	-0.000553894	  -23.9437	-0.000526444	   -23.937	-0.000518169	  -23.8843	-0.000532836	  -23.8843	  -13.3209	
  -23.7607	-0.00055603	   -23.935	-0.000529059	  -23.9262	-0.000520919	   -23.874	-0.000535336	   -23.874	  -13.3834	
  -23.7489	-0.000558061	  -23.9246	-0.000531764	  -23.9145	-0.000523668	  -23.8627	-0.000537831	  -23.8627	  -13.4458	
  -23.7362	-0.000560033	  -23.9133	-0.000534546	  -23.9014	-0.000526363	  -23.8503	-0.000540314	  -23.8503	  -13.5078	
   -23.723	-0.000561994	  -23.9015	-0.000537372	  -23.8879	-0.000528963	  -23.8375	-0.000542777	  -23.8375	  -13.5694	
  -23.7091	-0.000564001	  -23.8889	-0.00054019	  -23.8744	-0.000531445	  -23.8241	-0.000545212	  -23.8241	  -13.6303	
  -23.6946	-0.000566084	  -23.8758	-0.000542945	  -23.8598	-0.000533857	    -23.81	-0.000547629	    -23.81	  -13.6907	
  -23.6795	-0.000568252	   -23.861	-0.000545595	  -23.8448	-0.000536195	  -23.7951	-0.000550014	  -23.7951	  -13.7503	
  -23.6635	-0.000570484	  -23.8443	-0.000548115	  -23.8295	-0.000538466	  -23.7791	-0.000552355	  -23.7791	  -13.8089	
  -23.6467	-0.000572737	   -23.827	-0.000550508	  -23.8139	-0.000540721	  -23.7625	-0.000554655	  -23.7625	  -13.8664	
  -23.6291	-0.000574965	  -23.8086	-0.000552804	  -23.7971	-0.000542975	   -23.745	-0.000556915	   -23.745	  -13.9229	
   -23.611	-0.000577117	  -23.7893	-0.000555051	  -23.7803	-0.000545237	  -23.7269	-0.000559135	  -23.7269	  -13.9784	
  -23.5921	-0.000579155	  -23.7689	-0.000557301	  -23.7626	-0.000547511	  -23.7079	-0.000561322	  -23.7079	  -14.0331	
  -23.5729	-0.000581067	   -23.748	-0.000559598	  -23.7446	-0.000549788	  -23.6885	-0.000563484	  -23.6885	  -14.0871	
  -23.5529	-0.000582866	  -23.7259	-0.000561967	  -23.7263	-0.000552067	  -23.6684	-0.000565633	  -23.6684	  -14.1408	
  -23.5317	-0.000584587	   -23.703	-0.000564413	  -23.7067	-0.000554328	  -23.6471	-0.000567776	  -23.6471	  -14.1944	
  -23.5095	-0.000586277	  -23.6794	-0.000566913	  -23.6861	-0.000556555	   -23.625	-0.000569915	   -23.625	  -14.2479	
  -23.4864	-0.000587978	  -23.6547	-0.000569427	  -23.6646	-0.00055876	  -23.6019	-0.000572055	  -23.6019	  -14.3014	
   -23.461	-0.000589737	   -23.629	-0.000571907	  -23.6419	-0.000560944	  -23.5773	-0.000574196	  -23.5773	  -14.3549	
  -23.4342	-0.00059157	   -23.602	-0.00057431	  -23.6174	-0.00056311	  -23.5512	-0.00057633	  -23.5512	  -14.4083	
   -23.406	-0.00059348	  -23.5741	-0.000576601	  -23.5917	-0.000565272	  -23.5239	-0.000578451	  -23.5239	  -14.4613	
  -23.3766	-0.000595443	  -23.5441	-0.000578768	  -23.5648	-0.000567429	  -23.4952	-0.000580547	  -23.4952	  -14.5137	
   -23.347	-0.000597416	  -23.5146	-0.000580822	  -23.5363	-0.000569582	   -23.466	-0.000582607	   -23.466	  -14.5652	
  -23.3166	-0.000599359	  -23.4844	-0.000582801	  -23.5071	-0.000571718	   -23.436	-0.000584626	   -23.436	  -14.6156	
   -23.285	-0.000601227	  -23.4533	-0.000584747	  -23.4761	-0.000573823	  -23.4048	-0.000586599	  -23.4048	   -14.665	
   -23.252	-0.000602991	  -23.4209	-0.000586651	  -23.4447	-0.00057589	  -23.3725	-0.00058851	  -23.3725	  -14.7128	
  -23.2184	-0.000604644	  -23.3868	-0.000588595	  -23.4125	-0.000577906	  -23.3392	-0.000590382	  -23.3392	  -14.7595	
  -23.1842	-0.000606191	  -23.3519	-0.000590593	  -23.3797	-0.000579869	  -23.3052	-0.000592217	  -23.3052	  -14.8054	
  -23.1488	-0.000607665	  -23.3147	-0.000592619	  -23.3451	-0.000581785	  -23.2695	-0.000594023	  -23.2695	  -14.8506	
  -23.1123	-0.000609107	  -23.2772	-0.000594723	  -23.3098	-0.000583669	  -23.2331	-0.000595833	  -23.2331	  -14.8958	
  -23.0748	-0.000610561	  -23.2374	-0.000596878	  -23.2734	-0.000585501	  -23.1952	-0.000597647	  -23.1952	  -14.9412	
  -23.0365	-0.000612066	  -23.1955	-0.000599066	  -23.2367	-0.000587297	  -23.1562	-0.000599476	  -23.1562	  -14.9869	
  -22.9965	-0.000613636	  -23.1547	-0.000601273	  -23.1998	-0.00058909	   -23.117	-0.000601333	   -23.117	  -15.0333	
  -22.9558	-0.000615271	  -23.1117	-0.000603445	  -23.1613	-0.000590863	  -23.0762	-0.000603193	  -23.0762	  -15.0798	
  -22.9138	-0.00061695	  -23.0663	-0.000605584	  -23.1215	-0.00059264	  -23.0339	-0.000605058	  -23.0339	  -15.1264	
   -22.871	-0.000618626	  -23.0236	-0.000607629	  -23.0815	-0.000594438	   -22.992	-0.000606898	   -22.992	  -15.1724	
  -22.8267	-0.000620259	  -22.9809	-0.000609531	  -23.0406	-0.000596268	  -22.9494	-0.000608686	  -22.9494	  -15.2171	
  -22.7815	-0.000621808	  -22.9367	-0.000611304	  -22.9989	-0.00059813	  -22.9057	-0.000610414	  -22.9057	  -15.2603	
  -22.7351	-0.000623249	  -22.8955	-0.000612938	  -22.9562	-0.000599997	  -22.8623	-0.000612062	  -22.8623	  -15.3015	
  -22.6876	-0.000624534	  -22.8552	-0.000614469	  -22.9126	-0.000601865	  -22.8185	-0.000613623	  -22.8185	  -15.3406	
  -22.6388	-0.000625704	  -22.8132	-0.000615937	  -22.8683	-0.000603707	  -22.7734	-0.000615116	  -22.7734	  -15.3779	
   -22.589	-0.000626838	  -22.7713	-0.000617395	  -22.8231	-0.00060547	  -22.7278	-0.000616568	  -22.7278	  -15.4142	
  -22.5379	-0.000627977	  -22.7292	-0.000618913	  -22.7761	-0.000607141	  -22.6811	-0.00061801	  -22.6811	  -15.4503	
  -22.4857	-0.000629174	  -22.6851	-0.000620508	  -22.7285	-0.000608708	  -22.6331	-0.000619463	  -22.6331	  -15.4866	
  -22.4332	-0.000630499	  -22.6386	-0.000622205	  -22.6797	-0.000610176	  -22.5839	-0.00062096	  -22.5839	   -15.524	
  -22.3802	-0.000631954	  -22.5911	-0.000624019	  -22.6304	-0.000611576	  -22.5339	-0.000622516	  -22.5339	  -15.5629	
  -22.3263	-0.000633518	  -22.5423	-0.000625906	  -22.5808	-0.000612946	  -22.4831	-0.000624123	  -22.4831	  -15.6031	
  -22.2718	-0.000635123	   -22.492	-0.000627829	  -22.5301	-0.000614342	  -22.4313	-0.000625765	  -22.4313	  -15.6441	
  -22.2164	-0.000636707	  -22.4404	-0.000629731	  -22.4774	-0.000615797	  -22.3781	-0.000627412	  -22.3781	  -15.6853	
  -22.1609	-0.000638202	  -22.3883	-0.000631562	  -22.4237	-0.000617322	  -22.3243	-0.000629029	  -22.3243	  -15.7257	
  -22.1049	-0.000639534	  -22.3355	-0.000633297	  -22.3691	-0.000618916	  -22.2699	-0.000630582	  -22.2699	  -15.7646	
  -22.0481	-0.00064067	  -22.2826	-0.000634905	  -22.3137	-0.000620548	  -22.2148	-0.000632041	  -22.2148	   -15.801	
  -21.9897	-0.000641628	  -22.2298	-0.000636397	  -22.2569	-0.000622125	  -22.1588	-0.000633383	  -22.1588	  -15.8346	
  -21.9317	-0.000642445	  -22.1752	-0.00063781	   -22.199	-0.000623631	   -22.102	-0.000634629	   -22.102	  -15.8657	
  -21.8726	-0.000643199	  -22.1203	-0.000639178	  -22.1404	-0.000625049	  -22.0444	-0.000635808	  -22.0444	  -15.8952	
  -21.8127	-0.000643964	  -22.0647	-0.000640557	  -22.0812	-0.000626374	  -21.9862	-0.000636965	  -21.9862	  -15.9241	
  -21.7518	-0.000644816	  -22.0081	-0.00064198	  -22.0208	-0.000627624	  -21.9269	-0.00063814	  -21.9269	  -15.9535	
  -21.6902	-0.000645799	  -21.9503	-0.000643469	  -21.9599	-0.000628824	  -21.8668	-0.000639364	  -21.8668	  -15.9841	
  -21.6281	-0.000646918	  -21.8905	-0.000645029	  -21.8977	-0.000630004	  -21.8054	-0.00064065	  -21.8054	  -16.0163	
  -21.5648	-0.000648155	  -21.8291	-0.000646636	  -21.8347	-0.00063121	  -21.7429	 -0.000642	  -21.7429	    -16.05	
  -21.5006	-0.000649454	  -21.7664	-0.00064826	  -21.7706	-0.000632453	  -21.6792	-0.000643389	  -21.6792	  -16.0847	
  -21.4352	-0.000650735	  -21.7033	-0.000649861	  -21.7055	-0.000633759	  -21.6147	-0.000644785	  -21.6147	  -16.1196	
  -21.3678	-0.000651928	  -21.6383	-0.000651393	  -21.6393	-0.000635112	  -21.5485	-0.000646144	  -21.5485	  -16.1536	
  -21.2994	-0.000652981	   -21.572	-0.000652832	  -21.5723	-0.000636469	  -21.4812	-0.000647427	  -21.4812	  -16.1857	
  -21.2303	-0.000653877	  -21.5051	-0.000654155	  -21.5047	-0.000637812	  -21.4134	-0.000648615	  -21.4134	  -16.2154	
  -21.1602	-0.000654624	   -21.438	-0.000655364	  -21.4363	-0.00063911	  -21.3448	-0.000649699	  -21.3448	  -16.2425	
  -21.0895	-0.000655265	  -21.3697	-0.000656492	  -21.3669	-0.000640326	  -21.2754	-0.000650694	  -21.2754	  -16.2674	
  -21.0182	-0.000655868	  -21.3003	-0.000657583	  -21.2968	-0.000641441	  -21.2051	-0.000651631	  -21.2051	  -16.2908	
  -20.9463	-0.000656498	  -21.2305	-0.000658689	  -21.2257	-0.000642452	  -21.1342	-0.000652546	  -21.1342	  -16.3137	
  -20.8731	-0.000657207	   -21.161	-0.000659865	  -21.1545	-0.000643395	  -21.0629	-0.000653489	  -21.0629	  -16.3372	
  -20.7994	-0.000658021	  -21.0905	-0.000661143	  -21.0825	-0.000644299	  -20.9908	-0.000654488	  -20.9908	  -16.3622	
  -20.7255	-0.000658932	  -21.0182	-0.000662526	  -21.0093	-0.000645189	  -20.9177	-0.000655549	  -20.9177	  -16.3887	
  -20.6511	-0.000659901	  -20.9457	-0.000663994	  -20.9353	-0.000646114	   -20.844	-0.00065667	   -20.844	  -16.4167	
  -20.5756	-0.000660868	   -20.872	-0.000665498	  -20.8609	-0.00064709	  -20.7695	-0.000657819	  -20.7695	  -16.4455	
  -20.4997	-0.000661787	  -20.7981	-0.000666962	  -20.7842	-0.000648121	   -20.694	-0.000658957	   -20.694	  -16.4739	
  -20.4232	-0.000662615	  -20.7238	-0.000668335	  -20.7069	-0.00064919	   -20.618	-0.000660046	   -20.618	  -16.5012	
  -20.3464	-0.00066333	  -20.6488	-0.000669554	  -20.6281	-0.000650263	  -20.5411	-0.000661049	  -20.5411	  -16.5262	
  -20.2686	-0.000663949	  -20.5734	-0.000670591	  -20.5493	-0.000651314	  -20.4638	-0.000661952	  -20.4638	  -16.5488	
  -20.1902	-0.000664496	  -20.4973	-0.000671472	  -20.4695	-0.00065231	  -20.3856	-0.000662759	  -20.3856	   -16.569	
  -20.1107	-0.000665008	  -20.4208	-0.000672223	  -20.3881	-0.000653225	  -20.3066	-0.000663485	  -20.3066	  -16.5871	
  -20.0308	-0.000665527	  -20.3432	-0.000672922	  -20.3061	-0.000654069	  -20.2267	-0.000664173	  -20.2267	  -16.6043	
  -19.9495	-0.000666086	  -20.2644	-0.00067364	  -20.2233	-0.000654862	  -20.1457	-0.000664863	  -20.1457	  -16.6216	
  -19.8673	-0.000666731	   -20.184	-0.000674401	  -20.1399	-0.000655594	  -20.0637	-0.000665575	  -20.0637	  -16.6394	
  -19.7848	-0.000667448	  -20.1032	-0.000675255	  -20.0555	-0.00065633	  -19.9812	-0.000666344	  -19.9812	  -16.6586	
  -19.7015	-0.000668208	  -20.0216	-0.000676212	  -19.9698	-0.000657075	  -19.8976	-0.000667165	  -19.8976	  -16.6791	
  -19.6177	-0.000668986	  -19.9385	-0.000677243	  -19.8835	-0.000657826	  -19.8133	-0.000668018	  -19.8133	  -16.7005	
  -19.5338	-0.000669734	  -19.8549	-0.000678311	  -19.7966	-0.000658589	  -19.7284	-0.000668878	  -19.7284	  -16.7219	
   -19.449	-0.000670402	  -19.7705	-0.000679346	  -19.7094	-0.000659348	   -19.643	-0.000669699	   -19.643	  -16.7425	
  -19.3632	-0.000670966	  -19.6858	-0.000680314	  -19.6211	-0.000660089	  -19.5567	-0.000670456	  -19.5567	  -16.7614	
  -19.2766	-0.000671413	  -19.5999	-0.000681184	  -19.5321	-0.0006608	  -19.4695	-0.000671132	  -19.4695	  -16.7783	
  -19.1898	-0.000671757	  -19.5135	-0.000681932	   -19.443	-0.000661464	  -19.3821	-0.000671718	  -19.3821	  -16.7929	
  -19.1018	-0.000672032	  -19.4256	-0.000682579	  -19.3534	-0.000662101	  -19.2936	-0.000672237	  -19.2936	  -16.8059	
  -19.0131	-0.000672283	  -19.3372	-0.000683143	  -19.2636	-0.000662712	  -19.2046	-0.000672713	  -19.2046	  -16.8178	
  -18.9231	-0.000672569	  -19.2481	-0.000683665	  -19.1734	-0.000663316	  -19.1149	-0.000673183	  -19.1149	  -16.8296	
  -18.8331	-0.000672925	  -19.1575	-0.000684185	  -19.0826	-0.000663941	  -19.0244	-0.000673684	  -19.0244	  -16.8421	
  -18.7425	-0.000673354	   -19.066	-0.000684733	  -18.9921	-0.0006646	  -18.9335	-0.000674229	  -18.9335	  -16.8557	
   -18.651	-0.000673842	  -18.9738	-0.000685328	  -18.9015	-0.000665303	  -18.8421	-0.000674824	  -18.8421	  -16.8706	
  -18.5585	-0.000674357	  -18.8814	-0.000685968	  -18.8098	-0.000666037	  -18.7499	-0.000675454	  -18.7499	  -16.8863	
  -18.4657	-0.000674857	  -18.7887	-0.000686627	  -18.7174	-0.000666782	  -18.6573	-0.000676089	  -18.6573	  -16.9022	
  -18.3728	-0.000675303	  -18.6949	-0.000687282	  -18.6252	-0.000667519	  -18.5643	-0.000676702	  -18.5643	  -16.9175	
  -18.2788	-0.000675654	  -18.6008	-0.000687886	  -18.5327	-0.000668213	  -18.4707	-0.000677251	  -18.4707	  -16.9313	
  -18.1842	-0.000675894	  -18.5057	-0.00068842	  -18.4399	-0.000668841	  -18.3766	-0.000677718	  -18.3766	   -16.943	
  -18.0893	-0.000676049	  -18.4096	-0.000688862	  -18.3459	-0.000669399	  -18.2816	-0.000678103	  -18.2816	  -16.9526	
  -17.9936	-0.000676143	  -18.3123	-0.000689209	  -18.2513	-0.000669888	  -18.1857	-0.000678414	  -18.1857	  -16.9603	
  -17.8973	-0.000676207	  -18.2137	-0.000689499	  -18.1564	-0.000670331	  -18.0891	-0.000678679	  -18.0891	   -16.967	
  -17.8007	-0.000676272	  -18.1153	-0.000689743	  -18.0599	-0.000670752	   -17.992	-0.000678922	   -17.992	  -16.9731	
  -17.7029	-0.0006764	   -18.016	-0.000689982	   -17.963	-0.000671186	   -17.894	-0.000679189	   -17.894	  -16.9797	
  -17.6042	-0.000676593	  -17.9161	-0.000690258	  -17.8649	-0.000671662	  -17.7951	-0.000679504	  -17.7951	  -16.9876	
  -17.5048	-0.000676828	  -17.8144	-0.00069058	  -17.7659	-0.000672188	   -17.695	-0.000679865	   -17.695	  -16.9966	
  -17.4052	-0.000677076	  -17.7123	-0.000690968	  -17.6665	-0.00067276	  -17.5947	-0.000680268	  -17.5947	  -17.0067	
  -17.3048	-0.000677297	  -17.6098	-0.000691405	   -17.566	-0.00067336	  -17.4935	-0.000680688	  -17.4935	  -17.0172	
  -17.2038	-0.000677424	  -17.5072	-0.000691863	  -17.4642	-0.000673959	  -17.3918	-0.000681082	  -17.3918	  -17.0271	
  -17.1028	-0.000677424	  -17.4037	-0.000692326	  -17.3617	-0.000674527	  -17.2894	-0.000681426	  -17.2894	  -17.0356	
   -17.002	-0.000677274	  -17.2999	-0.000692747	  -17.2584	-0.000675036	  -17.1868	-0.000681686	  -17.1868	  -17.0421	
  -16.9001	-0.000677016	  -17.1954	-0.000693096	  -17.1538	-0.000675473	  -17.0831	-0.000681861	  -17.0831	  -17.0465	
  -16.7966	-0.000676684	  -17.0901	-0.000693392	  -17.0493	-0.000675832	  -16.9787	-0.000681969	  -16.9787	  -17.0492	
   -16.692	-0.000676323	  -16.9836	-0.000693621	  -16.9435	-0.000676121	   -16.873	-0.000682022	   -16.873	  -17.0505	
  -16.5871	-0.000676026	  -16.8763	-0.000693785	  -16.8374	-0.000676364	  -16.7669	-0.000682058	  -16.7669	  -17.0515	
  -16.4814	-0.000675854	   -16.768	-0.000693898	   -16.731	-0.000676585	  -16.6601	-0.000682112	  -16.6601	  -17.0528	
  -16.3747	-0.000675802	  -16.6593	-0.000693974	   -16.625	-0.000676808	   -16.553	-0.000682195	   -16.553	  -17.0549	
  -16.2664	-0.000675883	  -16.5494	-0.00069402	  -16.5177	-0.000677054	  -16.4445	-0.000682319	  -16.4445	   -17.058	
  -16.1575	-0.000676041	  -16.4383	-0.000694053	   -16.409	-0.000677332	   -16.335	-0.000682476	   -16.335	  -17.0619	
  -16.0483	-0.000676214	  -16.3264	-0.000694094	  -16.2994	-0.000677642	  -16.2247	-0.00068265	  -16.2247	  -17.0662	
  -15.9383	-0.000676317	  -16.2142	-0.000694161	  -16.1888	-0.000677967	  -16.1138	-0.000682815	  -16.1138	  -17.0704	
  -15.8279	-0.000676279	  -16.1021	-0.00069425	  -16.0787	-0.000678288	  -16.0029	-0.000682939	  -16.0029	  -17.0735	
   -15.717	-0.000676073	  -15.9899	-0.000694352	   -15.968	-0.000678579	  -15.8916	-0.000683002	  -15.8916	   -17.075	
   -15.605	-0.000675695	   -15.877	-0.000694474	  -15.8569	-0.000678818	  -15.7796	-0.000682996	  -15.7796	  -17.0749	
  -15.4928	-0.000675165	  -15.7639	-0.000694627	  -15.7465	-0.000678988	  -15.6677	-0.000682926	  -15.6677	  -17.0732	
  -15.3792	-0.000674554	  -15.6503	-0.000694793	  -15.6355	-0.000679083	   -15.555	-0.00068281	   -15.555	  -17.0703	
  -15.2644	-0.000673929	   -15.536	-0.000694955	  -15.5243	-0.000679114	  -15.4416	-0.000682666	  -15.4416	  -17.0666	
  -15.1487	-0.000673364	  -15.4216	-0.000695101	  -15.4122	-0.000679097	  -15.3275	-0.000682521	  -15.3275	   -17.063	
   -15.032	-0.000672906	  -15.3065	-0.000695221	  -15.2997	-0.000679057	  -15.2127	-0.000682395	  -15.2127	  -17.0599	
  -14.9149	-0.000672564	  -15.1905	-0.000695301	  -15.1856	-0.000679017	   -15.097	-0.000682294	   -15.097	  -17.0574	
  -14.7966	-0.000672336	  -15.0742	-0.000695335	  -15.0705	-0.000678997	  -14.9805	-0.000682222	  -14.9805	  -17.0556	
  -14.6772	-0.000672162	   -14.957	-0.000695326	  -14.9548	-0.000679003	   -14.863	-0.000682164	   -14.863	  -17.0541	
  -14.5571	-0.000671972	  -14.8391	-0.000695284	  -14.8378	-0.000679035	  -14.7447	-0.000682097	  -14.7447	  -17.0524	
  -14.4358	-0.000671709	  -14.7213	-0.000695211	  -14.7201	-0.000679078	  -14.6257	-0.000681999	  -14.6257	    -17.05	
  -14.3131	-0.000671309	  -14.6025	-0.000695121	  -14.6019	-0.000679111	  -14.5059	-0.000681847	  -14.5059	  -17.0462	
  -14.1897	-0.00067076	  -14.4835	-0.000695022	  -14.4839	-0.00067911	  -14.3857	-0.000681631	  -14.3857	  -17.0408	
  -14.0649	-0.000670043	  -14.3641	-0.000694916	  -14.3643	-0.000679056	  -14.2644	-0.000681338	  -14.2644	  -17.0335	
  -13.9398	-0.000669217	  -14.2438	-0.000694805	  -14.2442	-0.000678936	  -14.1426	-0.000680986	  -14.1426	  -17.0247	
  -13.8144	-0.000668357	  -14.1224	-0.000694682	  -14.1236	-0.000678751	  -14.0201	-0.000680596	  -14.0201	  -17.0149	
  -13.6881	-0.000667498	  -14.0005	-0.000694543	  -14.0028	-0.000678509	  -13.8971	-0.000680184	  -13.8971	  -17.0046	
  -13.5613	-0.000666735	  -13.8784	-0.000694378	  -13.8807	-0.000678231	  -13.7735	-0.000679781	  -13.7735	  -16.9945	
   -13.434	-0.000666112	  -13.7557	-0.000694185	  -13.7578	-0.000677934	  -13.6492	-0.000679411	  -13.6492	  -16.9853	
  -13.3063	-0.000665624	  -13.6318	-0.000693924	  -13.6345	-0.000677643	  -13.5242	-0.000679063	  -13.5242	  -16.9766	
  -13.1786	-0.000665257	  -13.5065	-0.000693614	  -13.5103	-0.000677367	  -13.3985	-0.000678746	  -13.3985	  -16.9687	
  -13.0506	-0.000664948	   -13.381	-0.00069329	  -13.3862	-0.000677109	  -13.2726	-0.000678449	  -13.2726	  -16.9612	
  -12.9218	-0.000664635	  -13.2551	-0.000692958	  -13.2616	-0.000676862	  -13.1462	-0.000678152	  -13.1462	  -16.9538	
  -12.7927	-0.000664243	  -13.1289	-0.000692638	  -13.1359	-0.000676613	  -13.0191	-0.000677831	  -13.0191	  -16.9458	
  -12.6632	-0.000663689	  -13.0016	-0.000692377	  -13.0095	-0.000676341	  -12.8914	-0.000677469	  -12.8914	  -16.9367	
  -12.5332	-0.000662965	  -12.8743	-0.000692185	  -12.8835	-0.000676028	  -12.7637	-0.00067706	  -12.7637	  -16.9265	
  -12.4033	-0.000662091	  -12.7464	-0.00069206	  -12.7568	-0.000675664	  -12.6355	-0.000676605	  -12.6355	  -16.9151	
  -12.2728	-0.000661084	  -12.6183	-0.000691959	  -12.6293	-0.000675246	  -12.5068	-0.000676096	  -12.5068	  -16.9024	
  -12.1422	-0.000660027	  -12.4901	-0.000691841	   -12.502	-0.000674774	  -12.3781	-0.000675547	  -12.3781	  -16.8887	
  -12.0114	-0.000658988	  -12.3615	-0.000691661	  -12.3742	-0.000674258	   -12.249	-0.000674969	   -12.249	  -16.8742	
  -11.8792	-0.000658039	  -12.2321	-0.000691349	  -12.2454	-0.000673715	  -12.1189	-0.000674368	  -12.1189	  -16.8592	
  -11.7464	-0.000657222	  -12.1022	-0.000690875	  -12.1155	-0.00067316	   -11.988	-0.000673752	   -11.988	  -16.8438	
  -11.6127	-0.000656548	  -11.9719	-0.000690245	  -11.9851	-0.000672603	  -11.8566	-0.000673132	  -11.8566	  -16.8283	
  -11.4788	-0.000655993	  -11.8412	-0.000689483	  -11.8546	-0.000672053	  -11.7249	-0.000672509	  -11.7249	  -16.8127	
   -11.344	-0.000655511	  -11.7098	-0.000688643	   -11.724	-0.000671506	  -11.5926	-0.000671887	  -11.5926	  -16.7972	
   -11.209	-0.000655016	  -11.5782	-0.00068778	  -11.5925	-0.000670954	  -11.4599	-0.00067125	  -11.4599	  -16.7813	
  -11.0731	-0.000654441	  -11.4469	-0.000686967	  -11.4603	-0.000670385	  -11.3268	-0.000670598	  -11.3268	  -16.7649	
  -10.9379	-0.000653723	  -11.3138	-0.000686268	  -11.3278	-0.000669786	  -11.1932	-0.000669926	  -11.1932	  -16.7481	
  -10.8016	-0.000652836	  -11.1801	-0.000685694	   -11.195	-0.000669148	  -11.0589	-0.000669226	  -11.0589	  -16.7306	
  -10.6648	-0.000651784	  -11.0461	-0.000685242	  -11.0623	-0.000668469	  -10.9244	-0.000668498	  -10.9244	  -16.7125	
  -10.5281	-0.000650613	  -10.9124	-0.00068489	  -10.9287	-0.000667756	  -10.7897	-0.000667753	  -10.7897	  -16.6938	
  -10.3913	-0.000649392	  -10.7778	-0.000684573	  -10.7951	-0.000667024	  -10.6547	-0.000666996	  -10.6547	  -16.6749	
  -10.2538	-0.0006482	  -10.6424	-0.000684213	   -10.661	-0.000666279	   -10.519	-0.000666231	   -10.519	  -16.6558	
  -10.1152	-0.000647096	  -10.5066	-0.000683756	  -10.5263	-0.000665537	  -10.3827	-0.000665463	  -10.3827	  -16.6366	
  -9.97502	-0.000646122	  -10.3709	-0.000683153	  -10.3915	-0.000664801	  -10.2458	-0.000664692	  -10.2458	  -16.6173	
  -9.83476	-0.000645274	  -10.2353	-0.000682391	  -10.2555	-0.000664063	  -10.1085	-0.00066391	  -10.1085	  -16.5977	
  -9.69441	-0.000644514	  -10.0996	-0.000681484	  -10.1194	-0.00066332	  -9.97113	-0.000663106	  -9.97113	  -16.5777	
   -9.5534	-0.000643779	  -9.96329	-0.00068048	  -9.98312	-0.000662559	  -9.83327	-0.000662273	  -9.83327	  -16.5568	
  -9.41279	-0.000642996	  -9.82687	-0.00067943	  -9.84661	-0.000661749	  -9.69542	-0.000661392	  -9.69542	  -16.5348	
  -9.27247	-0.000642098	  -9.68975	-0.000678396	  -9.70823	-0.000660894	  -9.55682	-0.000660462	  -9.55682	  -16.5116	
  -9.13225	-0.000641042	  -9.55245	-0.000677424	  -9.56967	-0.000659975	  -9.41812	-0.00065948	  -9.41812	   -16.487	
  -8.99113	-0.000639813	  -9.41491	-0.000676552	  -9.43138	-0.000659002	  -9.27914	-0.000658455	  -9.27914	  -16.4614	
   -8.8502	-0.000638432	  -9.27708	-0.000675775	  -9.29277	-0.00065799	  -9.14002	-0.000657399	  -9.14002	   -16.435	
   -8.7078	-0.000636954	  -9.13841	-0.00067507	   -9.1538	-0.000656943	        -9	-0.000656322	        -9	  -16.4081	
  -8.56452	-0.000635444	  -8.99994	-0.000674384	  -9.01496	-0.000655877	  -8.85981	-0.000655235	  -8.85981	  -16.3809	
  -8.42146	-0.000633869	  -8.86108	-0.000673663	  -8.87566	-0.000654812	   -8.7194	-0.000654115	   -8.7194	  -16.3529	
  -8.27906	-0.000632333	  -8.72232	-0.000672855	  -8.73639	-0.000653741	  -8.57925	-0.000652976	  -8.57925	  -16.3244	
  -8.13617	-0.000630927	  -8.58358	-0.000671922	  -8.59657	-0.000652677	  -8.43878	-0.000651842	  -8.43878	  -16.2961	
  -7.99266	-0.00062964	  -8.44456	-0.000670847	  -8.45606	-0.000651613	  -8.29776	-0.0006507	  -8.29776	  -16.2675	
  -7.84815	-0.000628461	  -8.30546	-0.00066964	    -8.315	-0.000650542	   -8.1562	-0.000649548	   -8.1562	  -16.2387	
  -7.70108	-0.000627431	  -8.16572	-0.00066834	  -8.17441	-0.000649457	  -8.01374	-0.000648409	  -8.01374	  -16.2102	
  -7.55165	-0.000626483	  -8.02532	-0.000667003	  -8.03422	-0.000648339	   -7.8704	-0.000647275	   -7.8704	  -16.1819	
  -7.40421	-0.000625548	  -7.88479	-0.000665684	  -7.89432	-0.000647179	  -7.72777	-0.000646137	  -7.72777	  -16.1534	
  -7.25648	-0.00062452	  -7.74409	-0.000664433	  -7.75411	-0.000645973	  -7.58489	-0.000644975	  -7.58489	  -16.1244	
  -7.10634	-0.000623353	  -7.60213	-0.000663274	   -7.6141	-0.000644713	  -7.44086	-0.00064378	  -7.44086	  -16.0945	
  -6.95974	-0.000622021	  -7.45948	-0.000662211	   -7.4742	-0.000643407	  -7.29781	-0.000642546	  -7.29781	  -16.0637	
  -6.81634	-0.000620481	  -7.31629	-0.000661215	  -7.33382	-0.000642063	  -7.15548	-0.000641253	  -7.15548	  -16.0313	
  -6.66957	-0.000618735	  -7.17294	-0.000660238	  -7.19243	-0.000640697	  -7.01164	-0.00063989	  -7.01164	  -15.9972	
  -6.52436	-0.00061686	  -7.02992	-0.000659217	  -7.05057	-0.000639325	  -6.86829	-0.000638468	  -6.86829	  -15.9617	
  -6.38266	-0.000614921	  -6.88612	-0.000658099	  -6.90824	-0.000637957	  -6.72567	-0.000636992	  -6.72567	  -15.9248	
  -6.23993	-0.000613006	  -6.74155	-0.000656846	  -6.76594	-0.000636601	  -6.58247	-0.000635484	  -6.58247	  -15.8871	
  -6.09621	-0.000611177	  -6.59728	-0.000655448	  -6.62311	-0.000635261	  -6.43887	-0.000633962	  -6.43887	  -15.8491	
   -5.9531	-0.000609477	  -6.45377	-0.000653921	  -6.47922	-0.000633924	  -6.29536	-0.000632441	  -6.29536	   -15.811	
  -5.80895	-0.000607918	  -6.30934	-0.000652311	  -6.33482	-0.000632581	  -6.15104	-0.000630937	  -6.15104	  -15.7734	
  -5.66418	-0.000606455	  -6.16442	-0.000650675	   -6.1894	-0.000631256	    -6.006	-0.000629462	    -6.006	  -15.7366	
  -5.51945	-0.00060503	  -6.01861	-0.000649068	  -6.04301	-0.000629911	  -5.86036	-0.000628003	  -5.86036	  -15.7001	
  -5.37421	-0.000603589	  -5.87247	-0.000647532	  -5.89673	-0.000628529	  -5.71447	-0.00062655	  -5.71447	  -15.6637	
  -5.22793	-0.000602054	  -5.72599	-0.000646082	  -5.74999	-0.000627086	  -5.56797	-0.000625074	  -5.56797	  -15.6268	
  -5.08119	-0.000600379	  -5.57917	-0.000644705	  -5.60384	-0.000625582	   -5.4214	-0.000623555	   -5.4214	  -15.5889	
  -4.93398	-0.000598551	    -5.432	-0.00064337	  -5.45821	-0.000623993	  -5.27473	-0.000621971	  -5.27473	  -15.5493	
  -4.78578	-0.000596595	  -5.28499	-0.000642027	  -5.31248	-0.0006223	  -5.12775	-0.000620307	  -5.12775	  -15.5077	
  -4.63876	-0.00059456	  -5.13759	-0.000640627	  -5.16662	-0.000620523	  -4.98099	-0.00061857	  -4.98099	  -15.4643	
  -4.49132	-0.000592501	  -4.98991	-0.00063913	  -5.02101	-0.000618695	  -4.83408	-0.000616775	  -4.83408	  -15.4194	
  -4.34283	-0.000590487	   -4.8413	-0.000637516	  -4.87518	-0.000616823	  -4.68644	-0.000614942	  -4.68644	  -15.3735	
  -4.19438	-0.000588559	  -4.69285	-0.000635788	  -4.72966	-0.000614944	  -4.53896	-0.000613097	  -4.53896	  -15.3274	
  -4.04647	-0.000587096	  -4.54399	-0.000633871	  -4.58436	-0.000613078	  -4.39161	-0.000611349	  -4.39161	  -15.2837	
  -3.89797	-0.000585547	  -4.39578	-0.000631898	  -4.43871	-0.000611282	  -4.24416	-0.000609576	  -4.24416	  -15.2394	
  -3.74943	-0.000583836	   -4.2471	-0.000629926	  -4.29376	-0.000609557	  -4.09676	-0.000607773	  -4.09676	  -15.1943	
  -3.60082	-0.000581924	  -4.09794	-0.000628002	  -4.14782	-0.000607881	  -3.94886	-0.000605936	  -3.94886	  -15.1484	
  -3.45161	-0.00057981	  -3.94938	-0.000626162	  -4.00304	-0.000606233	  -3.80134	-0.000604068	  -3.80134	  -15.1017	
