# User: ACHyster
# File name: C:/ACHYSTER/ACHyster SENS/SHAMS/CoFe2O4-1gl-water-45 Glycerol-Sens-07-03-2023/CoFe2O4-1gl-water-45 Glycerol- 10_100F- 12 kAm -Sens-07-03-20230001#1.txt
# Saved at: ma. mar. 7 16:41:43 2023
# Hyster Loop (3 iterations). Intensity: 12.0 kA/m; Tuned frequency: 19.8 kHz
# Units x axis: (kA/m)
# Units y axis: "Repeats y" & "Average y" (10^(-3)Am^2); "Mass avg y" (Am^2/kg)
# Magnetic mass: 4e-05 g
# Parameter      	Repeat   1	Repeat   2	Repeat   3	Average   	Sigma     
# H_C (kA/m)     	      10.6	      10.7	      10.6	      10.6	       0.0
# M_R (Am^2/kg)  	      28.8	      27.1	      29.3	      28.4	       0.9
# M_max (Am^2/kg)	      15.1	      14.1	      15.3	      14.9	       0.5
# Area (mJ/kg)   	    1352.2	    1273.3	    1371.3	    1332.3	      42.4
# SAR (W/g)      	      26.7	      25.2	      27.1	      26.3	       0.8
#Repeat 1 x	Repeat 1 y	Repeat 2 x	Repeat 2 y	Repeat 3 x	Repeat 3 y	Average x 	Average y 	Mass avg x 	Mass avg y 
  -1.69018	-0.00121812	  -1.69116	-0.0011433	  -1.69087	-0.00123157	  -1.69074	-0.00119766	  -1.69074	  -29.9416	
  -1.61512	-0.00121529	  -1.61633	-0.00114093	  -1.61592	-0.00122899	  -1.61579	-0.00119507	  -1.61579	  -29.8768	
  -1.54014	-0.00121246	  -1.54157	-0.00113845	  -1.54094	-0.00122643	  -1.54088	-0.00119244	  -1.54088	  -29.8111	
  -1.46509	-0.00120955	  -1.46664	-0.00113603	   -1.4658	-0.00122379	  -1.46584	-0.00118979	  -1.46584	  -29.7447	
  -1.39004	-0.00120666	   -1.3917	-0.00113353	  -1.39069	-0.00122108	  -1.39081	-0.00118709	  -1.39081	  -29.6772	
  -1.31492	-0.00120378	  -1.31686	-0.00113091	  -1.31541	-0.00121838	  -1.31573	-0.00118436	  -1.31573	   -29.609	
  -1.23967	-0.00120084	  -1.24188	-0.00112833	  -1.24004	-0.00121561	  -1.24053	-0.00118159	  -1.24053	  -29.5399	
  -1.16456	-0.0011979	  -1.16698	-0.00112571	  -1.16474	-0.00121275	  -1.16543	-0.00117879	  -1.16543	  -29.4697	
  -1.08924	-0.00119496	  -1.09191	-0.00112295	   -1.0892	-0.00120989	  -1.09012	-0.00117594	  -1.09012	  -29.3984	
  -1.01394	-0.00119197	  -1.01685	-0.00112022	  -1.01368	-0.00120696	  -1.01482	-0.00117305	  -1.01482	  -29.3263	
 -0.938649	-0.00118894	 -0.941671	-0.00111747	 -0.938146	-0.00120394	 -0.939489	-0.00117012	 -0.939489	  -29.2529	
 -0.863246	-0.00118592	  -0.86638	-0.00111458	 -0.862543	-0.00120088	 -0.864057	-0.00116713	 -0.864057	  -29.1782	
 -0.787854	-0.00118283	 -0.791251	-0.00111171	 -0.787096	-0.00119779	 -0.788734	-0.00116411	 -0.788734	  -29.1027	
 -0.712285	-0.00117967	  -0.71604	-0.00110884	 -0.711498	-0.00119461	 -0.713274	-0.00116104	 -0.713274	   -29.026	
 -0.636763	-0.00117654	 -0.640851	-0.00110584	 -0.635924	-0.00119137	 -0.637846	-0.00115792	 -0.637846	  -28.9479	
 -0.561247	-0.00117334	 -0.565592	-0.00110283	 -0.560332	-0.00118814	  -0.56239	-0.00115477	  -0.56239	  -28.8692	
 -0.485701	-0.00117006	 -0.490284	-0.00109982	 -0.484682	-0.00118482	 -0.486889	-0.00115157	 -0.486889	  -28.7891	
 -0.410288	-0.0011668	 -0.415141	-0.00109671	 -0.409044	-0.00118143	 -0.411491	-0.00114832	 -0.411491	  -28.7079	
 -0.334752	-0.00116347	 -0.339802	-0.00109355	 -0.333378	-0.00117805	 -0.335977	-0.00114503	 -0.335977	  -28.6256	
 -0.259268	-0.00116005	 -0.264498	-0.00109041	   -0.2578	-0.00117459	 -0.260522	-0.00114168	 -0.260522	  -28.5421	
 -0.183744	-0.00115665	 -0.189188	-0.00108717	 -0.182163	-0.00117109	 -0.185032	-0.0011383	 -0.185032	  -28.4575	
 -0.108143	-0.0011532	 -0.113782	-0.00108386	 -0.106485	-0.00116758	  -0.10947	-0.00113488	  -0.10947	  -28.3721	
 -0.032689	-0.00114966	-0.0384535	-0.00108058	-0.0309352	-0.00116399	-0.0340259	-0.00113141	-0.0340259	  -28.2853	
 0.0429261	-0.00114614	 0.0369454	-0.00107721	 0.0447415	-0.00116036	 0.0415377	-0.0011279	 0.0415377	  -28.1976	
  0.118473	-0.0011426	  0.112297	-0.00107378	  0.120318	-0.00115671	   0.11703	-0.00112436	   0.11703	   -28.109	
  0.193996	-0.00113895	  0.187593	-0.00107036	  0.195842	-0.00115298	  0.192477	-0.00112077	  0.192477	  -28.0192	
  0.269589	-0.00113532	  0.262982	-0.00106684	  0.271408	-0.0011492	  0.267993	-0.00111712	  0.267993	   -27.928	
  0.345032	-0.00113169	   0.33819	-0.00106321	  0.346855	-0.0011454	  0.343359	-0.00111343	  0.343359	  -27.8358	
  0.420579	-0.00112794	  0.413527	-0.00105966	  0.422378	-0.00114152	  0.418828	-0.00110971	  0.418828	  -27.7427	
  0.496057	-0.00112418	  0.488819	-0.00105604	  0.497807	-0.00113758	  0.494228	-0.00110593	  0.494228	  -27.6483	
  0.571589	-0.00112042	  0.564243	-0.00105229	  0.573322	-0.00113362	  0.569718	-0.00110211	  0.569718	  -27.5527	
  0.647181	-0.00111656	  0.639743	-0.00104862	  0.648873	-0.0011296	  0.645265	-0.00109826	  0.645265	  -27.4565	
   0.72266	-0.00111267	  0.715095	-0.00104488	  0.724288	-0.00112548	  0.720681	-0.00109434	  0.720681	  -27.3586	
  0.798223	-0.00110879	  0.790603	-0.00104104	   0.79982	-0.00112133	  0.796215	-0.00109039	  0.796215	  -27.2597	
  0.873754	-0.00110481	  0.866044	-0.00103726	  0.875248	-0.00111716	  0.871682	-0.00108641	  0.871682	  -27.1603	
   0.94916	-0.00110081	  0.941322	-0.00103342	  0.950534	-0.00111287	  0.947005	-0.00108236	  0.947005	  -27.0591	
   1.02458	-0.00109677	   1.01663	-0.00102949	   1.02587	-0.00110858	   1.02236	-0.00107828	   1.02236	   -26.957	
   1.09979	-0.00109263	   1.09181	-0.00102563	   1.10103	-0.00110427	   1.09754	-0.00107418	   1.09754	  -26.8544	
   1.17516	-0.00108847	   1.16704	-0.00102173	   1.17627	-0.00109982	   1.17282	-0.00107001	   1.17282	  -26.7502	
   1.25066	-0.00108428	   1.24222	-0.00101774	   1.25143	-0.00109538	    1.2481	-0.0010658	    1.2481	  -26.6451	
   1.32602	  -0.00108	    1.3173	-0.00101379	   1.32655	-0.00109092	   1.32329	-0.00106157	   1.32329	  -26.5393	
   1.40127	-0.00107575	   1.39247	-0.00100984	   1.40168	-0.00108634	   1.39847	-0.00105731	   1.39847	  -26.4327	
   1.47658	-0.00107139	   1.46746	-0.00100578	   1.47659	-0.00108178	   1.47354	-0.00105299	   1.47354	  -26.3246	
   1.55172	-0.00106691	   1.54244	-0.00100175	   1.55167	-0.00107724	   1.54861	-0.00104863	   1.54861	  -26.2158	
   1.62687	-0.00106247	   1.61739	-0.00099771	   1.62667	-0.00107258	   1.62364	-0.00104425	   1.62364	  -26.1064	
    1.7019	-0.00105798	   1.69215	-0.000993565	    1.7016	-0.00106788	   1.69855	-0.00103981	   1.69855	  -25.9952	
   1.77686	-0.00105334	   1.76688	-0.000989412	   1.77655	-0.00106326	   1.77343	-0.00103534	   1.77343	  -25.8834	
    1.8517	-0.00104873	   1.84148	-0.000985265	   1.85131	-0.00105859	   1.84816	-0.00103086	   1.84816	  -25.7715	
   1.92642	-0.00104412	   1.91599	-0.000981018	   1.92594	-0.00105384	   1.92278	-0.00102633	   1.92278	  -25.6581	
   2.00112	-0.00103938	   1.99052	-0.000976739	   2.00054	-0.00104915	   1.99739	-0.00102175	   1.99739	  -25.5439	
    2.0756	-0.00103464	   2.06486	-0.000972452	   2.07495	-0.00104442	    2.0718	-0.00101717	    2.0718	  -25.4293	
   2.15011	-0.00102993	   2.13916	-0.000968058	   2.14939	-0.00103962	   2.14622	-0.00101254	   2.14622	  -25.3134	
   2.22449	-0.00102511	   2.21337	-0.000963627	   2.22368	-0.00103483	   2.22051	-0.00100785	   2.22051	  -25.1963	
   2.29869	-0.00102026	   2.28738	-0.000959209	   2.29779	-0.00103002	   2.29462	-0.00100316	   2.29462	  -25.0791	
   2.37293	-0.00101545	   2.36137	-0.000954651	   2.37192	-0.00102511	   2.36874	-0.000998403	   2.36874	  -24.9601	
   2.44694	-0.00101054	   2.43517	-0.000950007	   2.44587	-0.00102018	   2.44266	-0.000993574	   2.44266	  -24.8394	
   2.52084	-0.00100564	   2.50895	-0.000945411	    2.5198	-0.00101523	   2.51653	-0.000988763	   2.51653	  -24.7191	
   2.59467	-0.00100077	    2.5827	-0.000940724	   2.59365	-0.00101018	   2.59034	-0.000983889	   2.59034	  -24.5972	
   2.66825	-0.000995752	   2.65623	-0.000935932	   2.66727	-0.00100507	   2.66391	-0.000978919	   2.66391	   -24.473	
   2.74183	-0.000990737	   2.72968	-0.000931156	   2.74098	-0.000999953	    2.7375	-0.000973949	    2.7375	  -24.3487	
   2.81526	-0.000985761	   2.80302	-0.000926362	   2.81452	-0.000994734	   2.81093	-0.000968952	   2.81093	  -24.2238	
   2.88857	-0.000980652	   2.87616	-0.000921508	   2.88796	-0.000989457	   2.88423	-0.000963872	   2.88423	  -24.0968	
   2.96189	-0.000975487	   2.94936	-0.000916632	   2.96138	-0.000984134	   2.95754	-0.000958751	   2.95754	  -23.9688	
   3.03497	-0.000970352	   3.02235	-0.000911734	   3.03465	-0.000978724	   3.03065	-0.000953603	   3.03065	  -23.8401	
   3.10792	-0.000965105	   3.09529	-0.000906805	   3.10805	-0.000973335	   3.10376	-0.000948415	   3.10376	  -23.7104	
    3.1808	-0.000959769	    3.1682	-0.000901868	   3.18113	-0.000967868	   3.17671	-0.000943168	   3.17671	  -23.5792	
   3.25348	-0.000954462	   3.24081	-0.000896917	    3.2538	-0.000962206	   3.24936	-0.000937861	   3.24936	  -23.4465	
   3.32611	-0.000949068	   3.31341	-0.000891928	   3.32649	-0.000956617	     3.322	-0.000932537	     3.322	  -23.3134	
   3.39859	-0.000943574	   3.38589	-0.000886921	   3.39907	-0.000951053	   3.39451	-0.000927183	   3.39451	  -23.1796	
   3.47084	-0.000938098	     3.458	-0.000881904	   3.47133	-0.000945254	   3.46672	-0.000921752	   3.46672	  -23.0438	
   3.54308	-0.000932556	   3.53014	-0.000876861	    3.5435	-0.000939464	   3.53891	-0.000916294	   3.53891	  -22.9073	
   3.61511	-0.000926914	    3.6021	-0.000871749	   3.61544	-0.000933752	   3.61088	-0.000910805	   3.61088	  -22.7701	
   3.68706	-0.000921276	   3.67386	-0.000866594	   3.68736	-0.000927844	   3.68276	-0.000905238	   3.68276	   -22.631	
   3.75898	-0.000915597	   3.74552	-0.000861453	   3.75921	-0.000921905	   3.75457	-0.000899652	   3.75457	  -22.4913	
   3.83065	-0.000909827	   3.81694	-0.000856231	    3.8308	-0.000916066	   3.82613	-0.000894042	   3.82613	   -22.351	
    3.9023	-0.000904067	   3.88838	-0.000850909	   3.90241	-0.000910078	    3.8977	-0.000888351	    3.8977	  -22.2088	
   3.97383	-0.000898317	   3.95976	-0.000845594	   3.97389	-0.000904013	   3.96916	-0.000882641	   3.96916	   -22.066	
   4.04506	-0.00089241	   4.03088	-0.000840208	   4.04506	-0.000898051	   4.04033	-0.00087689	   4.04033	  -21.9222	
   4.11622	-0.000886509	   4.10202	-0.000834716	   4.11624	-0.000891992	   4.11149	-0.000871072	   4.11149	  -21.7768	
   4.18722	-0.000880744	   4.17303	-0.00082923	   4.18723	-0.000885822	   4.18249	-0.000865265	   4.18249	  -21.6316	
   4.25803	-0.000874848	   4.24378	-0.000823682	   4.25797	-0.00087972	   4.25326	-0.000859416	   4.25326	  -21.4854	
   4.32872	-0.000868871	   4.31439	-0.00081803	   4.32867	-0.000873548	   4.32393	-0.000853483	   4.32393	  -21.3371	
    4.3992	-0.000863017	   4.38483	-0.000812325	   4.39919	-0.00086724	   4.39441	-0.000847527	   4.39441	  -21.1882	
   4.46946	-0.000857097	   4.45547	-0.000806621	   4.46952	-0.000860993	   4.46482	-0.00084157	   4.46482	  -21.0393	
    4.5397	-0.000851056	    4.5261	-0.000800901	   4.53976	-0.000854736	   4.53519	-0.000835564	   4.53519	  -20.8891	
   4.60969	-0.000845094	   4.59615	-0.000795036	   4.60972	-0.000848295	   4.60519	-0.000829475	   4.60519	  -20.7369	
   4.67947	-0.000839094	   4.66586	-0.000789099	   4.67962	-0.000841858	   4.67498	-0.00082335	   4.67498	  -20.5838	
    4.7492	-0.000832959	   4.73555	-0.000783207	   4.74944	-0.000835472	   4.74473	-0.000817213	   4.74473	  -20.4303	
   4.81864	-0.000826894	   4.80499	-0.000777224	   4.81894	-0.000828935	   4.81419	-0.000811018	   4.81419	  -20.2754	
   4.88779	-0.000820772	   4.87427	-0.000771146	   4.88824	-0.000822349	   4.88343	-0.000804756	   4.88343	  -20.1189	
   4.95687	-0.00081449	    4.9434	-0.000765084	   4.95743	-0.000815822	   4.95257	-0.000798466	   4.95257	  -19.9616	
   5.02564	-0.000808257	   5.01225	-0.000758982	   5.02633	-0.000809192	   5.02141	-0.000792143	   5.02141	  -19.8036	
    5.0942	-0.000801984	   5.08096	-0.000752797	   5.09519	-0.000802453	   5.09011	-0.000785745	   5.09011	  -19.6436	
   5.16266	-0.00079555	   5.14954	-0.000746617	   5.16392	-0.000795787	   5.15871	-0.000779318	   5.15871	  -19.4829	
   5.23081	-0.000789089	   5.21782	-0.000740442	   5.23238	-0.000789095	   5.22701	-0.000772875	   5.22701	  -19.3219	
   5.29874	-0.000782617	    5.2859	-0.000734239	   5.30072	-0.000782204	   5.29512	-0.000766353	   5.29512	  -19.1588	
   5.36657	-0.0007761	   5.35389	-0.000727998	   5.36885	-0.000775336	    5.3631	-0.000759811	    5.3631	  -18.9953	
   5.43407	-0.000769481	   5.42157	-0.000721738	   5.43661	-0.000768552	   5.43075	-0.000753257	   5.43075	  -18.8314	
   5.50145	-0.000762791	   5.48888	-0.000715501	   5.50413	-0.000761557	   5.49815	-0.000746616	   5.49815	  -18.6654	
   5.56872	-0.000756107	   5.55612	-0.00070924	   5.57151	-0.000754559	   5.56545	-0.000739969	   5.56545	  -18.4992	
   5.63567	-0.000749374	   5.62306	-0.000702925	   5.63858	-0.000747644	   5.63244	-0.000733314	   5.63244	  -18.3329	
   5.70239	-0.000742551	   5.68964	-0.00069662	   5.70548	-0.000740545	   5.69917	-0.000726572	   5.69917	  -18.1643	
   5.76896	-0.000735715	   5.75617	-0.000690279	   5.77224	-0.000733463	   5.76579	-0.000719819	   5.76579	  -17.9955	
   5.83522	-0.000728858	   5.82242	-0.00068389	   5.83864	-0.00072647	   5.83209	-0.000713073	   5.83209	  -17.8268	
   5.90116	-0.000721923	   5.88832	-0.00067752	   5.90473	-0.000719342	   5.89807	-0.000706262	   5.89807	  -17.6565	
   5.96704	-0.000714951	    5.9542	-0.000671093	    5.9707	-0.000712193	   5.96398	-0.000699412	   5.96398	  -17.4853	
   6.03262	-0.000707989	    6.0198	-0.000664563	   6.03635	-0.000705143	   6.02959	-0.000692565	   6.02959	  -17.3141	
   6.09781	-0.000700948	   6.08504	-0.000658036	   6.10176	-0.000698018	   6.09487	-0.000685667	   6.09487	  -17.1417	
    6.1629	-0.000693823	   6.15009	-0.000651487	   6.16708	-0.000690793	   6.16003	-0.000678701	   6.16003	  -16.9675	
   6.22774	-0.000686707	   6.21493	-0.000644844	    6.2321	-0.000683649	   6.22492	-0.000671733	   6.22492	  -16.7933	
   6.29273	-0.000679626	   6.27937	-0.000638153	    6.2968	-0.000676514	   6.28963	-0.000664765	   6.28963	  -16.6191	
   6.35723	-0.000672486	   6.34356	-0.000631431	   6.36128	-0.00066928	   6.35402	-0.000657732	   6.35402	  -16.4433	
    6.4212	-0.000665241	   6.40758	-0.000624693	    6.4255	-0.000662084	   6.41809	-0.000650673	   6.41809	  -16.2668	
    6.4848	-0.00065802	   6.47137	-0.000617957	   6.48925	-0.000654875	   6.48181	-0.000643618	   6.48181	  -16.0904	
   6.54824	-0.000650832	    6.5349	-0.000611155	   6.55251	-0.000647543	   6.54521	-0.00063651	   6.54521	  -15.9127	
   6.61157	-0.000643558	   6.59829	-0.00060432	   6.61575	-0.000640264	   6.60854	-0.000629381	   6.60854	  -15.7345	
    6.6746	-0.000636258	   6.66135	-0.000597553	   6.67881	-0.000632997	   6.67158	-0.000622269	   6.67158	  -15.5567	
   6.73731	-0.000628981	   6.72401	-0.000590738	   6.74153	-0.000625591	   6.73428	-0.000615104	   6.73428	  -15.3776	
   6.79987	-0.000621621	   6.78651	-0.000583882	   6.80386	-0.000618278	   6.79675	-0.000607927	   6.79675	  -15.1982	
   6.86213	-0.00061421	   6.84874	-0.00057709	   6.86609	-0.000610964	   6.85899	-0.000600755	   6.85899	  -15.0189	
   6.92405	-0.000606815	   6.91056	-0.000570255	   6.92799	-0.000603526	   6.92086	-0.000593532	   6.92086	  -14.8383	
   6.98573	-0.000599341	   6.97222	-0.000563376	   6.98952	-0.000596172	   6.98249	-0.000586297	   6.98249	  -14.6574	
   7.04719	-0.000591809	    7.0337	-0.000556568	    7.0508	-0.000588847	   7.04389	-0.000579075	   7.04389	  -14.4769	
   7.10822	-0.000584276	   7.09477	-0.000549753	   7.11195	-0.000581392	   7.10498	-0.000571807	   7.10498	  -14.2952	
    7.1689	-0.000576673	   7.15563	-0.000542856	   7.17275	 -0.000574	   7.16576	-0.00056451	   7.16576	  -14.1127	
   7.22946	-0.000569002	   7.21631	-0.000535992	   7.23339	-0.000566638	   7.22639	-0.000557211	   7.22639	  -13.9303	
   7.28969	-0.000561309	   7.27669	-0.000529147	   7.29365	-0.000559186	   7.28668	-0.000549881	   7.28668	   -13.747	
   7.34955	-0.000553573	   7.33672	-0.000522193	   7.35347	-0.000551796	   7.34658	-0.000542521	   7.34658	   -13.563	
   7.40911	-0.000545758	   7.39651	-0.000515288	   7.41305	-0.000544411	   7.40622	-0.000535152	   7.40622	  -13.3788	
   7.46845	-0.000537911	   7.45608	-0.000508404	   7.47239	-0.000536906	   7.46564	-0.00052774	   7.46564	  -13.1935	
   7.52738	-0.000530062	   7.51537	-0.00050133	   7.53128	-0.000529463	   7.52468	-0.000520285	   7.52468	  -13.0071	
   7.58593	-0.000522144	   7.57427	-0.000494305	   7.58986	-0.00052204	   7.58336	-0.000512829	   7.58336	  -12.8207	
   7.64439	-0.00051418	   7.63297	-0.000487423	   7.64832	-0.000514488	   7.64189	-0.000505364	   7.64189	  -12.6341	
   7.70256	-0.000506249	   7.69138	-0.000480354	   7.70644	-0.000506935	   7.70013	-0.000497846	   7.70013	  -12.4462	
   7.76031	-0.000498255	   7.74937	-0.000473239	   7.76407	-0.000499426	   7.75792	-0.000490307	   7.75792	  -12.2577	
   7.81782	-0.00049022	   7.80697	-0.000466278	   7.82164	-0.00049183	   7.81548	-0.000482776	   7.81548	  -12.0694	
   7.87517	-0.000482223	    7.8643	-0.000459206	   7.87901	-0.000484192	   7.87283	-0.000475207	   7.87283	  -11.8802	
   7.93216	-0.000474193	   7.92131	-0.00045206	   7.93599	-0.000476622	   7.92982	-0.000467625	   7.92982	  -11.6906	
   7.98868	-0.000466101	   7.97791	-0.000445096	   7.99246	-0.000468989	   7.98635	-0.000460062	   7.98635	  -11.5016	
   8.04495	-0.000458051	   8.03384	-0.000438015	   8.04871	-0.000461288	    8.0425	-0.000452452	    8.0425	  -11.3113	
   8.10103	-0.000449999	   8.08957	-0.00043085	   8.10474	-0.000453647	   8.09845	-0.000444832	   8.09845	  -11.1208	
   8.15673	-0.000441863	   8.14512	-0.000423881	   8.16035	-0.000445967	   8.15407	-0.000437237	   8.15407	  -10.9309	
   8.21199	-0.000433766	   8.20022	-0.000416843	    8.2155	-0.000438209	   8.20924	-0.000429606	   8.20924	  -10.7401	
     8.267	-0.000425679	   8.25541	-0.000409726	   8.27048	-0.000430508	    8.2643	-0.000421971	    8.2643	  -10.5493	
   8.32169	-0.000417506	   8.31023	-0.000402739	   8.32522	-0.000422802	   8.31905	-0.000414349	   8.31905	  -10.3587	
     8.376	-0.000409372	   8.36427	-0.000395683	   8.37955	-0.000415032	   8.37327	-0.000406695	   8.37327	  -10.1674	
   8.42987	-0.000401278	   8.41817	-0.000388549	   8.43335	-0.000407272	   8.42713	-0.000399033	   8.42713	  -9.97582	
   8.48343	-0.000393066	   8.47173	-0.000381556	   8.48703	-0.000399536	   8.48073	-0.000391386	   8.48073	  -9.78466	
   8.53674	-0.000384892	   8.52492	-0.000374533	   8.54048	-0.000391732	   8.53405	-0.000383719	   8.53405	  -9.59297	
    8.5897	-0.000376799	   8.57762	-0.000367365	   8.59352	-0.000383923	   8.58695	-0.000376029	   8.58695	  -9.40073	
   8.64214	-0.0003686	   8.63018	-0.000360308	   8.64612	-0.000376154	   8.63948	-0.000368354	   8.63948	  -9.20885	
   8.69437	-0.000360438	    8.6824	-0.000353307	   8.69841	-0.0003683	   8.69173	-0.000360681	   8.69173	  -9.01704	
   8.74639	-0.000352354	   8.73432	-0.000346147	   8.75049	-0.000360421	   8.74373	-0.000352974	   8.74373	  -8.82435	
   8.79808	-0.000344206	   8.78595	-0.000339046	   8.80221	-0.000352583	   8.79541	-0.000345278	   8.79541	  -8.63196	
   8.84927	-0.000336072	   8.83711	-0.000331995	    8.8534	-0.000344667	    8.8466	-0.000337578	    8.8466	  -8.43944	
   8.90005	-0.000328005	   8.88784	-0.000324797	   8.90413	-0.000336714	   8.89734	-0.000329839	   8.89734	  -8.24597	
   8.95044	-0.000319892	   8.93831	-0.000317612	   8.95467	-0.000328819	   8.94781	-0.000322108	   8.94781	   -8.0527	
   9.00053	-0.000311782	   8.98855	-0.000310523	   9.00491	-0.000320866	     8.998	-0.000314391	     8.998	  -7.85977	
   9.05021	-0.000303749	    9.0384	-0.000303293	    9.0547	-0.00031276	   9.04777	-0.000306601	   9.04777	  -7.66502	
    9.0994	-0.00029571	   9.08776	-0.00029601	   9.10399	-0.000304769	   9.09705	-0.00029883	   9.09705	  -7.47074	
   9.14801	-0.000287617	   9.13676	-0.000288823	   9.15303	-0.000296843	   9.14593	-0.000291094	   9.14593	  -7.27736	
    9.1961	-0.000279554	    9.1855	-0.000281517	   9.20185	-0.000288739	   9.19448	-0.00028327	   9.19448	  -7.08174	
   9.24402	-0.000271517	   9.23394	-0.000274168	    9.2503	-0.00028071	   9.24275	-0.000275465	   9.24275	  -6.88662	
   9.29168	-0.000263402	   9.28193	-0.000266876	   9.29825	-0.000272765	   9.29062	-0.000267681	   9.29062	  -6.69203	
   9.33915	-0.000255302	    9.3294	-0.000259482	   9.34579	-0.00026463	   9.33811	-0.000259804	   9.33811	  -6.49511	
   9.38607	-0.00024724	   9.37653	-0.000252047	   9.39296	-0.000256585	   9.38519	-0.000251957	   9.38519	  -6.29893	
   9.43285	-0.000239062	   9.42343	-0.000244647	    9.4399	-0.000248647	   9.43206	-0.000244119	   9.43206	  -6.10297	
   9.47948	-0.000230887	   9.47001	-0.000237185	   9.48668	-0.000240515	   9.47872	-0.000236195	   9.47872	  -5.90489	
   9.52537	-0.000222737	   9.51613	-0.000229671	   9.53367	-0.00023247	   9.52506	-0.000228293	   9.52506	  -5.70732	
   9.57098	-0.000214519	   9.56177	-0.000222201	   9.57975	-0.000224517	   9.57083	-0.000220412	   9.57083	  -5.51031	
   9.61637	-0.000206277	   9.60703	-0.0002147	   9.62484	-0.000216323	   9.61608	-0.000212433	   9.61608	  -5.31083	
   9.66126	-0.000198005	   9.65212	-0.000207145	   9.66976	-0.000208178	   9.66105	-0.000204443	   9.66105	  -5.11107	
   9.70578	-0.00018971	    9.6969	-0.00019963	   9.71454	-0.000200205	   9.70574	-0.000196515	   9.70574	  -4.91287	
   9.74986	-0.000181407	   9.74122	-0.0001921	   9.75896	-0.00019204	   9.75001	-0.000188516	   9.75001	  -4.71289	
   9.79358	-0.000173085	   9.78503	-0.000184516	   9.80294	-0.000183859	   9.79385	-0.000180487	   9.79385	  -4.51217	
   9.83696	-0.000164749	   9.82844	-0.000176966	    9.8466	-0.000175845	   9.83733	-0.00017252	   9.83733	    -4.313	
   9.88003	-0.000156402	   9.87171	-0.000169415	   9.88999	-0.000167689	   9.88058	-0.000164502	   9.88058	  -4.11255	
   9.92283	-0.000148028	   9.91471	-0.000161812	   9.93303	-0.000159484	   9.92352	-0.000156441	   9.92352	  -3.91103	
   9.96523	-0.000139683	    9.9573	-0.000154234	   9.97559	-0.000151414	   9.96604	-0.000148444	   9.96604	  -3.71109	
   10.0071	-0.000131361	   9.99937	-0.000146658	   10.0176	-0.000143249	    10.008	-0.000140423	    10.008	  -3.51056	
   10.0485	-0.000122988	   10.0409	-0.000139038	   10.0591	-0.000135003	   10.0495	-0.000132343	   10.0495	  -3.30858	
   10.0897	-0.000114625	   10.0823	-0.000131455	   10.1002	-0.000126865	   10.0907	-0.000124315	   10.0907	  -3.10787	
   10.1306	-0.000106309	   10.1234	-0.000123919	   10.1411	-0.000118673	   10.1317	-0.0001163	   10.1317	  -2.90751	
   10.1713	-9.79691e-05	   10.1641	-0.000116343	   10.1816	-0.000110396	   10.1723	-0.000108236	   10.1723	  -2.70591	
   10.2115	-8.96182e-05	   10.2037	-0.000108691	   10.2216	-0.000102196	   10.2123	-0.000100169	   10.2123	  -2.50422	
   10.2512	-8.13132e-05	   10.2431	-0.000101114	    10.261	-9.39728e-05	   10.2517	-9.21335e-05	   10.2517	  -2.30334	
   10.2904	-7.29929e-05	   10.2823	-9.35829e-05	   10.2998	-8.56543e-05	   10.2908	-8.40767e-05	   10.2908	  -2.10192	
   10.3291	-6.46496e-05	   10.3208	-8.59547e-05	   10.3382	-7.73905e-05	   10.3294	-7.59983e-05	   10.3294	  -1.89996	
   10.3676	-5.63465e-05	   10.3589	-7.83705e-05	   10.3764	-6.91263e-05	   10.3676	-6.79478e-05	   10.3676	  -1.69869	
   10.4057	-4.80402e-05	   10.3968	-7.08797e-05	   10.4144	-6.07729e-05	   10.4056	-5.98976e-05	   10.4056	  -1.49744	
   10.4435	-3.96964e-05	   10.4343	-6.33098e-05	   10.4518	-5.24641e-05	   10.4432	-5.18234e-05	   10.4432	  -1.29559	
   10.4808	-3.13718e-05	   10.4714	-5.57557e-05	   10.4888	-4.41856e-05	   10.4803	-4.3771e-05	   10.4803	  -1.09428	
   10.5176	-2.30498e-05	   10.5079	-4.82919e-05	   10.5253	-3.58369e-05	   10.5169	-3.57262e-05	   10.5169	 -0.893155	
   10.5539	-1.46908e-05	    10.544	-4.07683e-05	   10.5611	-2.75158e-05	    10.553	-2.76583e-05	    10.553	 -0.691458	
   10.5897	-6.34408e-06	   10.5797	-3.32291e-05	   10.5966	-1.92352e-05	   10.5887	-1.96028e-05	   10.5887	  -0.49007	
   10.6252	1.99699e-06	   10.6152	-2.57731e-05	   10.6317	-1.09017e-05	   10.6241	-1.15593e-05	   10.6241	 -0.288982	
   10.6605	1.03703e-05	   10.6505	-1.82658e-05	   10.6665	-2.57741e-06	   10.6592	-3.49094e-06	   10.6592	-0.0872736	
   10.6953	1.87358e-05	   10.6854	-1.07498e-05	    10.701	5.70131e-06	   10.6939	4.56246e-06	   10.6939	  0.114061	
   10.7297	2.70848e-05	   10.7198	-3.30345e-06	    10.735	 1.402e-05	   10.7282	1.26005e-05	   10.7282	  0.315012	
   10.7635	3.54429e-05	   10.7537	4.18677e-06	   10.7684	2.23451e-05	   10.7619	2.06582e-05	   10.7619	  0.516456	
   10.7968	4.37789e-05	    10.787	1.1684e-05	   10.8012	3.06252e-05	    10.795	2.86961e-05	    10.795	  0.717401	
   10.8294	5.21691e-05	   10.8198	1.91438e-05	   10.8336	3.89327e-05	   10.8276	3.67486e-05	   10.8276	  0.918714	
   10.8617	6.05419e-05	   10.8521	2.66555e-05	   10.8659	4.72569e-05	   10.8599	4.48181e-05	   10.8599	   1.12045	
   10.8937	6.8817e-05	   10.8842	3.41562e-05	   10.8978	5.55437e-05	   10.8919	5.2839e-05	   10.8919	   1.32097	
   10.9254	7.71295e-05	   10.9159	4.1642e-05	   10.9295	6.38538e-05	   10.9236	6.08751e-05	   10.9236	   1.52188	
   10.9567	8.54916e-05	   10.9473	4.91565e-05	   10.9607	7.21888e-05	   10.9549	6.89456e-05	   10.9549	   1.72364	
   10.9876	9.37722e-05	   10.9783	5.66787e-05	   10.9915	8.04926e-05	   10.9858	7.69812e-05	   10.9858	   1.92453	
    11.018	0.000102077	   11.0088	6.42186e-05	   11.0218	8.88056e-05	   11.0162	8.50339e-05	   11.0162	   2.12585	
   11.0478	0.000110435	   11.0387	7.1725e-05	   11.0515	9.7149e-05	    11.046	9.31031e-05	    11.046	   2.32758	
    11.077	0.000118732	   11.0679	7.93201e-05	   11.0807	0.000105474	   11.0752	0.000101175	   11.0752	   2.52939	
   11.1058	0.000127047	   11.0967	8.69616e-05	   11.1095	0.000113748	    11.104	0.000109252	    11.104	   2.73131	
    11.134	0.000135405	    11.125	9.44905e-05	    11.138	0.000122106	   11.1323	0.000117334	   11.1323	   2.93335	
   11.1618	0.000143693	   11.1528	0.000102075	   11.1663	0.000130449	   11.1603	0.000125406	   11.1603	   3.13515	
   11.1893	0.000152016	   11.1805	0.000109764	   11.1943	0.000138659	    11.188	0.00013348	    11.188	   3.33699	
   11.2166	0.000160406	   11.2078	0.000117398	    11.222	0.00014703	   11.2154	0.000141611	   11.2154	   3.54028	
   11.2435	0.000168707	   11.2347	0.000125067	   11.2491	0.000155445	   11.2424	0.00014974	   11.2424	    3.7435	
   11.2699	0.000177004	   11.2612	0.000132792	   11.2759	0.000163625	    11.269	0.000157807	    11.269	   3.94517	
   11.2959	0.00018538	   11.2873	0.000140503	   11.3021	0.000171893	   11.2951	0.000165925	   11.2951	   4.14814	
   11.3214	0.000193671	   11.3128	0.000148284	   11.3279	0.000180278	   11.3207	0.000174078	   11.3207	   4.35194	
   11.3465	0.000201908	   11.3378	0.000156121	   11.3531	 0.0001884	   11.3458	0.000182143	   11.3458	   4.55358	
   11.3711	0.00021022	   11.3622	0.000163934	   11.3776	0.000196582	   11.3703	0.000190245	   11.3703	   4.75613	
   11.3953	0.000218476	   11.3859	 0.0001718	   11.4013	0.000204943	   11.3942	0.000198406	   11.3942	   4.96016	
   11.4189	0.000226632	   11.4092	0.000179735	   11.4246	0.000213028	   11.4176	0.000206465	   11.4176	   5.16162	
    11.442	0.000234869	    11.432	0.000187655	   11.4475	0.000221104	   11.4405	0.000214542	   11.4405	   5.36356	
   11.4646	0.000243068	   11.4544	0.000195609	   11.4699	0.000229362	    11.463	0.00022268	    11.463	   5.56699	
    11.487	0.000251119	   11.4763	0.000203631	   11.4917	0.000237412	    11.485	0.00023072	    11.485	   5.76801	
    11.509	0.000259227	    11.498	0.000211629	   11.5133	0.000245442	   11.5068	0.000238766	   11.5068	   5.96915	
   11.5305	0.000267389	   11.5193	0.000219623	   11.5345	0.000253627	   11.5281	0.00024688	   11.5281	   6.17199	
   11.5518	0.000275443	   11.5402	0.000227661	   11.5551	0.000261667	   11.5491	0.000254924	   11.5491	   6.37309	
   11.5727	0.000283428	   11.5609	0.000235666	   11.5752	0.000269665	   11.5696	0.000262919	   11.5696	   6.57299	
   11.5931	0.00029144	   11.5811	0.000243629	    11.595	0.000277811	   11.5897	0.00027096	   11.5897	     6.774	
   11.6131	0.000299465	    11.601	0.000251605	   11.6143	0.000285861	   11.6095	0.000278977	   11.6095	   6.97442	
   11.6327	0.000307392	   11.6203	0.000259585	    11.633	0.000293824	   11.6287	0.000286934	   11.6287	   7.17334	
   11.6517	0.000315315	   11.6393	0.000267492	   11.6514	0.000301924	   11.6474	0.00029491	   11.6474	   7.37276	
   11.6702	0.000323279	   11.6579	0.000275358	   11.6692	0.000309969	   11.6658	0.000302869	   11.6658	   7.57172	
   11.6881	0.000331181	    11.676	0.00028325	   11.6865	0.000317909	   11.6835	0.00031078	   11.6835	    7.7695	
   11.7055	0.000339066	   11.6938	0.000291035	   11.7033	0.000325952	   11.7008	0.000318684	   11.7008	   7.96711	
   11.7223	0.000346986	   11.7109	0.000298741	   11.7195	0.000334029	   11.7176	0.000326585	   11.7176	   8.16464	
   11.7384	0.000354862	   11.7276	0.000306485	   11.7352	0.000342008	   11.7337	0.000334452	   11.7337	   8.36129	
    11.754	0.000362717	   11.7439	0.00031416	   11.7503	0.000350007	   11.7494	0.000342295	   11.7494	   8.55737	
    11.769	0.000370589	   11.7597	0.00032178	   11.7649	0.000358073	   11.7645	0.000350148	   11.7645	   8.75369	
   11.7835	0.000378437	   11.7749	0.000329401	    11.779	0.000366034	   11.7791	0.000357957	   11.7791	   8.94893	
   11.7974	0.000386253	   11.7896	0.000336985	   11.7925	0.000373961	   11.7932	0.000365733	   11.7932	   9.14332	
   11.8107	0.000394087	   11.8038	0.000344559	   11.8054	0.000381979	   11.8066	0.000373542	   11.8066	   9.33854	
   11.8233	0.000401892	   11.8173	0.000352151	   11.8178	0.000389948	   11.8195	0.00038133	   11.8195	   9.53326	
   11.8355	0.000409666	   11.8302	0.000359712	   11.8298	0.000397815	   11.8318	0.000389064	   11.8318	    9.7266	
   11.8471	0.000417452	   11.8425	0.000367273	   11.8415	0.000405721	   11.8437	0.000396815	   11.8437	   9.92038	
   11.8583	0.00042521	   11.8543	0.000374871	   11.8526	0.000413631	   11.8551	0.000404571	   11.8551	   10.1143	
   11.8691	0.000432936	   11.8655	0.000382449	   11.8633	0.000421444	    11.866	0.000412276	    11.866	   10.3069	
   11.8792	0.000440681	   11.8761	0.000390023	   11.8737	0.000429254	   11.8763	0.000419986	   11.8763	   10.4996	
   11.8888	0.000448376	   11.8862	0.000397631	   11.8836	0.000437061	   11.8862	0.000427689	   11.8862	   10.6922	
   11.8978	0.000456012	   11.8956	0.000405226	   11.8931	0.000444766	   11.8955	0.000435334	   11.8955	   10.8834	
   11.9065	0.000463709	   11.9044	0.000412806	   11.9021	0.000452455	   11.9043	0.00044299	   11.9043	   11.0748	
   11.9148	0.000471393	   11.9127	0.000420398	   11.9105	0.000460154	   11.9127	0.000450648	   11.9127	   11.2662	
   11.9225	0.000478934	   11.9205	0.000427966	   11.9186	0.000467771	   11.9205	0.000458224	   11.9205	   11.4556	
   11.9296	0.000486545	   11.9276	0.00043549	   11.9263	0.000475353	   11.9279	0.000465796	   11.9279	   11.6449	
   11.9363	0.000494192	   11.9343	0.000442999	   11.9335	0.000482951	   11.9347	0.000473381	   11.9347	   11.8345	
   11.9424	0.000501677	   11.9404	0.000450474	   11.9402	0.000490494	    11.941	0.000480882	    11.941	    12.022	
   11.9482	0.000509242	   11.9462	0.000457875	   11.9464	0.000497989	   11.9469	0.000488369	   11.9469	   12.2092	
   11.9536	0.000516864	   11.9515	0.000465261	    11.952	 0.0005055	   11.9524	0.000495875	   11.9524	   12.3969	
   11.9585	0.000524319	   11.9563	0.000472614	   11.9572	0.00051296	   11.9573	0.000503298	   11.9573	   12.5824	
    11.963	0.000531842	   11.9607	0.00047989	   11.9619	0.000520372	   11.9619	0.000510701	   11.9619	   12.7675	
   11.9671	0.000539425	   11.9646	0.00048712	   11.9662	0.000527818	    11.966	0.000518121	    11.966	    12.953	
   11.9708	0.000546881	   11.9682	0.000494309	   11.9701	0.000535224	   11.9697	0.000525471	   11.9697	   13.1368	
   11.9742	0.000554336	   11.9714	0.000501414	   11.9735	0.000542591	    11.973	0.00053278	    11.973	   13.3195	
   11.9771	0.000561868	   11.9743	0.000508499	   11.9766	0.000549993	    11.976	0.00054012	    11.976	    13.503	
   11.9798	0.000569302	   11.9768	0.000515609	   11.9793	0.000557322	   11.9786	0.000547411	   11.9786	   13.6853	
   11.9821	0.000576682	    11.979	0.000522571	   11.9817	0.000564644	   11.9809	0.000554632	   11.9809	   13.8658	
   11.9838	0.000584116	   11.9809	0.000529573	   11.9837	0.00057201	   11.9828	0.000561899	   11.9828	   14.0475	
   11.9852	0.000591477	   11.9825	0.000536678	   11.9855	0.000579272	   11.9844	0.000569142	   11.9844	   14.2286	
   11.9863	0.000598742	   11.9838	0.000543572	   11.9869	0.000586485	   11.9857	0.000576266	   11.9857	   14.4067	
   11.9869	0.000606048	   11.9849	0.000550503	   11.9882	0.000593745	   11.9867	0.000583432	   11.9867	   14.5858	
   11.9871	0.000613299	   11.9856	0.000557589	   11.9891	0.000600918	   11.9872	0.000590602	   11.9872	    14.765	
   11.9868	0.000620435	    11.986	0.000564515	   11.9896	0.000607998	   11.9875	0.00059765	   11.9875	   14.9412	
   11.9863	0.000627593	   11.9861	0.00057141	   11.9898	0.00061512	   11.9874	0.000604708	   11.9874	   15.1177	
   11.9854	0.000634712	   11.9857	0.000578435	   11.9896	0.000622216	   11.9869	0.000611788	   11.9869	   15.2947	
   11.9839	0.000641739	   11.9848	0.000585383	   11.9888	0.000629203	   11.9858	0.000618775	   11.9858	   15.4694	
    11.982	0.000648777	   11.9832	0.000592251	   11.9876	0.000636227	   11.9843	0.000625752	   11.9843	   15.6438	
   11.9797	0.000655748	    11.981	0.000599213	   11.9859	0.000643272	   11.9822	0.000632744	   11.9822	   15.8186	
   11.9767	0.000662642	   11.9783	0.000606131	   11.9835	0.00065021	   11.9795	0.000639661	   11.9795	   15.9915	
   11.9734	0.000669582	    11.975	0.000612936	   11.9805	0.000657143	   11.9763	0.000646553	   11.9763	   16.1638	
   11.9695	0.000676475	   11.9712	0.000619804	    11.977	0.000664119	   11.9726	0.000653466	   11.9726	   16.3366	
   11.9653	0.000683289	    11.967	0.000626632	   11.9731	0.000671009	   11.9685	0.00066031	   11.9685	   16.5077	
   11.9609	0.00069006	   11.9624	0.000633338	   11.9687	0.000677857	    11.964	0.000667085	    11.964	   16.6771	
   11.9562	0.000696831	   11.9575	0.000640061	   11.9639	0.000684739	   11.9592	0.000673877	   11.9592	   16.8469	
   11.9506	0.000703612	   11.9523	0.000646742	   11.9588	0.000691551	   11.9539	0.000680635	   11.9539	   17.0159	
   11.9446	0.000710323	   11.9466	0.000653309	   11.9534	0.000698314	   11.9482	0.000687315	   11.9482	   17.1829	
   11.9383	0.000716987	   11.9404	0.000659867	   11.9476	0.000705113	   11.9421	0.000693989	   11.9421	   17.3497	
   11.9316	0.000723663	   11.9336	0.00066636	   11.9413	0.00071183	   11.9355	0.000700618	   11.9355	   17.5154	
   11.9241	0.000730242	   11.9261	0.000672734	   11.9346	0.000718485	   11.9283	0.000707154	   11.9283	   17.6788	
   11.9161	0.00073678	    11.918	0.00067914	   11.9272	0.000725195	   11.9204	0.000713705	   11.9204	   17.8426	
   11.9076	0.000743334	   11.9093	0.000685486	   11.9192	0.000731845	   11.9121	0.000720222	   11.9121	   18.0055	
   11.8987	0.000749788	   11.9002	0.000691714	   11.9107	0.000738424	   11.9032	0.000726642	   11.9032	   18.1661	
   11.8893	0.000756179	   11.8907	0.000697974	   11.9017	0.000745048	   11.8939	0.000733067	   11.8939	   18.3267	
   11.8796	0.000762586	   11.8808	0.000704197	   11.8923	0.000751625	   11.8843	0.000739469	   11.8843	   18.4867	
   11.8697	0.000768909	   11.8706	0.000710332	   11.8826	0.000758125	   11.8743	0.000745789	   11.8743	   18.6447	
   11.8595	0.00077517	   11.8602	0.000716488	   11.8725	0.000764664	    11.864	0.000752107	    11.864	   18.8027	
   11.8489	0.000781441	   11.8492	0.000722623	    11.862	0.000771155	   11.8534	0.000758407	   11.8534	   18.9602	
   11.8376	0.000787648	   11.8377	0.000728694	   11.8508	0.000777576	   11.8421	0.000764639	   11.8421	    19.116	
   11.8259	0.000793781	   11.8257	0.000734772	   11.8391	0.00078404	   11.8302	0.000770864	   11.8302	   19.2716	
   11.8136	0.00079995	   11.8131	0.000740851	   11.8267	0.000790474	   11.8178	0.000777092	   11.8178	   19.4273	
   11.8008	0.000806079	   11.8001	0.000746866	   11.8139	0.000796837	    11.805	0.000783261	    11.805	   19.5815	
   11.7877	0.000812101	   11.7867	0.000752865	   11.8006	0.000803236	   11.7917	 0.0007894	   11.7917	    19.735	
   11.7742	0.000818152	    11.773	0.000758853	   11.7869	0.000809605	   11.7781	0.000795537	   11.7781	   19.8884	
   11.7605	0.00082418	    11.759	0.000764778	    11.773	0.00081592	   11.7641	0.000801626	   11.7641	   20.0406	
   11.7463	0.000830102	   11.7445	0.000770677	   11.7586	0.00082225	   11.7498	0.000807676	   11.7498	   20.1919	
   11.7316	0.000836057	   11.7294	0.000776561	   11.7436	0.000828567	   11.7349	0.000813728	   11.7349	   20.3432	
   11.7164	0.000841984	   11.7136	0.000782374	    11.728	0.000834824	   11.7193	0.000819727	   11.7193	   20.4932	
   11.7006	0.000847818	   11.6974	0.000788152	   11.7117	0.00084107	   11.7033	0.00082568	   11.7033	    20.642	
   11.6844	0.000853663	   11.6808	0.000793914	   11.6951	0.000847301	   11.6868	0.000831626	   11.6868	   20.7906	
   11.6679	0.000859494	   11.6638	0.000799601	   11.6781	0.000853459	   11.6699	0.000837518	   11.6699	   20.9379	
    11.651	0.000865235	   11.6464	0.000805232	   11.6608	0.000859588	   11.6527	0.000843352	   11.6527	   21.0838	
   11.6336	0.000870971	   11.6286	0.000810867	    11.643	 0.0008657	   11.6351	0.000849179	   11.6351	   21.2295	
   11.6158	0.000876705	   11.6101	0.000816438	   11.6247	0.000871735	   11.6168	0.000854959	   11.6168	    21.374	
   11.5973	0.00088235	    11.591	0.000821918	   11.6058	0.00087774	    11.598	0.000860669	    11.598	   21.5167	
   11.5783	0.000887965	   11.5715	0.000827416	   11.5863	0.000883725	   11.5787	0.000866369	   11.5787	   21.6592	
   11.5589	0.000893574	   11.5517	0.000832879	   11.5665	0.000889637	    11.559	0.00087203	    11.559	   21.8008	
   11.5391	0.000899097	   11.5315	0.000838245	   11.5463	0.000895508	    11.539	0.000877617	    11.539	   21.9404	
   11.5189	0.000904585	   11.5108	0.000843638	   11.5258	0.00090138	   11.5185	0.000883201	   11.5185	     22.08	
    11.498	0.000910068	   11.4895	0.00084899	   11.5047	0.00090717	   11.4974	0.000888743	   11.4974	   22.2186	
   11.4765	0.000915481	   11.4675	0.000854224	   11.4832	0.000912908	   11.4757	0.000894204	   11.4757	   22.3551	
   11.4545	0.00092085	   11.4451	0.000859558	   11.4611	0.000918664	   11.4536	0.000899691	   11.4536	   22.4923	
   11.4322	0.000926215	   11.4224	0.00086484	   11.4386	0.000924341	   11.4311	0.000905132	   11.4311	   22.6283	
   11.4095	0.00093151	   11.3992	0.00086997	   11.4158	0.000929963	   11.4082	0.000910481	   11.4082	    22.762	
   11.3864	0.000936758	   11.3755	0.000875176	   11.3926	0.000935594	   11.3848	0.000915843	   11.3848	   22.8961	
   11.3625	0.000942002	   11.3513	0.00088035	   11.3687	0.000941156	   11.3608	0.00092117	   11.3608	   23.0292	
   11.3381	0.000947181	   11.3266	0.000885372	   11.3443	0.000946655	   11.3363	0.000926402	   11.3363	   23.1601	
   11.3132	0.000952316	   11.3016	0.000890445	   11.3195	0.000952177	   11.3114	0.000931646	   11.3114	   23.2912	
   11.2881	0.000957453	   11.2762	0.000895506	   11.2943	0.000957622	   11.2862	0.00093686	   11.2862	   23.4215	
   11.2625	0.000962535	   11.2503	0.000900439	   11.2686	0.00096301	   11.2605	0.000941995	   11.2605	   23.5499	
   11.2364	0.000967568	    11.224	0.000905379	   11.2424	0.000968439	   11.2343	0.000947129	   11.2343	   23.6782	
   11.2097	0.000972623	   11.1972	0.000910321	   11.2155	0.000973792	   11.2075	0.000952246	   11.2075	   23.8061	
   11.1826	0.000977602	   11.1699	0.000915146	   11.1882	0.000979089	   11.1803	0.000957279	   11.1803	    23.932	
   11.1552	0.000982479	   11.1424	0.000919963	   11.1605	0.000984417	   11.1527	0.000962286	   11.1527	   24.0572	
   11.1273	0.000987401	   11.1147	0.000924767	   11.1325	0.000989711	   11.1248	0.000967293	   11.1248	   24.1823	
   11.0989	0.000992303	   11.0863	0.000929446	    11.104	0.000994928	   11.0964	0.000972226	   11.0964	   24.3056	
   11.0699	0.000997118	   11.0575	0.000934144	   11.0749	 0.0010001	   11.0674	0.00097712	   11.0674	    24.428	
   11.0405	0.00100189	   11.0282	0.000938852	   11.0454	0.00100527	    11.038	0.000982003	    11.038	   24.5501	
   11.0108	0.00100671	   10.9986	0.000943417	   11.0156	 0.0010104	   11.0083	0.000986844	   11.0083	   24.6711	
   10.9805	0.00101147	   10.9684	0.000947976	   10.9854	0.00101546	   10.9781	0.000991637	   10.9781	   24.7909	
     10.95	0.00101615	   10.9377	0.000952579	   10.9547	0.00102047	   10.9475	0.000996402	   10.9475	   24.9101	
    10.919	0.00102088	   10.9064	0.000957046	   10.9234	0.00102554	   10.9163	0.00100116	   10.9163	   25.0289	
   10.8876	0.00102558	   10.8748	0.000961462	   10.8917	 0.0010306	   10.8847	0.00100588	   10.8847	    25.147	
   10.8558	0.00103018	    10.843	0.000965939	   10.8598	0.00103551	   10.8529	0.00101054	   10.8529	   25.2636	
   10.8235	0.00103481	   10.8106	0.000970284	   10.8273	0.00104042	   10.8205	0.00101517	   10.8205	   25.3793	
   10.7907	0.00103945	   10.7777	0.000974541	   10.7942	0.00104539	   10.7875	0.00101979	   10.7875	   25.4948	
   10.7574	0.00104399	   10.7444	0.00097884	   10.7607	0.00105024	   10.7541	0.00102436	   10.7541	   25.6089	
   10.7239	0.00104854	   10.7108	0.000983031	   10.7268	0.00105507	   10.7205	0.00102888	   10.7205	    25.722	
   10.6898	0.00105308	    10.677	0.000987136	   10.6928	0.00105995	   10.6865	0.00103339	   10.6865	   25.8347	
   10.6551	0.00105752	   10.6427	0.00099126	   10.6588	0.00106468	   10.6522	0.00103782	   10.6522	   25.9455	
     10.62	0.00106202	   10.6078	0.000995309	   10.6242	0.00106938	   10.6173	0.00104224	   10.6173	   26.0559	
   10.5845	0.00106651	   10.5727	0.000999269	   10.5885	0.00107421	   10.5819	0.00104666	   10.5819	   26.1666	
   10.5487	0.00107087	   10.5373	0.00100323	   10.5525	0.00107891	   10.5462	  0.001051	   10.5462	   26.2751	
   10.5123	0.00107525	   10.5012	0.00100714	   10.5163	0.00108348	   10.5099	0.00105529	   10.5099	   26.3822	
   10.4754	0.00107963	   10.4646	0.00101096	   10.4796	0.00108818	   10.4732	0.00105959	   10.4732	   26.4898	
   10.4382	 0.0010839	   10.4278	0.00101479	   10.4425	0.00109278	   10.4362	0.00106382	   10.4362	   26.5956	
   10.4007	0.00108814	   10.3904	0.00101859	   10.4052	0.00109724	   10.3988	0.00106799	   10.3988	   26.6998	
   10.3627	0.00109238	   10.3526	0.00102231	   10.3674	0.00110178	   10.3609	0.00107216	   10.3609	   26.8039	
   10.3242	0.00109651	   10.3142	0.00102602	    10.329	0.00110625	   10.3225	0.00107626	   10.3225	   26.9065	
   10.2854	0.00110064	   10.2756	0.00102973	   10.2903	0.00111055	   10.2838	0.00108031	   10.2838	   27.0077	
   10.2462	0.00110475	   10.2366	0.00103335	   10.2512	 0.0011149	   10.2447	0.00108434	   10.2447	   27.1084	
   10.2065	0.00110872	    10.197	0.00103696	   10.2116	0.00111924	    10.205	 0.0010883	    10.205	   27.2076	
   10.1663	0.00111266	    10.157	0.00104057	   10.1715	 0.0011234	    10.165	0.00109221	    10.165	   27.3052	
   10.1258	0.00111661	   10.1168	0.00104408	   10.1311	0.00112757	   10.1246	0.00109609	   10.1246	   27.4022	
   10.0851	0.00112044	   10.0762	0.00104759	   10.0904	0.00113176	   10.0839	0.00109993	   10.0839	   27.4982	
   10.0439	 0.0011242	   10.0351	0.00105113	   10.0492	0.00113577	   10.0427	 0.0011037	   10.0427	   27.5926	
   10.0022	0.00112799	   9.99364	0.00105451	   10.0075	0.00113973	   10.0011	0.00110741	   10.0011	   27.6853	
   9.96033	0.00113168	   9.95189	0.00105785	   9.96541	0.00114379	   9.95921	0.00111111	   9.95921	   27.7777	
   9.91791	 0.0011353	   9.90953	0.00106131	   9.92295	0.00114772	   9.91679	0.00111478	   9.91679	   27.8694	
   9.87497	0.00113894	   9.86666	0.00106467	   9.87993	0.00115148	   9.87385	0.00111837	   9.87385	   27.9591	
   9.83171	0.00114251	   9.82347	0.00106794	   9.83656	0.00115534	   9.83058	0.00112193	   9.83058	   28.0483	
   9.78819	0.00114601	   9.78003	0.00107132	   9.79291	0.00115915	   9.78704	0.00112549	   9.78704	   28.1373	
    9.7443	0.00114952	   9.73601	0.00107467	    9.7489	0.00116277	   9.74307	0.00112899	   9.74307	   28.2247	
   9.69996	0.00115298	   9.69157	0.00107785	   9.70433	0.00116643	   9.69862	0.00113242	   9.69862	   28.3105	
   9.65537	 0.0011564	    9.6469	0.00108113	   9.65937	0.00117007	   9.65388	0.00113587	   9.65388	   28.3967	
    9.6104	0.00115985	   9.60192	0.00108449	   9.61418	0.00117354	   9.60884	0.00113929	   9.60884	   28.4823	
   9.56489	 0.0011632	   9.55641	0.00108766	   9.56855	0.00117699	   9.56328	0.00114262	   9.56328	   28.5654	
   9.51904	0.00116647	   9.51057	0.00109088	   9.52245	0.00118046	   9.51735	0.00114594	   9.51735	   28.6484	
   9.47299	0.00116982	   9.46444	 0.0010942	   9.47609	0.00118378	   9.47117	0.00114927	   9.47117	   28.7317	
   9.42648	0.00117313	   9.41781	0.00109737	   9.42942	0.00118706	   9.42457	0.00115252	   9.42457	    28.813	
   9.37954	 0.0011763	   9.37078	0.00110054	   9.38241	0.00119037	   9.37758	0.00115573	   9.37758	   28.8934	
   9.33232	0.00117949	   9.32354	0.00110379	    9.3349	0.00119356	   9.33025	0.00115895	   9.33025	   28.9736	
   9.28479	0.00118269	   9.27594	0.00110692	   9.28701	0.00119668	   9.28258	 0.0011621	   9.28258	   29.0525	
   9.23681	0.00118579	   9.22787	0.00110999	   9.23862	0.00119985	   9.23443	0.00116521	   9.23443	   29.1302	
   9.18853	0.00118889	   9.17951	0.00111315	   9.18995	0.00120292	     9.186	0.00116832	     9.186	    29.208	
   9.13993	0.00119193	   9.13091	0.00111621	   9.14096	0.00120593	   9.13726	0.00117136	   9.13726	   29.2839	
   9.09076	0.00119487	   9.08181	0.00111916	   9.09156	0.00120895	   9.08804	0.00117433	   9.08804	   29.3582	
   9.04125	0.00119784	   9.03237	0.00112218	   9.04182	0.00121196	   9.03848	0.00117732	   9.03848	   29.4331	
   8.99148	0.00120075	   8.98262	0.00112512	   8.99182	0.00121485	   8.98864	0.00118024	   8.98864	   29.5061	
   8.94116	0.00120355	   8.93229	0.00112791	   8.94136	0.00121772	   8.93827	0.00118306	   8.93827	   29.5765	
   8.89046	0.00120634	   8.88158	0.00113077	   8.89052	0.00122063	   8.88752	0.00118591	   8.88752	   29.6478	
   8.83953	0.00120907	   8.83056	0.00113356	   8.83949	0.00122345	   8.83653	0.00118869	   8.83653	   29.7173	
   8.78817	0.00121167	   8.77913	 0.0011362	   8.78802	0.00122621	   8.78511	0.00119136	   8.78511	    29.784	
   8.73639	0.00121427	   8.72731	0.00113888	   8.73612	  0.001229	   8.73327	0.00119405	   8.73327	   29.8513	
   8.68442	0.00121691	   8.67525	0.00114149	   8.68397	0.00123168	   8.68121	0.00119669	   8.68121	   29.9174	
    8.6324	0.00121937	    8.6227	  0.001144	    8.6315	0.00123433	   8.62887	0.00119923	   8.62887	   29.9809	
   8.58057	0.00122171	   8.56974	0.00114659	   8.57864	0.00123699	   8.57632	0.00120176	   8.57632	   30.0441	
   8.52776	0.00122414	   8.51695	0.00114903	   8.52555	0.00123958	   8.52342	0.00120425	   8.52342	   30.1062	
   8.47395	0.00122649	   8.46378	 0.0011513	   8.47227	0.00124213	      8.47	0.00120664	      8.47	   30.1659	
   8.42004	0.00122866	   8.40976	0.00115374	   8.41851	0.00124469	    8.4161	0.00120903	    8.4161	   30.2257	
     8.366	0.00123088	   8.35523	0.00115614	   8.36449	0.00124723	   8.36191	0.00121142	   8.36191	   30.2854	
   8.31161	0.00123305	   8.30056	0.00115833	   8.31032	0.00124964	    8.3075	0.00121368	    8.3075	   30.3419	
   8.25674	 0.0012351	   8.24573	0.00116059	   8.25564	0.00125202	    8.2527	0.00121591	    8.2527	   30.3977	
   8.20169	0.00123719	   8.19063	0.00116283	    8.2008	0.00125438	   8.19771	0.00121814	   8.19771	   30.4534	
    8.1464	0.00123926	   8.13514	 0.0011649	   8.14584	0.00125665	   8.14246	0.00122027	   8.14246	   30.5067	
   8.09063	0.00124122	   8.07937	0.00116699	   8.09022	0.00125883	   8.08674	0.00122235	   8.08674	   30.5587	
   8.03463	0.00124319	   8.02339	0.00116907	   8.03448	0.00126101	   8.03083	0.00122442	   8.03083	   30.6106	
   7.97828	0.00124517	   7.96713	0.00117098	   7.97857	0.00126313	   7.97466	0.00122643	   7.97466	   30.6606	
   7.92149	0.00124705	   7.91049	0.00117288	   7.92215	0.00126514	   7.91804	0.00122836	   7.91804	   30.7089	
   7.86437	0.00124888	   7.85364	0.00117478	   7.86546	0.00126711	   7.86116	0.00123026	   7.86116	   30.7565	
   7.80694	0.00125074	   7.79648	0.00117653	   7.80851	0.00126906	   7.80398	0.00123211	   7.80398	   30.8027	
   7.74909	0.00125249	   7.73889	0.00117825	   7.75113	 0.0012709	   7.74637	0.00123388	   7.74637	    30.847	
   7.69101	0.00125418	   7.68112	0.00117997	   7.69349	 0.0012727	   7.68854	0.00123562	   7.68854	   30.8904	
    7.6327	0.00125588	   7.62305	0.00118157	   7.63551	0.00127446	   7.63042	0.00123731	   7.63042	   30.9326	
     7.574	0.00125747	   7.56463	0.00118311	   7.57712	0.00127615	   7.57192	0.00123891	   7.57192	   30.9728	
   7.51514	0.00125897	     7.506	0.00118463	   7.51847	0.00127781	    7.5132	0.00124047	    7.5132	   31.0117	
    7.4559	0.00126048	   7.44692	0.00118611	   7.45933	0.00127945	   7.45405	0.00124202	   7.45405	   31.0504	
    7.3963	0.00126191	   7.38749	0.00118757	   7.39985	0.00128102	   7.39455	 0.0012435	   7.39455	   31.0874	
   7.33659	0.00126323	   7.32789	0.00118889	   7.34021	0.00128256	    7.3349	 0.0012449	    7.3349	   31.1224	
   7.27649	0.00126455	     7.268	0.00119018	   7.28029	0.00128409	   7.27492	0.00124628	   7.27492	   31.1569	
   7.21612	 0.0012658	   7.20779	0.00119153	   7.22001	0.00128552	   7.21464	0.00124762	   7.21464	   31.1905	
   7.15557	0.00126696	   7.14746	0.00119276	   7.15956	0.00128694	   7.15419	0.00124889	   7.15419	   31.2222	
   7.09467	0.00126811	    7.0867	0.00119393	   7.09886	0.00128834	   7.09341	0.00125012	   7.09341	   31.2531	
    7.0335	0.00126921	   7.02569	0.00119514	   7.03785	0.00128964	   7.03235	0.00125133	   7.03235	   31.2832	
   6.97215	0.00127022	   6.96442	0.00119626	   6.97666	0.00129093	   6.97108	0.00125247	   6.97108	   31.3117	
   6.91049	 0.0012712	   6.90275	0.00119732	   6.91507	0.00129219	   6.90944	0.00125357	   6.90944	   31.3392	
   6.84862	0.00127218	   6.84088	0.00119842	   6.85322	0.00129334	   6.84757	0.00125465	   6.84757	   31.3662	
    6.7865	0.00127308	   6.77872	0.00119946	   6.79113	0.00129445	   6.78545	0.00125566	   6.78545	   31.3915	
   6.72398	0.00127395	   6.71617	0.00120042	   6.72866	0.00129553	   6.72294	0.00125663	   6.72294	   31.4159	
   6.66132	0.00127481	   6.65343	0.00120141	   6.66601	0.00129651	   6.66026	0.00125758	   6.66026	   31.4395	
   6.59855	 0.0012756	    6.5904	0.00120234	   6.60306	0.00129743	   6.59733	0.00125845	   6.59733	   31.4614	
   6.53544	0.00127634	   6.52705	0.00120319	   6.53974	0.00129833	   6.53408	0.00125928	   6.53408	   31.4821	
   6.47218	0.00127707	   6.46365	0.00120404	   6.47626	0.00129915	    6.4707	0.00126009	    6.4707	   31.5022	
   6.40862	0.00127773	   6.39996	0.00120485	    6.4125	0.00129992	   6.40702	0.00126083	   6.40702	   31.5208	
   6.34478	0.00127832	   6.33603	0.00120558	   6.34845	0.00130067	   6.34309	0.00126152	   6.34309	   31.5381	
   6.28082	0.00127891	   6.27187	 0.0012063	   6.28427	0.00130136	   6.27899	0.00126219	   6.27899	   31.5548	
   6.21646	0.00127948	   6.20741	0.00120698	   6.21977	0.00130199	   6.21454	0.00126282	   6.21454	   31.5704	
   6.15191	0.00127996	   6.14278	0.00120754	   6.15507	 0.0013026	   6.14992	0.00126337	   6.14992	   31.5842	
   6.08699	0.00128041	   6.07801	0.00120812	   6.09014	0.00130317	   6.08504	 0.0012639	   6.08504	   31.5975	
   6.02177	0.00128086	    6.0129	0.00120871	   6.02488	0.00130367	   6.01985	0.00126441	   6.01985	   31.6103	
   5.95642	0.00128121	   5.94771	0.00120914	   5.95946	0.00130415	   5.95453	0.00126483	   5.95453	   31.6208	
   5.89078	0.00128154	   5.88217	0.00120954	   5.89373	 0.0013046	   5.88889	0.00126523	   5.88889	   31.6307	
   5.82494	0.00128187	   5.81639	0.00120999	   5.82773	0.00130497	   5.82302	0.00126561	   5.82302	   31.6403	
   5.75898	0.00128212	    5.7504	0.00121033	   5.76165	0.00130531	   5.75701	0.00126592	   5.75701	    31.648	
   5.69266	0.00128235	    5.6842	0.00121058	   5.69523	0.00130562	   5.69069	0.00126618	   5.69069	   31.6546	
   5.62602	0.00128256	   5.61774	0.00121088	   5.62863	0.00130585	   5.62413	0.00126643	   5.62413	   31.6608	
   5.55893	0.00128273	   5.55116	0.00121111	   5.56188	0.00130605	   5.55732	0.00126663	   5.55732	   31.6658	
   5.49166	0.00128283	   5.48437	0.00121121	   5.49479	0.00130622	   5.49027	0.00126675	   5.49027	   31.6688	
   5.42426	 0.0012829	    5.4172	0.00121136	   5.42762	 0.0013063	   5.42303	0.00126685	   5.42303	   31.6713	
   5.35691	0.00128296	    5.3498	0.00121145	   5.36013	0.00130634	   5.35561	0.00126692	   5.35561	   31.6729	
   5.28929	0.00128291	    5.2823	0.00121141	    5.2924	0.00130636	     5.288	0.00126689	     5.288	   31.6723	
   5.22127	0.00128287	   5.21449	0.00121139	   5.22455	0.00130626	    5.2201	0.00126684	    5.2201	    31.671	
   5.15346	0.00128282	   5.14639	 0.0012113	   5.15648	0.00130611	   5.15211	0.00126674	   5.15211	   31.6685	
   5.08533	0.00128267	   5.07785	0.00121114	   5.08829	0.00130601	   5.08382	0.00126661	   5.08382	   31.6652	
   5.01673	0.00128253	   5.00914	0.00121094	   5.01982	 0.0013058	   5.01523	0.00126642	   5.01523	   31.6606	
   4.94802	0.00128238	   4.94027	0.00121066	   4.95107	0.00130548	   4.94646	0.00126617	   4.94646	   31.6543	
   4.87907	0.00128215	    4.8715	0.00121033	   4.88227	0.00130523	   4.87762	 0.0012659	   4.87762	   31.6476	
   4.80991	0.00128189	    4.8024	0.00120993	   4.81316	0.00130493	   4.80849	0.00126559	   4.80849	   31.6396	
   4.74054	0.00128163	   4.73293	0.00120946	   4.74389	0.00130452	   4.73912	 0.0012652	   4.73912	   31.6301	
   4.67095	0.00128124	   4.66373	0.00120893	   4.67438	0.00130416	   4.66969	0.00126478	   4.66969	   31.6195	
   4.60112	0.00128083	   4.59408	0.00120839	   4.60458	0.00130376	   4.59993	0.00126433	   4.59993	   31.6081	
    4.5313	0.00128045	   4.52414	 0.0012078	    4.5347	 0.0013033	   4.53005	0.00126385	   4.53005	   31.5963	
   4.46119	0.00127994	   4.45422	0.00120709	   4.46451	0.00130296	   4.45997	0.00126333	   4.45997	   31.5833	
   4.39095	0.00127938	   4.38417	0.00120639	   4.39416	0.00130252	   4.38976	0.00126276	   4.38976	   31.5691	
   4.32048	0.00127886	   4.31383	0.00120567	   4.32371	0.00130195	   4.31934	0.00126216	   4.31934	    31.554	
   4.24979	0.00127823	   4.24362	0.00120479	   4.25297	0.00130161	   4.24879	0.00126154	   4.24879	   31.5385	
   4.17906	0.00127752	   4.17338	0.00120384	   4.18269	0.00130114	   4.17838	0.00126084	   4.17838	   31.5209	
   4.10807	0.00127684	   4.10255	0.00120296	    4.1121	0.00130046	   4.10757	0.00126009	   4.10757	   31.5022	
   4.03694	0.00127608	   4.03151	0.00120197	   4.04104	0.00130005	    4.0365	0.00125937	    4.0365	   31.4842	
   3.96584	0.00127523	    3.9606	0.00120084	   3.96964	0.00129964	   3.96536	0.00125857	   3.96536	   31.4642	
   3.89445	 0.0012744	   3.88954	0.00119976	   3.89814	0.00129893	   3.89405	 0.0012577	   3.89405	   31.4424	
   3.82306	0.00127349	   3.81839	0.00119868	   3.82667	0.00129836	   3.82271	0.00125685	   3.82271	   31.4212	
   3.75145	 0.0012725	   3.74696	0.00119744	   3.75501	0.00129783	   3.75114	0.00125592	   3.75114	    31.398	
    3.6797	 0.0012715	   3.67536	0.00119622	   3.68317	0.00129701	   3.67941	0.00125491	   3.67941	   31.3728	
   3.60795	0.00127046	   3.60375	0.00119504	   3.61132	0.00129621	   3.60768	 0.0012539	   3.60768	   31.3476	
   3.53592	0.00126931	   3.53189	0.00119371	   3.53936	0.00129546	   3.53572	0.00125283	   3.53572	   31.3207	
   3.46382	0.00126817	   3.45999	0.00119238	   3.46734	0.00129443	   3.46372	0.00125166	   3.46372	   31.2915	
   3.39141	0.00126701	   3.38805	0.00119112	   3.39498	0.00129334	   3.39148	0.00125049	   3.39148	   31.2622	
   3.31887	0.00126568	   3.31592	0.00118972	   3.32245	 0.0012923	   3.31908	0.00124923	   3.31908	   31.2308	
   3.24621	0.00126434	   3.24378	0.00118829	   3.24982	0.00129101	    3.2466	0.00124788	    3.2466	    31.197	
   3.17329	0.00126302	   3.17138	0.00118693	   3.17688	0.00128961	   3.17385	0.00124652	   3.17385	    31.163	
   3.10038	0.00126153	   3.09895	0.00118546	   3.10394	0.00128827	   3.10109	0.00124508	   3.10109	   31.1271	
    3.0273	0.00125997	   3.02628	0.00118391	   3.03083	0.00128671	   3.02813	0.00124353	   3.02813	   31.0882	
   2.95409	0.00125854	   2.95344	0.00118242	   2.95757	0.00128501	   2.95504	0.00124199	   2.95504	   31.0498	
   2.88084	0.00125695	   2.88061	0.00118085	   2.88424	0.00128338	   2.88189	0.00124039	   2.88189	   31.0099	
   2.80733	0.00125514	   2.80758	0.00117918	   2.81068	0.00128161	   2.80853	0.00123864	   2.80853	    30.966	
   2.73376	0.00125345	   2.73448	0.00117754	   2.73708	0.00127968	   2.73511	0.00123689	   2.73511	   30.9223	
   2.65997	 0.0012517	   2.66121	0.00117585	   2.66329	0.00127782	   2.66149	0.00123512	   2.66149	    30.878	
    2.5861	0.00124973	   2.58778	0.00117403	   2.58938	0.00127587	   2.58775	0.00123321	   2.58775	   30.8303	
   2.51221	0.00124782	   2.51427	0.00117227	   2.51542	0.00127379	   2.51397	0.00123129	   2.51397	   30.7824	
   2.43815	0.00124589	   2.44049	0.00117043	   2.44122	0.00127176	   2.43995	0.00122936	   2.43995	   30.7339	
   2.36415	0.00124377	   2.36672	0.00116843	   2.36706	0.00126968	   2.36598	 0.0012273	   2.36598	   30.6824	
   2.29001	0.00124168	   2.29291	0.00116654	   2.29269	0.00126748	   2.29187	0.00122523	   2.29187	   30.6308	
   2.21579	0.00123959	   2.21897	0.00116462	   2.21823	0.00126531	   2.21767	0.00122317	   2.21767	   30.5793	
    2.1415	0.00123734	   2.14506	0.00116253	    2.1438	0.00126314	   2.14345	  0.001221	   2.14345	   30.5251	
   2.06705	0.00123509	   2.07094	 0.0011605	   2.06919	0.00126084	   2.06906	0.00121881	   2.06906	   30.4702	
   1.99267	0.00123285	   1.99684	0.00115849	    1.9945	0.00125852	   1.99467	0.00121662	   1.99467	   30.4154	
   1.91814	0.00123048	   1.92257	0.00115636	   1.91969	0.00125623	   1.92013	0.00121436	   1.92013	   30.3589	
   1.84355	0.00122808	   1.84819	0.00115424	   1.84483	0.00125385	   1.84552	0.00121206	   1.84552	   30.3014	
     1.769	0.00122569	   1.77386	0.00115214	   1.77001	0.00125138	   1.77096	0.00120974	   1.77096	   30.2435	
   1.69433	0.00122319	   1.69934	0.00114996	   1.69501	0.00124892	   1.69622	0.00120736	   1.69622	   30.1839	
   1.61969	0.00122063	   1.62486	0.00114777	      1.62	0.00124637	   1.62151	0.00120492	   1.62151	    30.123	
   1.54501	0.00121807	   1.55018	0.00114559	   1.54496	0.00124374	   1.54672	0.00120247	   1.54672	   30.0617	
   1.47029	0.00121542	   1.47542	0.00114333	   1.46989	0.00124111	   1.47186	0.00119995	   1.47186	   29.9988	
   1.39564	 0.0012127	   1.40054	0.00114099	   1.39495	0.00123844	   1.39704	0.00119738	   1.39704	   29.9344	
   1.32086	0.00120995	   1.32553	0.00113871	   1.31983	0.00123564	   1.32207	0.00119476	   1.32207	   29.8691	
   1.24617	 0.0012071	   1.25058	0.00113641	   1.24481	0.00123282	   1.24719	0.00119211	   1.24719	   29.8027	
   1.17133	0.00120427	   1.17552	0.00113395	   1.16965	0.00122999	   1.17217	 0.0011894	   1.17217	   29.7351	
   1.09644	0.00120135	    1.1004	0.00113144	   1.09441	0.00122709	   1.09709	0.00118662	   1.09709	   29.6656	
   1.02148	0.00119827	   1.02535	0.00112897	   1.01921	0.00122414	   1.02201	0.00118379	   1.02201	   29.5948	
  0.946411	0.00119523	  0.950167	0.00112636	  0.943906	0.00122117	  0.946828	0.00118092	  0.946828	    29.523	
  0.871287	0.00119219	  0.875016	0.00112366	  0.868615	0.00121813	  0.871639	0.00117799	  0.871639	   29.4498	
  0.796039	  0.001189	  0.799712	0.00112098	  0.793252	0.00121507	  0.796334	0.00117501	  0.796334	   29.3754	
  0.720788	0.00118579	  0.724378	0.00111823	  0.717831	0.00121199	  0.720999	  0.001172	  0.720999	      29.3	
  0.645596	0.00118259	  0.649131	0.00111537	  0.642474	0.00120879	  0.645734	0.00116892	  0.645734	   29.2229	
  0.570265	0.00117932	  0.573719	0.00111255	  0.567136	0.00120561	  0.570373	0.00116582	  0.570373	   29.1456	
  0.495017	0.00117594	  0.498366	0.00110969	  0.491763	0.00120244	  0.495049	0.00116269	  0.495049	   29.0673	
   0.41971	0.00117265	  0.423238	0.00110669	  0.416381	0.00119915	  0.419776	 0.0011595	  0.419776	   28.9874	
  0.344407	0.00116937	  0.348019	0.00110374	  0.340952	0.00119589	  0.344459	0.00115633	  0.344459	   28.9083	
  0.269044	0.00116593	  0.273032	0.00110076	  0.265078	0.00119267	  0.269051	0.00115312	  0.269051	    28.828	
  0.193559	0.00116244	  0.197862	0.00109765	  0.189426	0.00118934	  0.193616	0.00114981	  0.193616	   28.7452	
   0.11818	0.00115901	  0.122686	 0.0010946	  0.113736	0.00118598	  0.118201	0.00114653	  0.118201	   28.6633	
 0.0427173	0.00115545	 0.0475978	0.00109154	 0.0379294	0.00118264	 0.0427482	0.00114321	 0.0427482	   28.5802	
-0.0327203	0.00115181	-0.0277366	0.00108835	-0.0373149	0.00117918	-0.0325906	0.00113978	-0.0325906	   28.4945	
 -0.108088	0.00114819	 -0.103157	0.00108519	 -0.112677	0.00117569	 -0.107974	0.00113636	 -0.107974	    28.409	
 -0.183517	0.00114446	 -0.178567	0.00108201	 -0.188414	0.00117213	 -0.183499	0.00113287	 -0.183499	   28.3217	
 -0.258838	0.00114064	 -0.253906	0.00107868	 -0.263815	0.00116845	 -0.258853	0.00112925	 -0.258853	   28.2314	
  -0.33424	0.00113682	 -0.329305	0.00107536	 -0.339181	0.00116477	 -0.334242	0.00112565	 -0.334242	   28.1413	
 -0.409617	 0.0011329	 -0.404716	0.00107203	 -0.414529	0.00116101	  -0.40962	0.00112198	  -0.40962	   28.0495	
  -0.48501	0.00112887	 -0.480075	0.00106852	 -0.489949	0.00115706	 -0.485011	0.00111815	 -0.485011	   27.9538	
  -0.56051	0.00112487	 -0.555522	0.00106502	 -0.565198	0.00115313	  -0.56041	0.00111434	  -0.56041	   27.8585	
  -0.63589	0.00112081	 -0.630842	 0.0010615	 -0.640456	0.00114916	 -0.635729	0.00111049	 -0.635729	   27.7622	
 -0.711302	0.00111662	 -0.706082	0.00105777	 -0.715861	0.00114502	 -0.711082	0.00110647	 -0.711082	   27.6617	
 -0.786682	 0.0011124	  -0.78134	0.00105404	 -0.791238	0.00114086	  -0.78642	0.00110243	  -0.78642	   27.5608	
 -0.861968	0.00110818	  -0.85645	0.00105032	 -0.866474	 0.0011367	 -0.861631	 0.0010984	 -0.861631	     27.46	
 -0.937363	0.00110382	 -0.931617	 0.0010464	 -0.941777	0.00113238	 -0.936919	 0.0010942	 -0.936919	   27.3551	
  -1.01265	0.00109946	  -1.00668	0.00104245	  -1.01698	0.00112802	   -1.0121	0.00108998	   -1.0121	   27.2495	
  -1.08791	0.00109509	  -1.08167	0.00103855	  -1.09213	0.00112369	  -1.08724	0.00108578	  -1.08724	   27.1444	
  -1.16316	0.00109053	  -1.15671	 0.0010345	  -1.16726	0.00111923	  -1.16238	0.00108142	  -1.16238	   27.0355	
  -1.23821	0.00108601	  -1.23157	0.00103041	  -1.24233	0.00111472	  -1.23737	0.00107705	  -1.23737	   26.9261	
  -1.31329	0.00108154	   -1.3065	0.00102634	  -1.31738	0.00111025	  -1.31239	0.00107271	  -1.31239	   26.8177	
  -1.38823	0.00107688	  -1.38135	0.00102215	  -1.39229	0.00110568	  -1.38729	0.00106824	  -1.38729	   26.7059	
  -1.46312	0.00107222	  -1.45616	0.00101797	  -1.46712	0.00110104	  -1.46214	0.00106374	  -1.46214	   26.5936	
  -1.53803	0.00106761	  -1.53103	0.00101382	  -1.54197	0.00109645	  -1.53701	0.00105929	  -1.53701	   26.4823	
  -1.61272	0.00106287	  -1.60574	0.00100953	  -1.61662	0.00109176	  -1.61169	0.00105472	  -1.61169	   26.3681	
  -1.68742	0.00105809	  -1.68054	0.00100526	  -1.69128	0.00108703	  -1.68642	0.00105013	  -1.68642	   26.2532	
  -1.76202	0.00105338	  -1.75527	  0.001001	  -1.76585	0.00108233	  -1.76105	0.00104557	  -1.76105	   26.1393	
  -1.83647	0.00104858	  -1.82989	0.000996654	  -1.84023	0.00107756	  -1.83553	0.00104093	  -1.83553	   26.0233	
  -1.91097	0.00104372	  -1.90459	0.000992283	  -1.91463	0.00107272	  -1.91006	0.00103624	  -1.91006	    25.906	
  -1.98535	0.00103891	  -1.97909	0.000987939	  -1.98882	0.00106792	  -1.98442	0.00103159	  -1.98442	   25.7898	
  -2.05977	0.00103405	  -2.05366	0.000983512	  -2.06301	0.00106307	  -2.05881	0.00102688	  -2.05881	   25.6719	
  -2.13411	0.00102911	  -2.12818	0.000979039	  -2.13716	 0.0010581	  -2.13315	0.00102208	  -2.13315	    25.552	
  -2.20823	 0.0010242	  -2.20245	0.000974572	  -2.21111	0.00105315	  -2.20726	0.00101731	  -2.20726	   25.4327	
  -2.28229	0.00101925	  -2.27673	0.000970037	  -2.28502	0.00104819	  -2.28135	0.00101249	  -2.28135	   25.3123	
  -2.35618	0.00101422	  -2.35086	0.000965425	  -2.35884	 0.0010431	   -2.3553	0.00100758	   -2.3553	   25.1895	
  -2.42993	 0.0010092	  -2.42488	0.000960786	  -2.43254	0.00103799	  -2.42912	0.00100266	  -2.42912	   25.0665	
  -2.50369	0.00100415	  -2.49891	0.00095612	  -2.50625	0.00103289	  -2.50295	0.000997719	  -2.50295	    24.943	
  -2.57734	0.000999019	  -2.57269	0.000951414	  -2.57982	0.00102768	  -2.57662	0.000992703	  -2.57662	   24.8176	
  -2.65103	0.000993883	  -2.64637	0.000946571	   -2.6534	0.00102242	  -2.65026	0.000987626	  -2.65026	   24.6907	
   -2.7246	0.000988711	  -2.71998	0.000941689	  -2.72688	0.00101715	  -2.72382	0.000982519	  -2.72382	    24.563	
  -2.79807	0.000983448	   -2.7933	0.000936879	  -2.80028	0.00101181	  -2.79722	0.000977378	  -2.79722	   24.4344	
  -2.87154	0.000978121	  -2.86672	0.000931968	  -2.87369	 0.0010064	  -2.87065	0.000972163	  -2.87065	   24.3041	
  -2.94479	0.000972782	  -2.93998	  0.000927	   -2.9469	0.00100098	  -2.94389	0.000966919	  -2.94389	    24.173	
  -3.01785	0.000967357	  -3.01307	0.000922055	  -3.02004	0.000995494	  -3.01699	0.000961635	  -3.01699	   24.0409	
  -3.09088	0.000961879	  -3.08616	0.000917053	   -3.0931	0.000989921	  -3.09005	0.000956284	  -3.09005	   23.9071	
  -3.16363	0.000956386	    -3.159	0.000912013	  -3.16598	0.000984323	  -3.16287	0.000950907	  -3.16287	   23.7727	
  -3.23641	0.000950831	  -3.23174	0.000906983	   -3.2389	0.000978698	  -3.23568	0.000945504	  -3.23568	   23.6376	
  -3.30907	0.000945262	  -3.30439	0.000901906	  -3.31171	0.000972992	  -3.30839	0.000940053	  -3.30839	   23.5013	
  -3.38158	0.000939639	  -3.37677	0.000896788	  -3.38435	0.000967201	   -3.3809	0.000934543	   -3.3809	   23.3636	
  -3.45398	0.000933959	   -3.4492	0.000891675	    -3.457	0.000961367	  -3.45339	0.000929001	  -3.45339	    23.225	
  -3.52619	0.000928275	  -3.52147	0.000886541	  -3.52944	0.000955525	   -3.5257	0.000923447	   -3.5257	   23.0862	
  -3.59822	0.000922538	  -3.59355	0.000881356	   -3.6017	0.000949645	  -3.59783	0.000917846	  -3.59783	   22.9462	
   -3.6702	0.000916768	   -3.6656	0.000876175	  -3.67395	0.000943643	  -3.66992	0.000912195	  -3.66992	   22.8049	
  -3.74197	0.000910989	  -3.73743	0.00087097	  -3.74593	0.000937582	  -3.74178	0.000906514	  -3.74178	   22.6628	
  -3.81361	0.000905168	   -3.8091	0.000865714	  -3.81771	0.000931552	  -3.81347	0.000900811	  -3.81347	   22.5203	
  -3.88512	0.000899326	  -3.88067	0.000860449	  -3.88942	0.000925465	  -3.88507	0.00089508	  -3.88507	    22.377	
  -3.95636	0.000893457	  -3.95201	0.000855155	  -3.96085	0.000919294	  -3.95641	0.000889302	  -3.95641	   22.2326	
  -4.02758	0.000887561	   -4.0233	0.000849796	  -4.03209	0.000913126	  -4.02765	0.000883494	  -4.02765	   22.0874	
  -4.09866	0.00088166	  -4.09448	0.000844406	   -4.1032	0.000906882	  -4.09878	0.000877649	  -4.09878	   21.9412	
  -4.16948	0.000875773	  -4.16547	0.000838981	  -4.17404	0.000900583	  -4.16967	0.000871779	  -4.16967	   21.7945	
  -4.24026	0.00086985	  -4.23638	0.00083353	  -4.24485	0.000894273	   -4.2405	0.000865884	   -4.2405	   21.6471	
  -4.31081	0.000863856	  -4.30714	0.000828015	  -4.31548	0.000887903	  -4.31114	0.000859925	  -4.31114	   21.4981	
    -4.381	0.00085783	  -4.37754	0.000822436	   -4.3858	0.000881477	  -4.38145	0.000853914	  -4.38145	   21.3479	
  -4.45138	0.000851853	  -4.44789	0.000816833	  -4.45598	0.000875013	  -4.45175	 0.0008479	  -4.45175	   21.1975	
  -4.52185	0.000845842	  -4.51805	0.000811145	  -4.52595	 0.0008685	  -4.52195	0.000841829	  -4.52195	   21.0457	
  -4.59188	0.000839698	  -4.58787	0.000805401	  -4.59564	0.000861944	   -4.5918	0.000835681	   -4.5918	    20.892	
   -4.6616	0.000833547	  -4.65772	0.000799633	  -4.66534	0.000855357	  -4.66155	0.000829513	  -4.66155	   20.7378	
  -4.73117	0.000827393	  -4.72733	0.000793755	  -4.73479	0.000848723	   -4.7311	0.00082329	   -4.7311	   20.5823	
  -4.80061	0.000821122	  -4.79659	0.000787823	  -4.80397	0.000842033	  -4.80039	0.000816993	  -4.80039	   20.4248	
  -4.86988	0.000814768	  -4.86583	0.000781887	  -4.87313	0.000835309	  -4.86961	0.000810655	  -4.86961	   20.2664	
  -4.93886	0.000808421	  -4.93488	0.000775842	  -4.94201	0.000828546	  -4.93858	0.00080427	  -4.93858	   20.1067	
  -5.00764	0.000801997	  -5.00364	0.000769733	  -5.01066	0.00082173	  -5.00732	0.00079782	  -5.00732	   19.9455	
  -5.07635	0.000795407	  -5.07237	0.000763629	  -5.07921	0.00081488	  -5.07598	0.000791305	  -5.07598	   19.7826	
  -5.14476	0.000788822	  -5.14082	0.000757438	  -5.14747	0.000807997	  -5.14435	0.000784752	  -5.14435	   19.6188	
  -5.21286	0.000782242	  -5.20906	0.000751189	  -5.21545	0.000801064	  -5.21245	0.000778165	  -5.21245	   19.4541	
  -5.28083	0.000775532	  -5.27724	0.000744991	  -5.28337	0.000794111	  -5.28048	0.000771545	  -5.28048	   19.2886	
   -5.3485	0.000768815	  -5.34513	0.000738702	  -5.35101	0.000787136	  -5.34821	0.000764885	  -5.34821	   19.1221	
  -5.41604	0.000762129	  -5.41279	0.000732325	  -5.41842	0.000780108	  -5.41575	0.000758187	  -5.41575	   18.9547	
  -5.48349	0.000755357	  -5.48038	0.000726026	  -5.48572	0.000773065	   -5.4832	0.000751483	   -5.4832	   18.7871	
  -5.55063	0.000748573	  -5.54768	0.000719716	  -5.55272	0.000766024	  -5.55034	0.000744771	  -5.55034	   18.6193	
  -5.61752	0.000741835	  -5.61463	0.000713285	   -5.6195	0.000758937	  -5.61722	0.000738019	  -5.61722	   18.4505	
  -5.68433	0.000735043	  -5.68137	0.000706885	  -5.68618	0.000751833	  -5.68396	0.000731254	  -5.68396	   18.2813	
  -5.75083	0.000728229	  -5.74784	0.00070048	  -5.75257	0.000744715	  -5.75041	0.000724474	  -5.75041	   18.1119	
  -5.81709	0.000721476	  -5.81399	0.00069396	  -5.81863	0.000737558	  -5.81657	0.000717664	  -5.81657	   17.9416	
  -5.88319	0.00071467	  -5.88006	0.000687444	  -5.88466	0.000730403	  -5.88264	0.000710839	  -5.88264	    17.771	
  -5.94905	0.000707816	  -5.94587	0.000680935	  -5.95042	0.000723233	  -5.94845	0.000703995	  -5.94845	   17.5999	
  -6.01456	0.000701003	  -6.01127	0.000674297	  -6.01591	0.000716031	  -6.01392	0.00069711	  -6.01392	   17.4278	
  -6.07988	0.000694141	  -6.07647	0.000667625	  -6.08128	0.000708831	  -6.07921	0.000690199	  -6.07921	    17.255	
  -6.14495	0.000687223	  -6.14145	0.000660993	  -6.14641	0.000701605	  -6.14427	0.000683274	  -6.14427	   17.0819	
  -6.20961	0.000680335	  -6.20601	0.000654234	  -6.21108	0.000694348	   -6.2089	0.000676305	   -6.2089	   16.9076	
  -6.27417	0.000673407	  -6.27041	0.00064742	  -6.27552	0.000687085	  -6.27337	0.000669304	  -6.27337	   16.7326	
  -6.33851	0.000666411	  -6.33458	0.000640651	  -6.33977	0.000679783	  -6.33762	0.000662282	  -6.33762	    16.557	
  -6.40254	0.000659427	  -6.39838	0.000633737	  -6.40367	0.000672443	  -6.40153	0.000655202	  -6.40153	   16.3801	
  -6.46644	0.000652412	  -6.46186	0.000626768	  -6.46743	0.000665091	  -6.46524	0.00064809	  -6.46524	   16.2023	
  -6.53018	0.000645313	  -6.52523	0.000619863	  -6.53105	0.000657694	  -6.52882	0.000640957	  -6.52882	   16.0239	
  -6.59352	0.000638209	  -6.58828	0.000612825	  -6.59431	0.000650253	  -6.59204	0.000633762	  -6.59204	   15.8441	
  -6.65675	0.000631093	  -6.65098	0.000605773	  -6.65731	0.000642802	  -6.65501	0.000626556	  -6.65501	   15.6639	
  -6.71985	0.000623898	  -6.71357	0.000598763	  -6.72023	0.00063531	  -6.71788	0.000619324	  -6.71788	   15.4831	
  -6.78262	0.000616689	   -6.7759	0.000591621	  -6.78285	0.000627751	  -6.78046	0.00061202	  -6.78046	   15.3005	
   -6.8449	0.00060949	  -6.83784	0.000584458	  -6.84502	0.000620187	  -6.84258	0.000604712	  -6.84258	   15.1178	
  -6.90703	0.000602224	  -6.89954	0.000577353	  -6.90701	0.000612608	  -6.90453	0.000597395	  -6.90453	   14.9349	
  -6.96891	0.000594933	  -6.96102	0.000570129	  -6.96878	0.000604945	  -6.96623	0.000590002	  -6.96623	   14.7501	
  -7.03038	0.000587664	  -7.02212	0.00056287	  -7.03018	0.000597263	  -7.02756	0.000582599	  -7.02756	    14.565	
  -7.09168	0.000580352	  -7.08282	0.000555665	  -7.09133	0.000589603	  -7.08861	0.000575207	  -7.08861	   14.3802	
  -7.15275	0.000573006	  -7.14344	0.000548363	  -7.15233	0.000581839	  -7.14951	0.000567736	  -7.14951	   14.1934	
  -7.21345	0.000565639	  -7.20378	0.000540995	  -7.21299	0.000574091	  -7.21007	0.000560242	  -7.21007	    14.006	
  -7.27364	0.000558259	  -7.26374	0.000533687	  -7.27321	0.000566405	   -7.2702	0.000552784	   -7.2702	   13.8196	
  -7.33366	0.000550901	  -7.32351	0.000526318	  -7.33324	0.000558603	  -7.33014	0.000545274	  -7.33014	   13.6319	
  -7.39342	0.000543505	  -7.38309	0.000518879	  -7.39303	0.000550759	  -7.38985	0.000537714	  -7.38985	   13.4429	
  -7.45278	0.000536058	  -7.44229	0.000511482	  -7.45243	0.000542985	  -7.44917	0.000530175	  -7.44917	   13.2544	
  -7.51182	0.000528629	  -7.50119	0.00050405	  -7.51164	0.000535161	  -7.50822	0.000522613	  -7.50822	   13.0653	
  -7.57071	0.000521152	  -7.55984	0.000496554	  -7.57071	0.000527269	  -7.56709	0.000514992	  -7.56709	   12.8748	
  -7.62927	0.000513612	  -7.61823	0.000489088	  -7.62949	0.000519388	  -7.62566	0.000507363	  -7.62566	   12.6841	
  -7.68735	0.000506069	  -7.67622	0.000481602	  -7.68786	0.000511517	  -7.68381	0.000499729	  -7.68381	   12.4932	
  -7.74537	0.00049851	   -7.7339	0.000474059	  -7.74554	0.000503546	  -7.74161	0.000492038	  -7.74161	    12.301	
  -7.80317	0.000490876	  -7.79145	0.000466542	  -7.80274	0.000495503	  -7.79912	0.000484307	  -7.79912	   12.1077	
   -7.8605	0.000483206	  -7.84867	0.000459027	  -7.86005	0.000487506	  -7.85641	0.00047658	  -7.85641	   11.9145	
  -7.91762	0.000475531	  -7.90539	0.000451471	  -7.91737	0.000479549	  -7.91346	0.000468851	  -7.91346	   11.7213	
  -7.97423	0.000467786	  -7.96186	0.000443937	  -7.97409	0.000471517	  -7.97006	0.00046108	  -7.97006	    11.527	
   -8.0306	0.000459958	  -8.01815	0.000436414	  -8.03052	0.000463427	  -8.02642	0.000453266	  -8.02642	   11.3317	
  -8.08664	0.00045221	  -8.07409	0.000428855	  -8.08658	0.000455343	  -8.08244	0.000445469	  -8.08244	   11.1367	
  -8.14233	0.000444353	  -8.12954	0.000421315	  -8.14232	0.000447254	  -8.13806	0.000437641	  -8.13806	    10.941	
   -8.1977	0.000436379	   -8.1847	0.000413787	  -8.19775	0.00043913	  -8.19338	0.000429765	  -8.19338	   10.7441	
  -8.25274	0.000428503	  -8.23966	0.000406228	  -8.25292	0.000431001	  -8.24844	0.000421911	  -8.24844	   10.5478	
   -8.3074	0.000420583	  -8.29426	0.000398696	  -8.30776	0.000422849	  -8.30314	0.000414043	  -8.30314	   10.3511	
  -8.36179	0.000412523	  -8.34838	0.000391177	  -8.36228	0.000414665	  -8.35748	0.000406122	  -8.35748	    10.153	
  -8.41586	0.000404551	  -8.40223	0.000383628	   -8.4166	0.00040649	  -8.41157	0.000398223	  -8.41157	   9.95558	
  -8.46967	0.000396571	   -8.4559	0.000376101	  -8.47065	0.000398304	  -8.46541	0.000390325	  -8.46541	   9.75813	
  -8.52303	0.000388487	  -8.50921	0.000368587	  -8.52426	0.000390051	  -8.51883	0.000382375	  -8.51883	   9.55938	
  -8.57586	0.000380466	  -8.56205	0.00036105	  -8.57737	0.000381832	  -8.57176	0.00037445	  -8.57176	   9.36124	
   -8.6284	0.000372465	  -8.61455	0.000353517	  -8.63024	0.000373649	   -8.6244	0.000366544	   -8.6244	   9.16359	
  -8.68071	0.000364373	   -8.6669	0.000345981	  -8.68287	0.000365383	  -8.67683	0.000358579	  -8.67683	   8.96447	
  -8.73262	0.00035632	  -8.71891	0.000338432	  -8.73509	0.000357113	  -8.72888	0.000350622	  -8.72888	   8.76554	
    -8.784	0.000348304	   -8.7705	0.000330894	  -8.78686	0.000348892	  -8.78045	0.000342697	  -8.78045	   8.56742	
  -8.83509	0.00034021	   -8.8216	0.00032336	  -8.83828	0.000340592	  -8.83166	0.000334721	  -8.83166	   8.36802	
  -8.88601	0.000332136	  -8.87249	0.000315763	  -8.88951	0.000332252	  -8.88267	0.000326717	  -8.88267	   8.16793	
  -8.93659	0.000324104	  -8.92311	0.000308177	  -8.94037	0.000323955	  -8.93336	0.000318745	  -8.93336	   7.96863	
  -8.98673	0.000315975	   -8.9733	0.000300666	  -8.99073	0.000315595	  -8.98358	0.000310746	  -8.98358	   7.76864	
  -9.03648	0.000307887	  -9.02297	0.000293053	  -9.04059	0.000307179	  -9.03335	0.000302706	  -9.03335	   7.56766	
  -9.08602	0.000299877	  -9.07237	0.000285411	  -9.09023	0.00029879	  -9.08287	0.000294692	  -9.08287	   7.36731	
  -9.13523	0.000291755	  -9.12159	0.000277884	   -9.1396	0.000290365	  -9.13214	0.000286668	  -9.13214	    7.1667	
  -9.18403	0.000283606	  -9.17045	0.000270285	   -9.1886	0.000281881	  -9.18103	0.000278591	  -9.18103	   6.96476	
  -9.23232	0.00027556	  -9.21883	0.000262629	  -9.23713	0.000273424	  -9.22943	0.000270538	  -9.22943	   6.76344	
  -9.28024	0.000267435	  -9.26683	0.000255068	  -9.28527	0.00026495	  -9.27745	0.000262484	  -9.27745	   6.56211	
  -9.32795	0.000259246	  -9.31468	0.000247474	  -9.33318	0.000256423	  -9.32527	0.000254381	  -9.32527	   6.35952	
  -9.37535	0.000251137	  -9.36228	0.000239785	  -9.38077	0.000247931	   -9.3728	0.000246284	   -9.3728	    6.1571	
  -9.42235	0.000242979	  -9.40948	0.000232181	   -9.4279	0.000239437	  -9.41991	0.000238199	  -9.41991	   5.95497	
  -9.46888	0.000234733	  -9.45614	0.000224588	  -9.47449	0.000230897	   -9.4665	0.000230073	   -9.4665	   5.75182	
  -9.51516	0.000226546	  -9.50231	0.000216879	  -9.52083	0.000222408	  -9.51276	0.000221945	  -9.51276	   5.54861	
  -9.56126	0.000218349	  -9.54821	0.000209204	  -9.56698	0.000213927	  -9.55881	0.000213827	  -9.55881	   5.34567	
  -9.60702	0.000210062	  -9.59385	0.00020158	  -9.61279	0.000205367	  -9.60455	0.000205669	  -9.60455	   5.14174	
  -9.65232	0.000201805	  -9.63911	0.000193837	  -9.65813	0.000196871	  -9.64985	0.000197504	  -9.64985	    4.9376	
  -9.69713	0.000193586	  -9.68385	0.000186115	  -9.70309	0.000188425	  -9.69469	0.000189375	  -9.69469	   4.73438	
  -9.74163	0.000185256	  -9.72812	0.000178421	  -9.74755	0.000179901	   -9.7391	0.000181193	   -9.7391	   4.52983	
  -9.78584	0.000176891	   -9.7722	0.000170605	  -9.79173	0.000171425	  -9.78326	0.000172974	  -9.78326	   4.32434	
  -9.82976	0.000168608	  -9.81605	0.000162823	  -9.83561	0.000163014	  -9.82714	0.000164815	  -9.82714	   4.12037	
  -9.87323	0.000160299	  -9.85954	0.000155078	  -9.87905	0.00015454	  -9.87061	0.000156639	  -9.87061	   3.91597	
  -9.91615	0.000151895	  -9.90259	0.00014718	    -9.922	0.000146086	  -9.91358	0.000148387	  -9.91358	   3.70968	
  -9.95858	0.00014355	  -9.94514	0.000139293	  -9.96439	0.000137685	  -9.95604	0.000140176	  -9.95604	   3.50439	
  -10.0007	0.000135256	  -9.98729	0.000131463	  -10.0064	0.000129252	  -9.99814	0.00013199	  -9.99814	   3.29976	
   -10.042	0.000126834	  -10.0292	0.000123522	  -10.0481	0.000120822	  -10.0398	0.000123726	  -10.0398	   3.09315	
  -10.0825	0.000118409	  -10.0708	0.000115564	  -10.0895	0.000112435	  -10.0809	0.00011547	  -10.0809	   2.88674	
  -10.1233	0.000110057	  -10.1119	0.000107683	  -10.1304	0.000104043	  -10.1219	0.000107261	  -10.1219	   2.68152	
  -10.1641	0.000101633	  -10.1526	9.97316e-05	  -10.1708	9.55808e-05	  -10.1625	9.89817e-05	  -10.1625	   2.47454	
  -10.2043	9.31591e-05	  -10.1928	9.17354e-05	  -10.2109	8.71115e-05	  -10.2026	9.06687e-05	  -10.2026	   2.26672	
   -10.244	8.47457e-05	  -10.2324	8.3828e-05	  -10.2508	7.87793e-05	  -10.2424	8.2451e-05	  -10.2424	   2.06127	
  -10.2834	7.62936e-05	  -10.2717	7.59312e-05	  -10.2903	7.03687e-05	  -10.2818	7.41978e-05	  -10.2818	   1.85495	
  -10.3226	6.78131e-05	  -10.3108	6.7959e-05	  -10.3292	 6.189e-05	  -10.3209	6.58873e-05	  -10.3209	   1.64718	
  -10.3613	5.93437e-05	  -10.3494	6.00196e-05	  -10.3679	5.35555e-05	  -10.3595	5.76396e-05	  -10.3595	   1.44099	
  -10.3994	5.0868e-05	  -10.3876	5.21254e-05	   -10.406	4.51735e-05	  -10.3977	4.9389e-05	  -10.3977	   1.23472	
  -10.4371	4.23813e-05	  -10.4253	4.4194e-05	  -10.4438	3.66765e-05	  -10.4354	4.10839e-05	  -10.4354	    1.0271	
  -10.4743	3.39066e-05	  -10.4624	3.63183e-05	  -10.4811	2.83614e-05	  -10.4726	3.28621e-05	  -10.4726	  0.821552	
  -10.5113	2.54428e-05	  -10.4992	2.84622e-05	  -10.5179	2.00723e-05	  -10.5095	2.46591e-05	  -10.5095	  0.616478	
  -10.5479	1.69911e-05	  -10.5359	2.05292e-05	  -10.5544	1.16935e-05	  -10.5461	1.64046e-05	  -10.5461	  0.410115	
  -10.5842	8.57091e-06	  -10.5722	1.26687e-05	  -10.5905	3.42449e-06	  -10.5823	8.22135e-06	  -10.5823	  0.205534	
    -10.62	1.57426e-07	  -10.6081	4.85494e-06	  -10.6261	-4.80087e-06	  -10.6181	7.04989e-08	  -10.6181	0.00176247	
  -10.6553	-8.25364e-06	  -10.6435	-3.0386e-06	  -10.6612	-1.31001e-05	  -10.6533	-8.1308e-06	  -10.6533	  -0.20327	
  -10.6901	-1.66155e-05	  -10.6783	-1.08863e-05	  -10.6958	-2.12885e-05	  -10.6881	-1.62634e-05	  -10.6881	 -0.406586	
  -10.7245	-2.49535e-05	  -10.7126	-1.86857e-05	  -10.7299	-2.94182e-05	  -10.7223	-2.43525e-05	  -10.7223	 -0.608812	
  -10.7585	-3.33042e-05	  -10.7464	-2.65693e-05	  -10.7637	-3.76162e-05	  -10.7562	-3.24966e-05	  -10.7562	 -0.812414	
  -10.7923	-4.16179e-05	    -10.78	-3.44336e-05	  -10.7972	-4.57273e-05	  -10.7898	-4.0593e-05	  -10.7898	  -1.01482	
  -10.8257	-4.98917e-05	  -10.8132	-4.2248e-05	  -10.8303	-5.37311e-05	  -10.8231	-4.86236e-05	  -10.8231	  -1.21559	
  -10.8587	-5.81779e-05	  -10.8461	-5.00684e-05	  -10.8631	-6.18222e-05	   -10.856	-5.66895e-05	   -10.856	  -1.41724	
  -10.8913	-6.64425e-05	  -10.8786	-5.79073e-05	  -10.8954	-6.98738e-05	  -10.8884	-6.47412e-05	  -10.8884	  -1.61853	
  -10.9232	-7.4677e-05	  -10.9106	-6.5792e-05	  -10.9271	-7.7843e-05	  -10.9203	-7.27707e-05	  -10.9203	  -1.81927	
  -10.9545	-8.29198e-05	   -10.942	-7.36288e-05	  -10.9583	-8.5892e-05	  -10.9516	-8.08135e-05	  -10.9516	  -2.02034	
  -10.9855	-9.11607e-05	  -10.9728	-8.14133e-05	  -10.9889	-9.39342e-05	  -10.9824	-8.8836e-05	  -10.9824	   -2.2209	
  -11.0158	-9.93698e-05	  -11.0031	-8.92535e-05	  -11.0189	-0.0001019	  -11.0126	-9.68411e-05	  -11.0126	  -2.42103	
   -11.046	-0.00010758	   -11.033	-9.7076e-05	  -11.0488	-0.00010993	  -11.0426	-0.000104862	  -11.0426	  -2.62155	
  -11.0758	-0.000115832	  -11.0626	-0.000104799	  -11.0783	-0.000117972	  -11.0722	-0.000112868	  -11.0722	   -2.8217	
  -11.1052	-0.000124039	  -11.0919	-0.000112499	  -11.1075	-0.000125954	  -11.1016	-0.000120831	  -11.1016	  -3.02077	
  -11.1343	-0.000132242	  -11.1206	-0.000120215	  -11.1364	-0.000133981	  -11.1304	-0.000128813	  -11.1304	  -3.22032	
  -11.1628	-0.000140482	  -11.1484	-0.000127904	  -11.1648	-0.000142041	  -11.1587	-0.000136809	  -11.1587	  -3.42024	
  -11.1908	-0.000148686	   -11.176	-0.000135515	  -11.1927	-0.000150049	  -11.1865	-0.00014475	  -11.1865	  -3.61874	
  -11.2183	-0.000156885	  -11.2038	-0.00014304	    -11.22	-0.00015809	   -11.214	-0.000152672	   -11.214	  -3.81679	
  -11.2451	-0.000165104	   -11.231	-0.000150566	  -11.2468	-0.000166164	  -11.2409	-0.000160611	  -11.2409	  -4.01528	
  -11.2714	-0.000173283	  -11.2575	-0.000158078	   -11.273	-0.000174197	  -11.2673	-0.00016852	  -11.2673	  -4.21299	
   -11.297	-0.000181451	  -11.2836	-0.000165502	  -11.2986	-0.000182245	  -11.2931	-0.0001764	  -11.2931	  -4.40999	
  -11.3222	-0.00018963	  -11.3093	-0.000172906	  -11.3238	-0.000190326	  -11.3184	-0.000184287	  -11.3184	  -4.60718	
  -11.3471	-0.000197777	  -11.3346	-0.000180319	  -11.3487	-0.000198362	  -11.3434	-0.000192153	  -11.3434	  -4.80382	
  -11.3716	-0.000205905	  -11.3593	-0.000187674	  -11.3734	-0.000206402	  -11.3681	-0.000199994	  -11.3681	  -4.99984	
  -11.3958	-0.000214043	  -11.3838	-0.000195012	  -11.3977	-0.000214471	  -11.3924	-0.000207842	  -11.3924	  -5.19605	
  -11.4198	-0.000222152	   -11.408	-0.000202381	  -11.4217	-0.000222484	  -11.4165	-0.000215672	  -11.4165	  -5.39181	
  -11.4433	-0.000230247	  -11.4318	-0.000209724	  -11.4453	-0.000230504	  -11.4401	-0.000223492	  -11.4401	   -5.5873	
  -11.4663	-0.000238324	  -11.4552	-0.000217053	  -11.4685	-0.000238535	  -11.4633	-0.000231304	  -11.4633	  -5.78259	
  -11.4889	-0.000246363	  -11.4781	-0.000224425	  -11.4911	-0.000246517	  -11.4861	-0.000239102	  -11.4861	  -5.97754	
  -11.5109	-0.000254395	  -11.5006	-0.000231807	  -11.5133	-0.000254504	  -11.5083	-0.000246902	  -11.5083	  -6.17255	
  -11.5324	-0.000262392	  -11.5225	-0.00023915	  -11.5349	-0.000262507	  -11.5299	-0.000254683	  -11.5299	  -6.36707	
  -11.5535	-0.000270371	  -11.5438	-0.000246518	  -11.5559	-0.000270459	  -11.5511	-0.000262449	  -11.5511	  -6.56124	
  -11.5741	-0.000278362	  -11.5645	-0.000253917	  -11.5763	-0.000278429	  -11.5716	-0.000270236	  -11.5716	   -6.7559	
  -11.5943	-0.000286294	  -11.5846	-0.000261275	  -11.5961	-0.000286424	  -11.5917	-0.000277998	  -11.5917	  -6.94994	
  -11.6143	-0.000294184	  -11.6041	-0.000268657	  -11.6154	-0.000294383	  -11.6112	-0.000285741	  -11.6112	  -7.14353	
  -11.6336	-0.000302115	   -11.623	-0.000276014	  -11.6341	-0.00030234	  -11.6302	-0.00029349	  -11.6302	  -7.33724	
  -11.6525	-0.000310006	  -11.6412	-0.000283303	  -11.6522	-0.000310315	  -11.6486	-0.000301208	  -11.6486	   -7.5302	
  -11.6707	-0.000317845	   -11.659	-0.000290663	  -11.6698	-0.000318288	  -11.6665	-0.000308932	  -11.6665	  -7.72331	
  -11.6887	-0.000325712	  -11.6763	-0.000297995	  -11.6868	-0.000326258	   -11.684	-0.000316655	   -11.684	  -7.91637	
  -11.7063	-0.000333518	  -11.6932	-0.000305213	  -11.7035	-0.000334226	   -11.701	-0.000324319	   -11.701	  -8.10797	
   -11.723	-0.000341266	  -11.7097	-0.000312505	  -11.7198	-0.000342215	  -11.7175	-0.000331995	  -11.7175	  -8.29989	
  -11.7395	-0.000349041	   -11.726	-0.000319791	  -11.7358	-0.000350206	  -11.7338	-0.000339679	  -11.7338	  -8.49198	
  -11.7557	-0.000356775	   -11.742	-0.000326956	  -11.7515	-0.000358201	  -11.7498	-0.000347311	  -11.7498	  -8.68277	
  -11.7714	-0.000364434	  -11.7578	-0.000334157	   -11.767	-0.000366226	  -11.7654	-0.000354939	  -11.7654	  -8.87348	
  -11.7864	-0.000372095	  -11.7731	-0.000341392	  -11.7822	-0.000374228	  -11.7806	-0.000362572	  -11.7806	  -9.06429	
  -11.8009	-0.00037976	   -11.788	-0.000348531	  -11.7972	-0.000382203	  -11.7954	-0.000370165	  -11.7954	  -9.25412	
   -11.815	-0.000387346	  -11.8026	-0.000355676	  -11.8118	-0.000390228	  -11.8098	-0.00037775	  -11.8098	  -9.44375	
  -11.8287	-0.000394944	  -11.8168	-0.000362876	  -11.8261	-0.000398239	  -11.8239	-0.000385353	  -11.8239	  -9.63383	
   -11.842	-0.000402565	  -11.8307	-0.000370015	  -11.8401	-0.00040619	  -11.8376	-0.000392923	  -11.8376	  -9.82308	
   -11.855	-0.000410102	  -11.8442	-0.000377122	  -11.8537	-0.000414175	   -11.851	-0.000400466	   -11.851	  -10.0117	
  -11.8677	-0.000417655	  -11.8574	-0.000384289	  -11.8669	-0.000422161	   -11.864	-0.000408035	   -11.864	  -10.2009	
  -11.8799	-0.000425225	  -11.8701	-0.000391374	  -11.8797	-0.000430037	  -11.8766	-0.000415545	  -11.8766	  -10.3886	
  -11.8918	-0.000432757	  -11.8819	-0.000398475	  -11.8922	-0.000437916	  -11.8886	-0.000423049	  -11.8886	  -10.5762	
  -11.9032	-0.000440313	  -11.8929	-0.000405666	  -11.9042	-0.000445846	  -11.9001	-0.000430608	  -11.9001	  -10.7652	
  -11.9142	-0.000447847	   -11.904	-0.000412691	  -11.9157	-0.000453696	  -11.9113	-0.000438078	  -11.9113	  -10.9519	
  -11.9247	-0.000455329	  -11.9146	-0.000419734	  -11.9269	-0.0004615	  -11.9221	-0.000445521	  -11.9221	   -11.138	
  -11.9349	-0.000462855	  -11.9244	-0.000426908	  -11.9376	-0.000469325	  -11.9323	-0.000453029	  -11.9323	  -11.3257	
  -11.9446	-0.000470377	  -11.9337	-0.000433942	  -11.9479	-0.000477093	  -11.9421	-0.000460471	  -11.9421	  -11.5118	
  -11.9539	-0.000477826	  -11.9426	-0.000440943	  -11.9576	-0.0004848	  -11.9514	-0.000467856	  -11.9514	  -11.6964	
  -11.9629	-0.000485296	  -11.9511	-0.000448056	  -11.9668	-0.000492519	  -11.9603	-0.00047529	  -11.9603	  -11.8823	
  -11.9714	-0.000492761	  -11.9592	-0.000455088	  -11.9755	-0.000500211	  -11.9687	-0.000482687	  -11.9687	  -12.0672	
  -11.9796	-0.000500151	  -11.9668	-0.000462078	  -11.9838	-0.00050784	  -11.9767	-0.000490023	  -11.9767	  -12.2506	
  -11.9874	-0.000507536	  -11.9741	-0.00046915	  -11.9917	-0.000515394	  -11.9844	-0.00049736	  -11.9844	   -12.434	
  -11.9946	-0.000514934	  -11.9809	-0.000476181	   -11.999	-0.000522965	  -11.9915	-0.000504694	  -11.9915	  -12.6173	
  -12.0014	-0.000522269	  -11.9871	-0.000483141	  -12.0058	-0.000530569	  -11.9981	-0.000511993	  -11.9981	  -12.7998	
  -12.0078	-0.000529576	  -11.9929	-0.000490174	  -12.0119	-0.000538073	  -12.0042	-0.000519274	  -12.0042	  -12.9819	
  -12.0135	-0.000536907	  -11.9981	-0.000497181	  -12.0175	-0.00054552	  -12.0097	-0.000526536	  -12.0097	  -13.1634	
  -12.0185	-0.000544218	  -12.0028	-0.000504123	  -12.0225	-0.000552948	  -12.0146	-0.000533763	  -12.0146	  -13.3441	
  -12.0229	-0.000551385	  -12.0069	-0.000511107	  -12.0263	-0.000560414	  -12.0187	-0.000540969	  -12.0187	  -13.5242	
  -12.0267	-0.000558614	  -12.0103	-0.000518106	  -12.0298	-0.000567907	  -12.0223	-0.000548209	  -12.0223	  -13.7052	
  -12.0299	-0.000565939	  -12.0136	-0.000524989	  -12.0331	-0.000575273	  -12.0255	-0.0005554	  -12.0255	   -13.885	
  -12.0323	-0.000573136	  -12.0163	-0.00053188	  -12.0359	-0.000582612	  -12.0282	-0.000562542	  -12.0282	  -14.0636	
  -12.0341	-0.000580298	  -12.0184	-0.000538804	  -12.0381	-0.000590044	  -12.0302	-0.000569715	  -12.0302	  -14.2429	
  -12.0352	-0.000587558	  -12.0199	-0.000545631	  -12.0396	-0.000597411	  -12.0316	-0.000576867	  -12.0316	  -14.4217	
  -12.0357	-0.000594742	  -12.0208	-0.00055255	  -12.0404	-0.000604723	  -12.0323	-0.000584005	  -12.0323	  -14.6001	
  -12.0355	-0.000601868	   -12.021	-0.000559445	  -12.0407	-0.000612106	  -12.0324	-0.00059114	  -12.0324	  -14.7785	
  -12.0348	-0.000609075	   -12.021	-0.000566152	  -12.0404	-0.000619449	  -12.0321	-0.000598226	  -12.0321	  -14.9556	
  -12.0336	-0.000616231	  -12.0205	-0.000572978	  -12.0396	-0.000626728	  -12.0312	-0.000605312	  -12.0312	  -15.1328	
   -12.032	-0.000623306	  -12.0192	-0.000579827	  -12.0383	-0.000634064	  -12.0298	-0.000612399	  -12.0298	    -15.31	
  -12.0299	-0.000630413	  -12.0174	-0.000586494	  -12.0365	-0.000641385	  -12.0279	-0.000619431	  -12.0279	  -15.4858	
  -12.0274	-0.000637469	  -12.0152	-0.000593225	  -12.0344	-0.000648624	  -12.0257	-0.000626439	  -12.0257	   -15.661	
  -12.0247	-0.000644486	  -12.0123	-0.000600026	  -12.0318	-0.000655877	  -12.0229	-0.000633463	  -12.0229	  -15.8366	
  -12.0215	-0.000651518	  -12.0089	-0.000606674	   -12.029	-0.000663146	  -12.0198	-0.000640446	  -12.0198	  -16.0111	
   -12.018	-0.000658465	  -12.0051	-0.000613333	  -12.0257	-0.000670378	  -12.0163	-0.000647392	  -12.0163	  -16.1848	
  -12.0141	-0.000665361	  -12.0005	-0.000620095	  -12.0221	-0.000677569	  -12.0122	-0.000654341	  -12.0122	  -16.3585	
  -12.0098	-0.000672271	  -11.9955	-0.000626727	  -12.0177	-0.000684737	  -12.0077	-0.000661245	  -12.0077	  -16.5311	
  -12.0048	-0.000679108	    -11.99	-0.000633311	  -12.0128	-0.000691898	  -12.0025	-0.000668106	  -12.0025	  -16.7026	
  -11.9992	-0.000685877	  -11.9838	-0.000640025	  -12.0074	-0.000699035	  -11.9968	-0.000674979	  -11.9968	  -16.8745	
   -11.993	-0.000692652	  -11.9772	-0.000646636	  -12.0013	-0.00070615	  -11.9905	-0.000681813	  -11.9905	  -17.0453	
  -11.9862	-0.000699379	  -11.9701	-0.000653157	  -11.9947	-0.000713251	  -11.9837	-0.000688596	  -11.9837	  -17.2149	
   -11.979	-0.000706046	  -11.9626	-0.000659791	  -11.9875	-0.000720329	  -11.9764	-0.000695389	  -11.9764	  -17.3847	
  -11.9713	-0.000712732	  -11.9548	-0.000666338	  -11.9799	-0.00072739	  -11.9687	-0.000702153	  -11.9687	  -17.5538	
  -11.9633	-0.0007194	  -11.9466	-0.000672778	   -11.972	-0.000734435	  -11.9606	-0.000708871	  -11.9606	  -17.7218	
  -11.9549	-0.000726003	  -11.9381	-0.000679285	  -11.9637	-0.000741462	  -11.9522	-0.000715584	  -11.9522	  -17.8896	
  -11.9462	-0.000732625	  -11.9291	-0.000685731	  -11.9551	-0.000748466	  -11.9435	-0.000722274	  -11.9435	  -18.0569	
  -11.9371	-0.00073925	  -11.9196	-0.000692061	  -11.9461	-0.000755444	  -11.9343	-0.000728919	  -11.9343	   -18.223	
  -11.9274	-0.000745835	  -11.9096	-0.000698413	  -11.9364	-0.000762399	  -11.9245	-0.000735549	  -11.9245	  -18.3887	
  -11.9171	-0.00075239	   -11.899	-0.000704724	  -11.9262	-0.000769339	  -11.9141	-0.000742151	  -11.9141	  -18.5538	
  -11.9062	-0.000758922	  -11.8878	-0.000710922	  -11.9153	-0.000776255	  -11.9031	-0.0007487	  -11.9031	  -18.7175	
  -11.8947	-0.000765453	  -11.8763	-0.000717113	  -11.9039	-0.000783121	  -11.8916	-0.000755229	  -11.8916	  -18.8807	
  -11.8829	-0.000771991	  -11.8644	-0.000723285	  -11.8921	-0.000789955	  -11.8798	-0.000761743	  -11.8798	  -19.0436	
  -11.8706	-0.000778462	  -11.8522	-0.000729356	  -11.8798	-0.00079676	  -11.8676	-0.000768193	  -11.8676	  -19.2048	
  -11.8581	-0.000784901	  -11.8399	-0.000735378	  -11.8673	-0.000803562	  -11.8551	-0.000774613	  -11.8551	  -19.3653	
  -11.8453	-0.000791379	  -11.8271	-0.000741406	  -11.8543	-0.000810346	  -11.8422	-0.000781044	  -11.8422	  -19.5261	
   -11.832	-0.000797811	  -11.8137	-0.000747418	  -11.8409	-0.000817042	  -11.8289	-0.000787424	  -11.8289	  -19.6856	
  -11.8182	-0.000804168	  -11.7999	-0.000753298	   -11.827	-0.00082374	   -11.815	-0.000793735	   -11.815	  -19.8434	
  -11.8039	-0.000810534	  -11.7855	-0.000759131	  -11.8126	-0.000830452	  -11.8007	-0.000800039	  -11.8007	   -20.001	
  -11.7891	-0.000816824	  -11.7707	-0.000765032	  -11.7976	-0.000837028	  -11.7858	-0.000806295	  -11.7858	  -20.1574	
  -11.7739	-0.000823045	  -11.7556	-0.000770872	  -11.7822	-0.000843578	  -11.7706	-0.000812498	  -11.7706	  -20.3125	
  -11.7584	-0.000829311	  -11.7398	-0.000776612	  -11.7664	-0.000850172	  -11.7549	-0.000818698	  -11.7549	  -20.4675	
  -11.7425	-0.000835518	  -11.7236	-0.000782378	  -11.7503	-0.000856614	  -11.7388	-0.000824837	  -11.7388	  -20.6209	
  -11.7262	-0.00084156	  -11.7071	-0.000788112	  -11.7337	-0.000862986	  -11.7223	-0.000830886	  -11.7223	  -20.7722	
  -11.7093	-0.000847606	    -11.69	-0.000793765	  -11.7165	-0.000869386	  -11.7053	-0.000836919	  -11.7053	   -20.923	
  -11.6917	-0.000853634	  -11.6724	-0.000799418	  -11.6989	-0.000875661	  -11.6877	-0.000842905	  -11.6877	  -21.0726	
  -11.6736	-0.000859549	  -11.6544	-0.000805041	  -11.6807	-0.000881868	  -11.6696	-0.000848819	  -11.6696	  -21.2205	
  -11.6551	-0.00086544	  -11.6361	-0.000810576	  -11.6621	-0.00088805	  -11.6511	-0.000854689	  -11.6511	  -21.3672	
  -11.6363	-0.000871228	  -11.6174	-0.00081609	  -11.6432	-0.000894157	  -11.6323	-0.000860492	  -11.6323	  -21.5123	
   -11.617	-0.00087696	  -11.5984	-0.00082157	  -11.6241	-0.000900179	  -11.6132	-0.000866236	  -11.6132	  -21.6559	
  -11.5973	-0.000882808	  -11.5788	-0.000826959	  -11.6044	-0.00090614	  -11.5935	-0.000871969	  -11.5935	  -21.7992	
  -11.5771	-0.000888525	  -11.5586	-0.000832302	  -11.5842	-0.000912101	  -11.5733	-0.000877642	  -11.5733	  -21.9411	
  -11.5562	-0.000894161	   -11.538	-0.000837655	  -11.5633	-0.000917933	  -11.5525	-0.00088325	  -11.5525	  -22.0812	
   -11.535	-0.000899908	   -11.517	-0.000842952	  -11.5425	-0.000923614	  -11.5315	-0.000888825	  -11.5315	  -22.2206	
  -11.5134	-0.000905583	  -11.4957	-0.000848148	  -11.5212	-0.000929356	  -11.5101	-0.000894362	  -11.5101	  -22.3591	
  -11.4915	-0.000911201	  -11.4741	-0.000853307	  -11.4992	-0.000935061	  -11.4882	-0.000899856	  -11.4882	  -22.4964	
  -11.4691	-0.000916912	  -11.4519	-0.000858483	  -11.4768	-0.000940577	  -11.4659	-0.000905324	  -11.4659	  -22.6331	
  -11.4461	-0.000922577	  -11.4292	-0.000863622	  -11.4537	-0.000946159	   -11.443	-0.000910786	   -11.443	  -22.7696	
  -11.4226	-0.00092816	  -11.4059	-0.000868674	  -11.4301	-0.000951724	  -11.4195	-0.000916186	  -11.4195	  -22.9046	
  -11.3987	-0.000933833	  -11.3824	-0.000873749	  -11.4062	-0.000957105	  -11.3957	-0.000921563	  -11.3957	  -23.0391	
  -11.3745	-0.000939466	  -11.3584	-0.000878843	  -11.3819	-0.000962553	  -11.3716	-0.000926954	  -11.3716	  -23.1738	
  -11.3498	-0.000944939	  -11.3341	-0.000883818	   -11.357	-0.000968024	  -11.3469	-0.00093226	  -11.3469	  -23.3065	
  -11.3246	-0.000950462	   -11.309	-0.000888817	  -11.3316	-0.000973336	  -11.3217	-0.000937538	  -11.3217	  -23.4385	
  -11.2988	-0.00095596	  -11.2835	-0.000893857	  -11.3061	-0.00097867	  -11.2961	-0.000942829	  -11.2961	  -23.5707	
  -11.2727	-0.000961313	  -11.2576	-0.000898791	    -11.28	-0.00098403	  -11.2701	-0.000948045	  -11.2701	  -23.7011	
  -11.2462	-0.000966655	  -11.2314	-0.000903736	  -11.2535	-0.000989264	  -11.2437	-0.000953218	  -11.2437	  -23.8305	
  -11.2195	-0.000971974	  -11.2048	-0.000908702	  -11.2267	-0.000994501	   -11.217	-0.000958392	   -11.217	  -23.9598	
  -11.1922	-0.000977162	  -11.1778	-0.000913587	  -11.1993	-0.000999759	  -11.1898	-0.000963502	  -11.1898	  -24.0876	
  -11.1644	-0.000982302	  -11.1501	-0.000918455	  -11.1713	-0.00100492	   -11.162	-0.000968558	   -11.162	  -24.2139	
  -11.1361	-0.000987453	  -11.1221	-0.000923316	  -11.1429	-0.00101004	  -11.1337	-0.000973604	  -11.1337	  -24.3401	
  -11.1075	-0.000992502	  -11.0937	-0.000928133	  -11.1142	-0.00101519	  -11.1051	-0.000978607	  -11.1051	  -24.4652	
  -11.0785	-0.000997478	   -11.065	-0.000932948	   -11.085	-0.00102025	  -11.0762	-0.000983558	  -11.0762	   -24.589	
  -11.0489	-0.00100247	  -11.0357	-0.000937715	  -11.0553	-0.00102527	  -11.0466	-0.000988485	  -11.0466	  -24.7121	
  -11.0189	-0.00100739	  -11.0059	-0.000942388	   -11.025	-0.0010303	  -11.0166	-0.000993359	  -11.0166	   -24.834	
  -10.9884	-0.00101224	  -10.9756	-0.000947062	  -10.9944	-0.00103528	  -10.9861	-0.000998193	  -10.9861	  -24.9548	
  -10.9576	-0.0010171	   -10.945	-0.000951723	  -10.9634	-0.0010402	  -10.9553	-0.00100301	  -10.9553	  -25.0752	
  -10.9263	-0.00102192	  -10.9137	-0.0009563	   -10.932	-0.00104512	   -10.924	-0.00100778	   -10.924	  -25.1945	
  -10.8944	-0.00102666	  -10.8818	-0.00096087	  -10.9001	-0.00104998	  -10.8921	-0.0010125	  -10.8921	  -25.3125	
   -10.862	-0.0010314	  -10.8495	-0.000965407	  -10.8677	-0.00105478	  -10.8598	-0.00101719	  -10.8598	  -25.4298	
  -10.8293	-0.00103612	  -10.8169	-0.000969852	   -10.835	-0.00105956	  -10.8271	-0.00102185	  -10.8271	  -25.5461	
  -10.7963	-0.0010408	  -10.7839	-0.000974317	   -10.802	-0.00106428	  -10.7941	-0.00102647	  -10.7941	  -25.6616	
  -10.7629	-0.00104543	  -10.7502	-0.000978759	  -10.7684	-0.00106893	  -10.7605	-0.00103104	  -10.7605	   -25.776	
  -10.7289	-0.00105007	  -10.7161	-0.000983076	  -10.7343	-0.00107356	  -10.7265	-0.00103557	  -10.7265	  -25.8893	
  -10.6946	-0.00105465	  -10.6816	-0.00098739	  -10.6998	-0.00107814	   -10.692	-0.00104006	   -10.692	  -26.0015	
  -10.6597	-0.00105918	  -10.6469	-0.000991691	  -10.6651	-0.00108265	  -10.6572	-0.00104451	  -10.6572	  -26.1126	
  -10.6244	-0.00106374	  -10.6117	-0.000995867	  -10.6298	-0.00108715	   -10.622	-0.00104892	   -10.622	   -26.223	
  -10.5888	-0.00106824	  -10.5759	-0.00100002	   -10.594	-0.00109156	  -10.5862	-0.00105327	  -10.5862	  -26.3318	
  -10.5527	-0.00107267	  -10.5398	-0.00100418	  -10.5579	-0.00109592	  -10.5501	-0.00105759	  -10.5501	  -26.4398	
  -10.5162	-0.00107713	  -10.5034	-0.00100819	  -10.5214	-0.00110031	  -10.5137	-0.00106187	  -10.5137	  -26.5469	
  -10.4793	-0.00108153	  -10.4666	-0.00101211	  -10.4846	-0.00110455	  -10.4769	-0.00106606	  -10.4769	  -26.6516	
  -10.4422	-0.00108586	  -10.4293	-0.00101615	  -10.4473	-0.00110879	  -10.4396	-0.00107027	  -10.4396	  -26.7566	
  -10.4045	-0.00109019	  -10.3916	-0.00102009	  -10.4096	-0.00111306	  -10.4019	-0.00107445	  -10.4019	  -26.8612	
  -10.3663	-0.00109444	  -10.3538	-0.00102386	  -10.3716	-0.00111718	  -10.3639	-0.0010785	  -10.3639	  -26.9624	
  -10.3278	-0.00109863	  -10.3154	-0.00102774	  -10.3332	-0.00112125	  -10.3255	-0.00108254	  -10.3255	  -27.0635	
  -10.2888	-0.00110283	  -10.2766	-0.00103156	  -10.2943	-0.00112536	  -10.2866	-0.00108658	  -10.2866	  -27.1646	
  -10.2495	-0.00110696	  -10.2375	-0.00103521	  -10.2551	-0.00112934	  -10.2473	-0.0010905	  -10.2473	  -27.2625	
  -10.2098	-0.00111103	   -10.198	-0.00103895	  -10.2155	-0.00113321	  -10.2078	-0.0010944	  -10.2078	    -27.36	
  -10.1699	-0.00111509	  -10.1581	-0.00104264	  -10.1757	-0.00113713	  -10.1679	-0.00109829	  -10.1679	  -27.4572	
  -10.1294	-0.00111909	  -10.1177	-0.00104616	  -10.1353	-0.00114095	  -10.1274	-0.00110207	  -10.1274	  -27.5516	
  -10.0885	-0.00112302	   -10.077	-0.00104975	  -10.0945	-0.0011446	  -10.0867	-0.00110579	  -10.0867	  -27.6447	
  -10.0474	-0.00112691	  -10.0359	-0.00105333	  -10.0534	-0.00114827	  -10.0456	-0.0011095	  -10.0456	  -27.7376	
  -10.0058	-0.00113075	  -9.99443	-0.00105675	  -10.0118	-0.00115188	   -10.004	-0.00111313	   -10.004	  -27.8282	
  -9.96379	-0.00113456	  -9.95247	-0.00106019	  -9.96968	-0.00115536	  -9.96198	-0.0011167	  -9.96198	  -27.9176	
  -9.92146	-0.00113831	  -9.91025	-0.00106368	  -9.92725	-0.00115881	  -9.91965	-0.00112027	  -9.91965	  -28.0067	
  -9.87884	-0.00114199	  -9.86777	-0.00106699	  -9.88453	-0.00116224	  -9.87705	-0.00112374	  -9.87705	  -28.0935	
  -9.83573	-0.00114568	  -9.82485	-0.00107033	  -9.84118	-0.00116558	  -9.83392	-0.0011272	  -9.83392	  -28.1799	
  -9.79218	-0.00114928	  -9.78153	-0.00107373	  -9.79741	-0.00116892	  -9.79037	-0.00113064	  -9.79037	  -28.2661	
  -9.74837	-0.00115284	    -9.738	-0.00107694	  -9.75336	-0.00117219	  -9.74658	-0.00113399	  -9.74658	  -28.3497	
  -9.70403	-0.0011564	  -9.69406	-0.00108014	  -9.70879	-0.00117537	   -9.7023	-0.00113731	   -9.7023	  -28.4327	
  -9.65921	-0.00115987	  -9.64961	-0.00108341	  -9.66377	-0.0011786	  -9.65753	-0.00114062	  -9.65753	  -28.5156	
  -9.61405	-0.00116328	  -9.60484	-0.00108651	  -9.61837	-0.00118178	  -9.61242	-0.00114386	  -9.61242	  -28.5964	
  -9.56864	-0.00116672	  -9.55978	-0.00108959	  -9.57249	-0.00118487	  -9.56697	-0.00114706	  -9.56697	  -28.6765	
   -9.5226	-0.00117007	  -9.51417	-0.0010927	  -9.52631	-0.00118799	  -9.52102	-0.00115025	  -9.52102	  -28.7564	
  -9.47614	-0.00117335	  -9.46815	-0.00109568	  -9.47983	-0.00119108	  -9.47471	-0.00115337	  -9.47471	  -28.8342	
  -9.42947	-0.00117663	  -9.42193	-0.00109861	  -9.43303	-0.00119408	  -9.42814	-0.00115644	  -9.42814	   -28.911	
   -9.3822	-0.0011799	  -9.37527	-0.00110158	  -9.38581	-0.00119707	  -9.38109	-0.00115952	  -9.38109	  -28.9879	
   -9.3344	-0.00118315	  -9.32813	-0.00110444	  -9.33816	-0.00120003	  -9.33356	-0.00116254	  -9.33356	  -29.0635	
  -9.28639	-0.00118636	  -9.28065	-0.00110721	  -9.29024	-0.00120291	  -9.28576	-0.00116549	  -9.28576	  -29.1373	
   -9.2384	-0.00118948	  -9.23272	-0.00111003	  -9.24188	-0.00120574	  -9.23767	-0.00116841	  -9.23767	  -29.2104	
  -9.18999	-0.00119265	  -9.18426	-0.00111275	  -9.19299	-0.00120853	  -9.18908	-0.00117131	  -9.18908	  -29.2827	
  -9.14116	-0.00119583	  -9.13547	-0.00111536	  -9.14378	-0.00121123	  -9.14013	-0.00117414	  -9.14013	  -29.3536	
  -9.09212	-0.00119892	  -9.08645	-0.00111801	   -9.0944	-0.00121388	  -9.09099	-0.00117694	  -9.09099	  -29.4235	
  -9.04274	-0.00120202	  -9.03689	-0.00112059	  -9.04458	-0.00121649	   -9.0414	-0.0011797	   -9.0414	  -29.4925	
  -8.99294	-0.00120515	  -8.98695	-0.00112306	  -8.99438	-0.00121901	  -8.99142	-0.00118241	  -8.99142	  -29.5602	
  -8.94282	-0.00120819	  -8.93684	-0.00112557	  -8.94402	-0.00122149	  -8.94123	-0.00118508	  -8.94123	  -29.6271	
  -8.89238	-0.00121122	  -8.88635	-0.00112803	  -8.89316	-0.00122394	  -8.89063	-0.00118773	  -8.89063	  -29.6932	
  -8.84146	-0.00121429	  -8.83543	-0.00113035	  -8.84189	-0.0012263	   -8.8396	-0.00119032	   -8.8396	  -29.7579	
   -8.7903	-0.00121727	  -8.78431	-0.00113274	  -8.79042	-0.00122861	  -8.78834	-0.00119287	  -8.78834	  -29.8219	
  -8.73886	-0.0012202	  -8.73283	-0.00113509	  -8.73867	-0.00123089	  -8.73679	-0.00119539	  -8.73679	  -29.8848	
  -8.68692	-0.00122316	   -8.6809	-0.00113734	  -8.68645	-0.00123311	  -8.68476	-0.00119787	  -8.68476	  -29.9467	
   -8.6347	 -0.001226	  -8.62872	-0.00113962	    -8.634	-0.00123527	  -8.63247	-0.0012003	  -8.63247	  -30.0074	
  -8.58206	-0.00122874	  -8.57628	-0.00114185	  -8.58124	-0.00123742	  -8.57986	-0.00120267	  -8.57986	  -30.0667	
  -8.52892	-0.00123155	  -8.52334	-0.00114399	  -8.52805	-0.00123951	  -8.52677	-0.00120502	  -8.52677	  -30.1254	
  -8.47548	-0.00123423	  -8.47014	-0.00114613	  -8.47459	-0.00124155	  -8.47341	-0.0012073	  -8.47341	  -30.1826	
  -8.42175	-0.00123675	  -8.41667	-0.00114828	  -8.42087	-0.00124359	  -8.41976	-0.00120954	  -8.41976	  -30.2384	
   -8.3676	-0.00123933	  -8.36273	-0.00115034	  -8.36675	-0.00124557	  -8.36569	-0.00121175	  -8.36569	  -30.2937	
  -8.31316	-0.00124184	  -8.30852	-0.00115232	  -8.31235	-0.00124751	  -8.31134	-0.00121389	  -8.31134	  -30.3473	
  -8.25847	-0.00124418	  -8.25397	-0.00115435	  -8.25767	-0.00124943	   -8.2567	-0.00121599	   -8.2567	  -30.3997	
  -8.20331	-0.00124657	  -8.19896	-0.00115633	  -8.20249	-0.00125131	  -8.20159	-0.00121807	  -8.20159	  -30.4517	
  -8.14785	-0.0012489	  -8.14368	-0.00115818	    -8.147	-0.00125315	  -8.14618	-0.00122008	  -8.14618	   -30.502	
  -8.09221	-0.00125108	  -8.08819	-0.00116009	  -8.09118	-0.00125496	  -8.09053	-0.00122204	  -8.09053	  -30.5511	
  -8.03605	-0.00125327	  -8.03234	-0.00116202	  -8.03502	-0.00125673	  -8.03447	-0.00122401	  -8.03447	  -30.6002	
  -7.97962	-0.00125545	  -7.97622	-0.0011638	  -7.97862	-0.00125847	  -7.97815	-0.00122591	  -7.97815	  -30.6477	
  -7.92291	-0.00125749	  -7.91979	-0.00116557	  -7.92207	-0.00126016	  -7.92159	-0.00122774	  -7.92159	  -30.6935	
  -7.86581	-0.00125953	  -7.86297	-0.00116738	  -7.86514	-0.00126179	  -7.86464	-0.00122956	  -7.86464	  -30.7391	
  -7.80845	-0.00126158	   -7.8059	-0.0011691	  -7.80795	-0.00126341	  -7.80743	-0.00123136	  -7.80743	   -30.784	
   -7.7508	-0.00126351	  -7.74848	-0.0011708	  -7.75037	-0.00126495	  -7.74988	-0.00123309	  -7.74988	  -30.8272	
  -7.69272	-0.00126541	  -7.69069	-0.0011725	  -7.69239	-0.00126647	  -7.69193	-0.00123479	  -7.69193	  -30.8699	
   -7.6344	-0.00126733	  -7.63267	-0.00117411	  -7.63418	-0.00126797	  -7.63375	-0.00123647	  -7.63375	  -30.9118	
  -7.57583	-0.00126915	  -7.57434	-0.00117571	  -7.57562	-0.00126939	  -7.57526	-0.00123808	  -7.57526	   -30.952	
  -7.51681	-0.0012709	  -7.51557	-0.00117735	  -7.51665	-0.00127078	  -7.51634	-0.00123968	  -7.51634	  -30.9919	
   -7.4576	-0.00127266	  -7.45656	-0.00117889	  -7.45744	-0.00127217	   -7.4572	-0.00124124	   -7.4572	  -31.0311	
  -7.39812	-0.00127433	  -7.39727	-0.00118038	  -7.39798	-0.00127349	  -7.39779	-0.00124273	  -7.39779	  -31.0683	
  -7.33824	-0.00127595	  -7.33764	-0.00118192	  -7.33819	-0.00127478	  -7.33802	-0.00124421	  -7.33802	  -31.1054	
   -7.2782	-0.00127755	  -7.27787	-0.00118337	  -7.27821	 -0.001276	  -7.27809	-0.00124564	  -7.27809	   -31.141	
  -7.21788	-0.00127902	  -7.21774	-0.00118475	  -7.21785	-0.00127721	  -7.21783	-0.00124699	  -7.21783	  -31.1749	
  -7.15726	-0.00128038	  -7.15727	-0.00118618	    -7.157	-0.00127853	  -7.15718	-0.00124836	  -7.15718	  -31.2091	
  -7.09647	-0.00128177	  -7.09658	-0.00118753	  -7.09612	-0.00127971	  -7.09639	-0.00124967	  -7.09639	  -31.2418	
  -7.03523	-0.00128307	  -7.03551	-0.00118881	  -7.03543	-0.00128072	  -7.03539	-0.00125087	  -7.03539	  -31.2717	
  -6.97369	-0.00128424	  -6.97414	-0.00119012	  -6.97442	-0.0012819	  -6.97409	-0.00125209	  -6.97409	  -31.3022	
  -6.91195	-0.00128539	  -6.91262	-0.00119138	  -6.91277	-0.00128303	  -6.91245	-0.00125327	  -6.91245	  -31.3318	
  -6.84983	-0.00128648	  -6.85066	-0.00119255	  -6.85101	-0.00128396	   -6.8505	-0.00125433	   -6.8505	  -31.3583	
  -6.78747	-0.00128745	  -6.78848	-0.00119372	  -6.78911	-0.00128499	  -6.78835	-0.00125538	  -6.78835	  -31.3846	
  -6.72493	-0.0012884	   -6.7261	-0.00119484	  -6.72689	-0.00128597	  -6.72597	-0.00125641	  -6.72597	  -31.4102	
  -6.66197	-0.0012893	  -6.66331	-0.00119586	  -6.66424	-0.00128677	  -6.66317	-0.00125731	  -6.66317	  -31.4328	
  -6.59891	-0.0012901	  -6.60037	-0.0011969	  -6.60148	-0.00128762	  -6.60025	-0.00125821	  -6.60025	  -31.4552	
  -6.53556	-0.00129089	  -6.53708	-0.00119792	  -6.53846	-0.00128844	  -6.53704	-0.00125908	  -6.53704	  -31.4771	
  -6.47187	-0.00129161	  -6.47347	-0.0011988	  -6.47515	-0.00128905	  -6.47349	-0.00125982	  -6.47349	  -31.4955	
  -6.40809	-0.00129231	  -6.40977	-0.00119965	  -6.41141	-0.00128974	  -6.40976	-0.00126056	  -6.40976	  -31.5141	
  -6.34425	-0.00129297	  -6.34566	-0.00120054	  -6.34752	-0.0012904	  -6.34581	-0.0012613	  -6.34581	  -31.5326	
  -6.28007	-0.00129354	   -6.2813	-0.00120131	  -6.28346	-0.00129081	  -6.28161	-0.00126189	  -6.28161	  -31.5472	
  -6.21549	-0.00129404	  -6.21667	-0.00120203	  -6.21906	-0.00129131	  -6.21708	-0.00126246	  -6.21708	  -31.5615	
  -6.15069	-0.00129451	  -6.15174	-0.00120278	  -6.15437	-0.0012919	  -6.15227	-0.00126306	  -6.15227	  -31.5766	
  -6.08553	-0.00129493	  -6.08659	-0.00120344	   -6.0895	-0.00129221	  -6.08721	-0.00126353	  -6.08721	  -31.5882	
  -6.02014	-0.00129521	  -6.02122	-0.00120402	  -6.02432	-0.00129254	  -6.02189	-0.00126392	  -6.02189	   -31.598	
  -5.95467	-0.00129546	  -5.95553	-0.00120461	  -5.95884	 -0.001293	  -5.95635	-0.00126436	  -5.95635	   -31.609	
  -5.88876	-0.00129568	  -5.88966	-0.00120515	  -5.89316	-0.00129328	  -5.89053	-0.0012647	  -5.89053	  -31.6175	
  -5.82267	-0.00129579	  -5.82361	-0.00120558	  -5.82718	-0.00129351	  -5.82449	-0.00126496	  -5.82449	   -31.624	
  -5.75633	-0.00129583	  -5.75733	-0.00120601	  -5.76094	-0.00129388	   -5.7582	-0.00126524	   -5.7582	   -31.631	
  -5.68973	-0.00129582	  -5.69096	-0.00120639	  -5.69461	-0.00129413	  -5.69176	-0.00126544	  -5.69176	  -31.6361	
  -5.62277	-0.00129573	  -5.62424	-0.00120666	   -5.6279	-0.00129428	  -5.62497	-0.00126556	  -5.62497	   -31.639	
  -5.55575	-0.00129559	  -5.55738	-0.00120692	  -5.56105	-0.00129457	  -5.55806	-0.00126569	  -5.55806	  -31.6423	
  -5.48848	-0.00129536	  -5.49033	-0.00120715	  -5.49399	-0.00129473	  -5.49093	-0.00126575	  -5.49093	  -31.6437	
  -5.42092	-0.00129505	  -5.42298	-0.00120725	  -5.42667	-0.00129479	  -5.42352	-0.0012657	  -5.42352	  -31.6425	
  -5.35322	-0.0012947	  -5.35549	-0.00120729	  -5.35925	-0.00129495	  -5.35599	-0.00126565	  -5.35599	  -31.6412	
  -5.28534	-0.00129427	  -5.28765	-0.00120737	  -5.29152	-0.00129503	  -5.28817	-0.00126555	  -5.28817	  -31.6389	
  -5.21727	-0.00129378	  -5.21963	-0.00120734	  -5.22359	-0.00129497	  -5.22017	-0.00126536	  -5.22017	   -31.634	
  -5.14905	-0.00129327	  -5.15147	-0.00120719	  -5.15544	-0.00129497	  -5.15199	-0.00126514	  -5.15199	  -31.6285	
   -5.0805	-0.00129269	  -5.08298	-0.00120707	  -5.08695	-0.00129493	  -5.08348	-0.0012649	  -5.08348	  -31.6225	
  -5.01183	-0.00129206	  -5.01432	-0.00120688	  -5.01833	-0.00129473	  -5.01483	-0.00126456	  -5.01483	  -31.6139	
  -4.94284	-0.0012914	  -4.94558	-0.00120655	  -4.94939	-0.00129456	  -4.94593	-0.00126417	  -4.94593	  -31.6043	
  -4.87369	-0.00129072	  -4.87666	-0.00120624	  -4.88023	-0.00129436	  -4.87686	-0.00126377	  -4.87686	  -31.5943	
  -4.80455	-0.00128999	  -4.80758	-0.00120588	  -4.81092	-0.00129398	  -4.80768	-0.00126328	  -4.80768	   -31.582	
  -4.73509	-0.00128925	  -4.73819	-0.00120539	  -4.74125	-0.00129358	  -4.73818	-0.00126274	  -4.73818	  -31.5685	
  -4.66553	-0.00128848	  -4.66866	-0.00120491	   -4.6715	-0.00129317	  -4.66856	-0.00126219	  -4.66856	  -31.5547	
   -4.5958	-0.00128768	   -4.5989	-0.00120438	   -4.6016	-0.0012926	  -4.59876	-0.00126155	  -4.59876	  -31.5388	
  -4.52588	-0.00128684	   -4.5289	-0.0012037	  -4.53146	-0.00129197	  -4.52875	-0.00126084	  -4.52875	  -31.5209	
  -4.45592	-0.00128602	  -4.45889	-0.00120302	  -4.46121	-0.00129139	  -4.45867	-0.00126014	  -4.45867	  -31.5036	
  -4.38562	-0.00128513	   -4.3886	-0.00120231	  -4.39064	-0.00129066	  -4.38829	-0.00125937	  -4.38829	  -31.4842	
  -4.31516	-0.00128413	   -4.3182	-0.00120147	  -4.31998	-0.00128981	  -4.31778	-0.00125847	  -4.31778	  -31.4617	
  -4.24397	-0.00128326	   -4.2476	-0.00120066	  -4.24918	-0.00128902	  -4.24691	-0.00125765	  -4.24691	  -31.4412	
  -4.17274	-0.00128231	  -4.17674	-0.00119982	  -4.17814	-0.00128814	  -4.17587	-0.00125676	  -4.17587	   -31.419	
  -4.10207	-0.00128113	  -4.10575	-0.00119884	  -4.10703	-0.00128713	  -4.10495	-0.0012557	  -4.10495	  -31.3925	
  -4.03129	-0.00128007	  -4.03448	-0.00119787	  -4.03561	-0.00128612	  -4.03379	-0.00125469	  -4.03379	  -31.3672	
  -3.95998	-0.00127898	  -3.96311	-0.00119687	  -3.96409	-0.00128508	  -3.96239	-0.00125364	  -3.96239	  -31.3411	
   -3.8884	-0.00127769	   -3.8916	-0.00119575	  -3.89238	-0.00128398	  -3.89079	-0.00125247	  -3.89079	  -31.3119	
  -3.81689	-0.00127649	  -3.81984	-0.00119462	  -3.82055	-0.00128283	  -3.81909	-0.00125131	  -3.81909	  -31.2828	
  -3.74527	-0.00127526	  -3.74806	-0.00119345	  -3.74865	-0.00128163	  -3.74733	-0.00125011	  -3.74733	  -31.2528	
  -3.67341	-0.00127387	  -3.67606	-0.00119219	  -3.67639	-0.00128042	  -3.67529	-0.00124883	  -3.67529	  -31.2206	
  -3.60143	-0.0012725	  -3.60396	-0.0011909	   -3.6041	-0.00127917	  -3.60316	-0.00124752	  -3.60316	  -31.1881	
  -3.52933	-0.00127111	  -3.53176	-0.00118963	  -3.53178	-0.00127787	  -3.53096	-0.0012462	  -3.53096	  -31.1551	
  -3.45703	-0.00126957	  -3.45938	-0.00118826	  -3.45898	-0.00127657	  -3.45846	-0.0012448	  -3.45846	    -31.12	
  -3.38469	-0.00126802	  -3.38703	-0.00118681	  -3.38631	-0.00127524	  -3.38601	-0.00124336	  -3.38601	   -31.084	
  -3.31211	-0.00126644	  -3.31446	-0.00118545	  -3.31355	-0.00127382	  -3.31337	-0.0012419	  -3.31337	  -31.0475	
  -3.23942	-0.00126473	  -3.24178	-0.00118399	  -3.24066	-0.00127239	  -3.24062	-0.00124037	  -3.24062	  -31.0093	
  -3.16672	 -0.001263	  -3.16905	-0.00118242	  -3.16762	-0.00127098	   -3.1678	-0.0012388	   -3.1678	    -30.97	
  -3.09378	-0.00126125	  -3.09614	-0.00118096	  -3.09443	-0.00126946	  -3.09478	-0.00123722	  -3.09478	  -30.9306	
  -3.02071	-0.00125939	   -3.0232	-0.00117943	  -3.02125	-0.00126785	  -3.02172	-0.00123556	  -3.02172	  -30.8889	
   -2.9476	-0.00125747	  -2.95007	-0.00117774	  -2.94785	-0.00126627	  -2.94851	-0.00123383	  -2.94851	  -30.8457	
  -2.87439	-0.00125552	  -2.87684	-0.00117615	  -2.87438	-0.00126463	   -2.8752	-0.0012321	   -2.8752	  -30.8025	
  -2.80113	-0.00125354	  -2.80358	-0.00117456	  -2.80077	-0.00126283	  -2.80183	-0.00123031	  -2.80183	  -30.7577	
  -2.72769	-0.00125153	  -2.73009	-0.00117281	  -2.72696	-0.00126106	  -2.72825	-0.00122846	  -2.72825	  -30.7116	
  -2.65429	-0.0012494	  -2.65666	-0.00117102	  -2.65325	-0.00125934	  -2.65473	-0.00122659	  -2.65473	  -30.6647	
  -2.58079	-0.00124726	  -2.58303	-0.00116928	  -2.57938	-0.00125742	  -2.58107	-0.00122465	  -2.58107	  -30.6163	
   -2.5072	-0.00124517	  -2.50933	-0.00116746	  -2.50547	-0.00125549	  -2.50733	-0.00122271	  -2.50733	  -30.5677	
  -2.43356	-0.00124294	  -2.43555	-0.00116554	  -2.43152	-0.00125364	  -2.43355	-0.00122071	  -2.43355	  -30.5177	
  -2.35975	-0.00124066	  -2.36157	-0.00116359	   -2.3574	-0.00125161	  -2.35957	-0.00121862	  -2.35957	  -30.4654	
  -2.28593	-0.00123843	  -2.28766	-0.00116158	  -2.28332	-0.00124954	  -2.28564	-0.00121652	  -2.28564	  -30.4129	
  -2.21196	-0.00123607	  -2.21351	-0.00115947	  -2.20909	-0.00124756	  -2.21152	-0.00121437	  -2.21152	  -30.3592	
   -2.1379	-0.00123365	   -2.1393	-0.00115731	  -2.13483	-0.00124542	  -2.13734	-0.00121213	  -2.13734	  -30.3031	
  -2.06366	-0.00123126	  -2.06505	-0.00115509	  -2.06034	-0.00124321	  -2.06302	-0.00120986	  -2.06302	  -30.2464	
  -1.98928	-0.0012288	  -1.99061	-0.00115278	   -1.9857	-0.00124109	  -1.98853	-0.00120756	  -1.98853	   -30.189	
  -1.91496	-0.00122627	  -1.91615	-0.00115039	  -1.91102	-0.00123885	  -1.91405	-0.00120517	  -1.91405	  -30.1293	
  -1.84047	-0.00122373	  -1.84149	-0.00114796	  -1.83613	-0.00123652	  -1.83936	-0.00120274	  -1.83936	  -30.0685	
  -1.76593	-0.00122097	   -1.7668	-0.00114559	  -1.76125	-0.00123408	  -1.76466	-0.00120021	  -1.76466	  -30.0053	
