# User: ACHyster
# File name: C:/ACHYSTER/ACHyster SENS/SHAMS/CoFe2O4-1gl-water-45 Glycerol-Sens-07-03-2023/CoFe2O4-1gl-water-45 Glycerol- 10_100F- 24 kAm -Sens-07-03-20230007#1.txt
# Saved at: ma. mar. 7 17:19:55 2023
# Hyster Loop (3 iterations). Intensity: 24.0 kA/m; Tuned frequency: 101.8 kHz
# Units x axis: (kA/m)
# Units y axis: "Repeats y" & "Average y" (10^(-3)Am^2); "Mass avg y" (Am^2/kg)
# Magnetic mass: 4e-05 g
# Parameter      	Repeat   1	Repeat   2	Repeat   3	Average   	Sigma     
# H_C (kA/m)     	      20.9	      20.8	      20.6	      20.8	       0.1
# M_R (Am^2/kg)  	      18.3	      17.5	      17.4	      17.7	       0.4
# M_max (Am^2/kg)	       9.5	       9.1	       9.9	       9.5	       0.3
# Area (mJ/kg)   	    1663.0	    1580.4	    1576.6	    1606.6	      39.9
# SAR (W/g)      	     169.3	     160.9	     160.5	     163.6	       4.1
#Repeat 1 x	Repeat 1 y	Repeat 2 x	Repeat 2 y	Repeat 3 x	Repeat 3 y	Average x 	Average y 	Mass avg x 	Mass avg y 
  -3.77637	-0.00076368	  -3.69457	-0.000730476	  -3.71238	-0.000728603	  -3.72777	-0.000740919	  -3.72777	   -18.523	
  -3.62975	-0.000762566	  -3.54673	-0.000729863	  -3.56236	-0.000727482	  -3.57962	-0.000739971	  -3.57962	  -18.4993	
  -3.48327	-0.000761424	  -3.39852	-0.000729276	  -3.41182	-0.000726353	   -3.4312	-0.000739018	   -3.4312	  -18.4754	
  -3.33639	-0.000760278	  -3.25113	-0.000728655	  -3.26102	-0.000725216	  -3.28285	-0.00073805	  -3.28285	  -18.4512	
   -3.1896	-0.000759147	  -3.10328	-0.000727939	  -3.11067	-0.000724064	  -3.13452	-0.00073705	  -3.13452	  -18.4262	
  -3.04188	-0.000758045	  -2.95568	-0.000727079	  -2.96025	-0.000722893	  -2.98594	-0.000736005	  -2.98594	  -18.4001	
  -2.89426	-0.00075698	  -2.80854	-0.000726039	  -2.80973	-0.000721697	  -2.83751	-0.000734905	  -2.83751	  -18.3726	
  -2.74597	-0.000755948	  -2.66106	-0.000724812	  -2.65935	-0.000720471	   -2.6888	-0.000733744	   -2.6888	  -18.3436	
  -2.59752	-0.000754937	    -2.513	-0.000723416	  -2.50883	-0.000719215	  -2.53978	-0.000732523	  -2.53978	  -18.3131	
  -2.44962	-0.00075393	  -2.36438	-0.00072188	  -2.35863	-0.000717923	  -2.39088	-0.000731244	  -2.39088	  -18.2811	
  -2.30098	-0.000752903	  -2.21617	-0.000720259	  -2.20848	-0.00071659	  -2.24188	-0.000729917	  -2.24188	  -18.2479	
  -2.15189	-0.000751829	  -2.06783	-0.000718607	  -2.05859	-0.00071521	  -2.09277	-0.000728549	  -2.09277	  -18.2137	
  -2.00307	-0.000750686	  -1.91863	-0.000716979	   -1.9082	-0.000713777	   -1.9433	-0.000727148	   -1.9433	  -18.1787	
  -1.85376	-0.000749456	  -1.76934	-0.00071542	  -1.75804	-0.000712298	  -1.79371	-0.000725725	  -1.79371	  -18.1431	
  -1.70421	-0.000748122	  -1.62016	-0.000713956	   -1.6076	-0.000710772	  -1.64399	-0.000724283	  -1.64399	  -18.1071	
  -1.55465	-0.000746686	  -1.47083	-0.000712597	  -1.45735	-0.000709206	  -1.49428	-0.00072283	  -1.49428	  -18.0707	
  -1.40434	-0.000745154	  -1.32182	-0.000711331	  -1.30701	-0.000707605	  -1.34439	-0.000721364	  -1.34439	  -18.0341	
  -1.25453	-0.000743542	  -1.17259	-0.000710128	  -1.15634	-0.000705982	  -1.19449	-0.000719884	  -1.19449	  -17.9971	
  -1.10417	-0.000741872	  -1.02314	-0.000708944	  -1.00582	-0.00070435	  -1.04438	-0.000718389	  -1.04438	  -17.9597	
 -0.953784	-0.000740165	 -0.873942	-0.000707724	 -0.855177	-0.000702717	 -0.894301	-0.000716869	 -0.894301	  -17.9217	
 -0.802383	-0.000738447	 -0.724951	-0.000706423	 -0.705123	-0.00070108	 -0.744152	-0.000715317	 -0.744152	  -17.8829	
 -0.651233	-0.000736734	 -0.575643	-0.000704997	 -0.555829	-0.000699421	 -0.594235	-0.000713717	 -0.594235	  -17.8429	
 -0.500054	-0.000735038	 -0.426022	-0.000703417	 -0.406492	-0.000697731	  -0.44419	-0.000712062	  -0.44419	  -17.8016	
 -0.348592	-0.000733366	 -0.277048	-0.000701676	 -0.258049	-0.000695993	 -0.294563	-0.000710345	 -0.294563	  -17.7586	
 -0.197572	-0.000731709	 -0.127683	-0.000699776	 -0.109441	-0.000694187	 -0.144898	-0.000708557	 -0.144898	  -17.7139	
-0.0471805	-0.000730061	 0.0223056	-0.000697746	 0.0388652	-0.000692298	0.00466342	-0.000706702	0.00466342	  -17.6675	
  0.103856	-0.000728405	  0.172168	-0.000695626	  0.186916	-0.000690317	  0.154313	-0.000704783	  0.154313	  -17.6196	
  0.255507	-0.000726715	   0.32314	-0.000693465	  0.335964	-0.000688245	   0.30487	-0.000702808	   0.30487	  -17.5702	
  0.407262	-0.000724973	  0.473956	-0.000691314	  0.485233	-0.000686096	  0.455484	-0.000700794	  0.455484	  -17.5199	
  0.559368	-0.000723158	  0.624165	-0.000689212	  0.635215	-0.000683879	  0.606249	-0.000698749	  0.606249	  -17.4687	
  0.711331	-0.000721258	  0.774076	-0.000687189	  0.785397	-0.000681617	  0.756935	-0.000696688	  0.756935	  -17.4172	
   0.86294	-0.000719267	  0.924455	-0.000685258	  0.935303	-0.00067933	  0.907566	-0.000694619	  0.907566	  -17.3655	
   1.01352	-0.000717188	   1.07433	-0.00068341	   1.08522	-0.000677026	   1.05769	-0.000692541	   1.05769	  -17.3135	
   1.16437	-0.000715028	   1.22375	-0.000681624	   1.23492	-0.000674734	   1.20768	-0.000690462	   1.20768	  -17.2616	
   1.31477	-0.000712804	   1.37327	-0.000679862	   1.38445	-0.000672467	    1.3575	-0.000688378	    1.3575	  -17.2094	
    1.4655	-0.000710535	    1.5229	-0.00067808	   1.53433	-0.000670229	   1.50758	-0.000686281	   1.50758	   -17.157	
    1.6163	-0.000708241	   1.67242	-0.000676236	   1.68383	-0.00066802	   1.65752	-0.000684166	   1.65752	  -17.1041	
   1.76745	-0.000705938	   1.82161	-0.000674287	   1.83324	-0.000665831	   1.80743	-0.000682019	   1.80743	  -17.0505	
   1.91916	-0.000703638	   1.97053	-0.000672208	   1.98284	-0.00066366	   1.95751	-0.000679835	   1.95751	  -16.9959	
   2.07069	-0.000701343	   2.11971	-0.000669982	   2.13144	-0.000661471	   2.10728	-0.000677599	   2.10728	    -16.94	
   2.22256	-0.000699055	   2.26914	-0.000667608	   2.28081	-0.000659234	    2.2575	-0.000675299	    2.2575	  -16.8825	
   2.37427	-0.000696766	   2.41764	-0.000665103	   2.42973	-0.000656934	   2.40721	-0.000672934	   2.40721	  -16.8234	
   2.52584	-0.000694462	   2.56602	-0.000662489	   2.57874	-0.000654541	   2.55687	-0.000670498	   2.55687	  -16.7624	
   2.67636	-0.00069213	   2.71408	-0.000659802	   2.72784	-0.000652043	    2.7061	-0.000667992	    2.7061	  -16.6998	
   2.82641	-0.00068975	   2.86259	-0.000657074	   2.87707	-0.00064943	   2.85536	-0.000665418	   2.85536	  -16.6355	
   2.97531	-0.000687308	   3.01203	-0.000654348	   3.02619	-0.000646718	   3.00451	-0.000662791	   3.00451	  -16.5698	
   3.12439	-0.000684794	   3.16139	-0.000651655	   3.17452	-0.000643918	   3.15343	-0.000660122	   3.15343	  -16.5031	
   3.27437	-0.000682196	   3.30925	-0.00064901	   3.32334	-0.000641045	   3.30232	-0.000657417	   3.30232	  -16.4354	
   3.42354	-0.000679516	   3.45672	-0.000646421	   3.47241	-0.000638134	   3.45089	-0.00065469	   3.45089	  -16.3673	
   3.57269	-0.000676755	   3.60411	-0.000643878	   3.62029	-0.000635203	   3.59903	-0.000651945	   3.59903	  -16.2986	
   3.72162	-0.000673922	   3.75169	-0.000641374	   3.76806	-0.00063226	   3.74712	-0.000649185	   3.74712	  -16.2296	
   3.87109	-0.000671031	   3.89971	-0.000638888	   3.91601	-0.00062934	    3.8956	-0.00064642	    3.8956	  -16.1605	
   4.02059	-0.000668094	   4.04769	-0.000636378	   4.06293	-0.000626457	   4.04374	-0.000643643	   4.04374	  -16.0911	
   4.16895	-0.000665127	   4.19542	-0.000633806	   4.20992	-0.00062361	   4.19143	-0.000640848	   4.19143	  -16.0212	
   4.31653	-0.000662144	   4.34295	-0.000631158	   4.35651	-0.000620792	   4.33866	-0.000638031	   4.33866	  -15.9508	
   4.46414	-0.000659154	   4.48984	-0.000628393	   4.50276	-0.000617988	   4.48558	-0.000635178	   4.48558	  -15.8795	
   4.61156	-0.000656163	   4.63714	-0.000625494	   4.64923	-0.000615191	   4.63264	-0.000632283	   4.63264	  -15.8071	
   4.75859	-0.000653167	   4.78437	-0.000622452	   4.79543	-0.000612367	   4.77947	-0.000629329	   4.77947	  -15.7332	
   4.90531	-0.000650166	   4.93108	-0.000619276	   4.94168	-0.000609485	   4.92602	-0.000626309	   4.92602	  -15.6577	
   5.05177	-0.000647148	   5.07782	-0.000615986	   5.08823	-0.000606535	   5.07261	-0.000623223	   5.07261	  -15.5806	
   5.19778	-0.000644102	   5.22463	-0.000612608	    5.2339	-0.000603496	   5.21877	-0.000620069	   5.21877	  -15.5017	
   5.34412	-0.000641015	   5.37153	-0.000609185	   5.37999	-0.000600358	   5.36521	-0.000616853	   5.36521	  -15.4213	
   5.48986	-0.000637872	   5.51902	-0.000605731	   5.52578	-0.000597116	   5.51155	-0.000613573	   5.51155	  -15.3393	
   5.63602	-0.000634664	   5.66662	-0.00060229	   5.67157	-0.000593784	   5.65807	-0.000610246	   5.65807	  -15.2562	
   5.78166	-0.000631384	   5.81385	-0.000598899	    5.8174	-0.000590374	   5.80431	-0.000606886	   5.80431	  -15.1721	
   5.92757	-0.000628031	   5.96103	-0.000595559	   5.96305	-0.000586902	   5.95055	-0.000603497	   5.95055	  -15.0874	
   6.07303	-0.000624616	   6.10842	-0.000592273	   6.10834	-0.000583402	    6.0966	-0.000600097	    6.0966	  -15.0024	
   6.21789	-0.000621142	   6.25556	-0.000589034	   6.25406	-0.000579898	    6.2425	-0.000596691	    6.2425	  -14.9173	
   6.36198	-0.000617626	   6.40249	-0.00058582	   6.39947	-0.000576412	   6.38798	-0.000593286	   6.38798	  -14.8321	
   6.50542	-0.00061408	   6.54831	-0.000582595	   6.54585	-0.000572957	   6.53319	-0.000589878	   6.53319	  -14.7469	
   6.64876	-0.000610516	    6.6941	-0.00057933	   6.69243	-0.000569534	   6.67843	-0.00058646	   6.67843	  -14.6615	
   6.79207	-0.000606943	   6.84014	-0.000575988	   6.83972	-0.00056614	   6.82397	-0.000583024	   6.82397	  -14.5756	
    6.9349	-0.000603365	   6.98571	-0.000572528	   6.98671	-0.000562836	   6.96911	-0.000579576	   6.96911	  -14.4894	
   7.07758	-0.000599783	   7.13066	-0.000568934	    7.1342	-0.00055955	   7.11415	-0.000576089	   7.11415	  -14.4022	
   7.22041	-0.000596192	   7.27602	-0.000565195	   7.28097	-0.000556229	   7.25913	-0.000572539	   7.25913	  -14.3135	
   7.36294	-0.000592582	   7.42108	-0.0005613	   7.42759	-0.000552818	   7.40387	-0.0005689	   7.40387	  -14.2225	
   7.50547	-0.000588943	   7.56639	-0.000557275	    7.5741	-0.000549288	   7.54865	-0.000565169	   7.54865	  -14.1292	
   7.64781	-0.000585263	   7.71196	-0.000553175	   7.72054	-0.000545624	   7.69344	-0.000561354	   7.69344	  -14.0339	
   7.79003	-0.000581531	   7.85613	-0.000549045	     7.866	-0.00054175	   7.83738	-0.000557442	   7.83738	   -13.936	
   7.93169	-0.00057774	   8.00072	-0.000544929	    8.0101	-0.000537674	   7.98084	-0.000553448	   7.98084	  -13.8362	
   8.07313	-0.000573885	   8.14382	-0.000540881	   8.15468	-0.000533424	   8.12388	-0.000549397	   8.12388	  -13.7349	
   8.21465	-0.000569971	   8.28559	-0.00053694	     8.299	-0.000529004	   8.26642	-0.000545305	   8.26642	  -13.6326	
    8.3551	-0.000566001	   8.42739	-0.000533116	    8.4429	-0.00052449	   8.40846	-0.000541202	   8.40846	  -13.5301	
   8.49581	-0.000561984	   8.56852	-0.000529402	   8.58572	-0.000519957	   8.55002	-0.000537114	   8.55002	  -13.4279	
   8.63536	-0.000557934	   8.70887	-0.000525772	   8.72808	-0.000515441	   8.69077	-0.000533049	   8.69077	  -13.3262	
   8.77488	-0.000553858	   8.84878	-0.000522178	   8.87005	 -0.000511	   8.83124	-0.000529012	   8.83124	  -13.2253	
   8.91465	-0.000549766	   8.98785	-0.000518574	    9.0122	-0.000506721	   8.97157	-0.00052502	   8.97157	  -13.1255	
    9.0535	-0.000545667	   9.12718	-0.000514931	   9.15335	-0.000502649	   9.11135	-0.000521082	   9.11135	  -13.0271	
   9.19156	-0.000541565	   9.26584	-0.000511197	   9.29435	-0.000498756	   9.25059	-0.000517172	   9.25059	  -12.9293	
   9.33016	-0.000537458	   9.40465	-0.000507314	   9.43503	-0.000495034	   9.38995	-0.000513269	   9.38995	  -12.8317	
   9.46859	-0.000533342	   9.54293	-0.000503247	   9.57522	-0.000491456	   9.52891	-0.000509348	   9.52891	  -12.7337	
   9.60667	-0.00052921	   9.68055	-0.000499007	   9.71501	-0.00048793	   9.66741	-0.000505383	   9.66741	  -12.6346	
   9.74426	-0.000525053	   9.81834	-0.000494606	   9.85401	-0.000484386	   9.80553	-0.000501348	   9.80553	  -12.5337	
   9.88073	-0.00052086	   9.95538	-0.000490048	   9.99185	-0.000480763	   9.94265	-0.000497224	   9.94265	  -12.4306	
   10.0179	-0.000516627	   10.0913	-0.000485375	   10.1292	-0.000476982	   10.0795	-0.000492994	   10.0795	  -12.3249	
   10.1554	-0.000512341	    10.228	-0.000480637	    10.266	-0.000472948	   10.2165	-0.000488642	   10.2165	  -12.2161	
   10.2921	-0.000508003	   10.3647	-0.000475884	   10.4026	-0.000468671	   10.3531	-0.000484186	   10.3531	  -12.1046	
    10.429	-0.000503612	   10.5005	-0.000471142	   10.5387	-0.000464174	   10.4894	-0.000479643	   10.4894	  -11.9911	
   10.5649	-0.00049917	   10.6358	-0.000466461	   10.6739	-0.000459452	   10.6249	-0.000475028	   10.6249	  -11.8757	
   10.7005	-0.000494686	   10.7709	-0.00046187	   10.8086	-0.000454554	     10.76	-0.00047037	     10.76	  -11.7593	
    10.835	-0.00049017	   10.9054	-0.000457363	   10.9425	-0.000449572	   10.8943	-0.000465702	   10.8943	  -11.6425	
   10.9699	-0.00048563	   11.0391	-0.000452961	   11.0761	-0.000444576	   11.0284	-0.000461056	   11.0284	  -11.5264	
   11.1045	-0.000481078	   11.1722	-0.000448647	   11.2096	-0.000439639	   11.1621	-0.000456455	   11.1621	  -11.4114	
   11.2391	-0.000476522	   11.3051	-0.000444382	   11.3431	-0.000434829	   11.2957	-0.000451911	   11.2957	  -11.2978	
   11.3733	-0.000471967	   11.4374	-0.000440108	   11.4763	-0.000430172	    11.429	-0.000447416	    11.429	  -11.1854	
   11.5077	-0.000467415	   11.5692	-0.000435782	   11.6091	-0.000425652	    11.562	-0.00044295	    11.562	  -11.0737	
   11.6415	-0.000462862	   11.6998	-0.000431378	   11.7409	-0.000421332	   11.6941	-0.000438524	   11.6941	  -10.9631	
   11.7743	-0.000458301	   11.8302	-0.000426849	   11.8722	-0.000417206	   11.8256	-0.000434119	   11.8256	   -10.853	
   11.9067	-0.000453721	   11.9601	-0.000422173	   12.0032	-0.000413151	   11.9566	-0.000429682	   11.9566	   -10.742	
   12.0374	-0.000449111	   12.0883	-0.000417372	   12.1321	-0.000409133	   12.0859	-0.000425205	   12.0859	  -10.6301	
   12.1666	-0.000444461	   12.2163	-0.000412447	   12.2605	-0.00040513	   12.2145	-0.000420679	   12.2145	   -10.517	
   12.2952	-0.000439762	   12.3435	-0.000407426	   12.3869	-0.000401039	   12.3419	-0.000416076	   12.3419	  -10.4019	
   12.4239	-0.000435011	   12.4698	-0.000402357	   12.5126	-0.000396774	   12.4688	-0.000411381	   12.4688	  -10.2845	
   12.5513	-0.000430209	   12.5954	-0.000397289	    12.638	-0.000392316	   12.5949	-0.000406605	   12.5949	  -10.1651	
   12.6786	-0.000425362	   12.7208	-0.000392258	    12.763	-0.000387633	   12.7208	-0.000401751	   12.7208	  -10.0438	
   12.8053	-0.000420479	    12.847	-0.000387293	   12.8877	-0.000382702	   12.8467	-0.000396824	   12.8467	  -9.92061	
   12.9322	-0.00041557	   12.9727	-0.000382427	   13.0127	-0.000377567	   12.9726	-0.000391854	   12.9726	  -9.79636	
     13.06	-0.000410649	   13.0977	-0.000377655	   13.1373	-0.000372299	   13.0983	-0.000386868	   13.0983	  -9.67169	
   13.1866	-0.000405726	   13.2225	-0.000372962	    13.262	-0.000366926	   13.2237	-0.000381872	   13.2237	  -9.54679	
   13.3125	-0.000400811	   13.3465	-0.000368328	   13.3856	-0.000361545	   13.3482	-0.000376895	   13.3482	  -9.42238	
   13.4375	-0.000395908	   13.4695	-0.000363714	   13.5093	-0.000356278	   13.4721	-0.000371966	   13.4721	  -9.29916	
   13.5623	-0.000391013	   13.5923	-0.000359072	   13.6328	-0.000351161	   13.5958	-0.000367082	   13.5958	  -9.17705	
   13.6868	-0.000386124	   13.7148	-0.000354369	    13.755	-0.000346233	   13.7189	-0.000362242	   13.7189	  -9.05604	
   13.8105	-0.000381225	   13.8374	-0.000349579	    13.877	-0.000341519	   13.8416	-0.000357441	   13.8416	  -8.93603	
    13.934	-0.000376311	   13.9589	-0.000344677	   13.9983	-0.000337007	   13.9638	-0.000352665	   13.9638	  -8.81663	
    14.057	-0.000371367	   14.0799	-0.000339663	   14.1198	-0.000332627	   14.0855	-0.000347886	   14.0855	  -8.69714	
   14.1804	-0.000366382	   14.2006	-0.000334548	   14.2413	-0.000328314	   14.2075	-0.000343082	   14.2075	  -8.57704	
   14.3031	-0.00036135	   14.3211	-0.000329353	   14.3627	-0.000323993	    14.329	-0.000338232	    14.329	   -8.4558	
   14.4249	-0.000356267	   14.4407	-0.000324107	   14.4835	-0.000319548	   14.4497	-0.000333308	   14.4497	  -8.33269	
   14.5461	-0.000351137	   14.5607	-0.000318855	   14.6043	-0.000314916	   14.5704	-0.000328303	   14.5704	  -8.20757	
   14.6666	-0.000345965	   14.6799	-0.000313634	   14.7239	-0.000310063	   14.6901	-0.000323221	   14.6901	  -8.08052	
   14.7859	-0.000340758	   14.7987	-0.000308471	   14.8434	-0.000304953	   14.8093	-0.000318061	   14.8093	  -7.95152	
   14.9048	-0.000335536	   14.9173	-0.000303392	   14.9628	-0.000299588	   14.9283	-0.000312839	   14.9283	  -7.82097	
   15.0227	-0.000330314	   15.0356	-0.000298399	   15.0822	-0.000294027	   15.0468	-0.00030758	   15.0468	   -7.6895	
     15.14	-0.000325101	   15.1536	-0.000293479	   15.2009	-0.000288337	   15.1649	-0.000302306	   15.1649	  -7.55764	
   15.2565	-0.000319901	   15.2706	-0.000288613	   15.3195	-0.000282597	   15.2822	-0.000297037	   15.2822	  -7.42592	
   15.3718	-0.000314736	   15.3871	-0.000283773	   15.4373	-0.000276898	   15.3987	-0.000291802	   15.3987	  -7.29506	
   15.4871	-0.000309631	   15.5027	-0.000278923	   15.5543	-0.000271323	   15.5147	-0.000286626	   15.5147	  -7.16565	
   15.6015	-0.000304562	   15.6177	-0.000274029	   15.6713	-0.000265919	   15.6302	-0.000281504	   15.6302	  -7.03759	
   15.7147	-0.000299488	   15.7327	-0.000269066	   15.7877	-0.000260722	    15.745	-0.000276425	    15.745	  -6.91063	
   15.8279	-0.000294401	   15.8464	-0.000264018	   15.9044	-0.000255739	   15.8596	-0.000271386	   15.8596	  -6.78466	
   15.9413	-0.00028927	   15.9595	-0.000258875	   16.0197	-0.000250923	   15.9735	-0.000266356	   15.9735	  -6.65889	
   16.0532	-0.000284081	   16.0723	-0.000253646	   16.1341	-0.000246213	   16.0866	-0.000261313	   16.0866	  -6.53283	
   16.1647	-0.0002788	    16.184	-0.000248353	    16.248	-0.000241548	   16.1989	-0.000256234	   16.1989	  -6.40584	
   16.2748	-0.000273417	   16.2963	-0.000243019	   16.3611	-0.00023685	   16.3107	-0.000251096	   16.3107	  -6.27739	
    16.384	-0.000267946	   16.4084	-0.000237681	    16.473	-0.000232045	   16.4218	-0.00024589	   16.4218	  -6.14726	
   16.4921	-0.000262395	   16.5195	-0.000232366	   16.5843	-0.000227079	    16.532	-0.000240613	    16.532	  -6.01533	
   16.5992	-0.000256802	   16.6298	-0.000227099	   16.6954	-0.000221924	   16.6415	-0.000235275	   16.6415	  -5.88189	
   16.7061	-0.000251193	   16.7395	-0.000221898	   16.8045	-0.00021657	     16.75	-0.000229887	     16.75	  -5.74718	
    16.812	-0.00024559	   16.8486	-0.000216766	   16.9129	-0.000211035	   16.8578	-0.000224464	   16.8578	  -5.61159	
   16.9178	-0.000240043	   16.9573	-0.000211701	   17.0203	-0.000205376	   16.9652	-0.00021904	   16.9652	  -5.47601	
   17.0231	-0.000234588	   17.0649	-0.000206683	   17.1269	-0.000199652	   17.0716	-0.000213641	   17.0716	  -5.34102	
   17.1277	-0.000229228	   17.1714	-0.00020169	   17.2328	-0.000193879	   17.1773	-0.000208266	   17.1773	  -5.20664	
   17.2313	-0.000223959	   17.2766	-0.000196698	   17.3393	-0.000188132	   17.2824	-0.00020293	   17.2824	  -5.07324	
   17.3341	-0.000218769	   17.3815	-0.000191676	   17.4453	-0.000182524	    17.387	-0.000197656	    17.387	  -4.94141	
   17.4369	-0.000213636	   17.4853	-0.000186604	   17.5506	-0.000177055	   17.4909	-0.000192432	   17.4909	   -4.8108	
   17.5392	-0.000208522	   17.5873	-0.000181465	   17.6554	-0.00017173	   17.5939	-0.000187239	   17.5939	  -4.68098	
   17.6402	-0.000203393	   17.6892	-0.000176254	   17.7609	-0.00016658	   17.6968	-0.000182076	   17.6968	  -4.55189	
   17.7402	-0.000198213	   17.7903	-0.000170976	   17.8668	-0.000161588	   17.7991	-0.000176926	   17.7991	  -4.42314	
   17.8392	-0.000192944	   17.8908	-0.000165645	   17.9728	-0.000156694	   17.9009	-0.000171761	   17.9009	  -4.29403	
   17.9378	-0.000187579	   17.9904	-0.000160285	   18.0775	-0.000151865	   18.0019	-0.000166576	   18.0019	   -4.1644	
   18.0356	-0.000182115	   18.0889	-0.000154916	   18.1816	-0.000147055	    18.102	-0.000161362	    18.102	  -4.03405	
   18.1324	-0.000176553	   18.1866	-0.000149567	   18.2868	-0.000142202	   18.2019	-0.000156107	   18.2019	  -3.90268	
   18.2287	-0.000170905	   18.2834	-0.00014426	   18.3887	-0.000137262	   18.3003	-0.000150809	   18.3003	  -3.77023	
   18.3242	-0.000165204	   18.3799	-0.000139008	   18.4871	-0.00013222	   18.3971	-0.000145477	   18.3971	  -3.63693	
   18.4191	-0.000159486	   18.4758	-0.000133819	   18.5843	-0.000127033	    18.493	-0.000140113	    18.493	  -3.50283	
   18.5141	-0.00015378	   18.5708	-0.000128691	   18.6821	-0.000121675	    18.589	-0.000134716	    18.589	  -3.36789	
   18.6084	-0.000148122	   18.6658	-0.000123611	   18.7775	-0.000116183	   18.6839	-0.000129305	   18.6839	  -3.23264	
   18.7016	-0.000142548	     18.76	-0.000118561	   18.8682	-0.000110628	   18.7766	-0.000123912	   18.7766	  -3.09781	
   18.7941	-0.000137056	   18.8527	-0.000113514	    18.957	-0.00010503	   18.8679	-0.000118534	   18.8679	  -2.96334	
   18.8851	-0.000131649	   18.9451	-0.000108448	    19.046	-9.94225e-05	   18.9587	-0.000113173	   18.9587	  -2.82933	
   18.9759	-0.000126326	   19.0369	-0.000103344	   19.1341	-9.38268e-05	    19.049	-0.000107832	    19.049	   -2.6958	
   19.0664	-0.000121043	   19.1279	-9.81841e-05	   19.2212	-8.82801e-05	   19.1385	-0.000102502	   19.1385	  -2.56256	
   19.1561	-0.000115773	   19.2184	-9.29702e-05	   19.3076	-8.28187e-05	   19.2274	-9.71872e-05	   19.2274	  -2.42968	
   19.2449	-0.000110501	   19.3083	-8.7704e-05	   19.3947	-7.74484e-05	    19.316	-9.18846e-05	    19.316	  -2.29711	
   19.3334	-0.00010522	   19.3974	-8.24002e-05	    19.483	-7.21604e-05	   19.4046	-8.65936e-05	   19.4046	  -2.16484	
    19.421	-9.98945e-05	   19.4858	-7.70792e-05	   19.5706	-6.69375e-05	   19.4925	-8.13037e-05	   19.4925	  -2.03259	
   19.5077	-9.45014e-05	   19.5738	-7.17575e-05	   19.6581	-6.17685e-05	   19.5798	-7.60091e-05	   19.5798	  -1.90023	
   19.5932	-8.90631e-05	   19.6605	-6.64643e-05	   19.7453	-5.66456e-05	   19.6664	-7.07244e-05	   19.6664	  -1.76811	
   19.6782	-8.35781e-05	   19.7457	-6.12136e-05	   19.8327	-5.15266e-05	   19.7522	-6.54394e-05	   19.7522	  -1.63599	
    19.763	-7.80529e-05	   19.8303	-5.60199e-05	   19.9203	-4.63851e-05	   19.8379	-6.01526e-05	   19.8379	  -1.50382	
   19.8462	-7.25151e-05	    19.913	-5.08887e-05	   20.0074	-4.12258e-05	   19.9222	-5.48765e-05	   19.9222	  -1.37191	
   19.9288	-6.70009e-05	   19.9953	-4.58093e-05	   20.0937	-3.60496e-05	   20.0059	-4.96199e-05	   20.0059	   -1.2405	
   20.0115	-6.15246e-05	   20.0767	-4.07772e-05	   20.1792	-3.08673e-05	   20.0891	-4.43897e-05	   20.0891	  -1.10974	
   20.0933	-5.61027e-05	   20.1579	-3.577e-05	    20.263	-2.56749e-05	   20.1714	-3.91825e-05	   20.1714	 -0.979563	
   20.1747	-5.07502e-05	   20.2378	-3.07689e-05	   20.3455	-2.04772e-05	   20.2527	-3.39988e-05	   20.2527	  -0.84997	
   20.2557	-4.54452e-05	   20.3164	-2.57572e-05	   20.4274	-1.52884e-05	   20.3332	-2.88303e-05	   20.3332	 -0.720757	
    20.336	-4.01706e-05	   20.3946	-2.07151e-05	   20.5082	-1.01244e-05	   20.4129	-2.367e-05	   20.4129	 -0.591751	
   20.4154	-3.49193e-05	   20.4725	-1.56358e-05	   20.5886	-5.00175e-06	   20.4922	-1.85189e-05	   20.4922	 -0.462974	
   20.4942	-2.96627e-05	   20.5492	-1.0512e-05	   20.6685	9.04622e-08	   20.5706	-1.33614e-05	   20.5706	 -0.334035	
   20.5717	-2.43722e-05	    20.626	-5.34946e-06	   20.7476	5.15731e-06	   20.6485	-8.18811e-06	   20.6485	 -0.204703	
   20.6484	-1.90316e-05	   20.7012	-1.60662e-07	   20.8258	1.01975e-05	   20.7251	-2.99827e-06	   20.7251	-0.0749568	
   20.7235	-1.36356e-05	   20.7754	5.03983e-06	   20.9022	1.52195e-05	   20.8004	2.2079e-06	   20.8004	 0.0551976	
   20.7978	-8.18671e-06	   20.8487	1.02315e-05	   20.9784	2.02277e-05	    20.875	7.42415e-06	    20.875	  0.185604	
   20.8718	-2.69372e-06	   20.9214	1.53956e-05	   21.0531	2.52354e-05	   20.9488	1.26458e-05	   20.9488	  0.316144	
   20.9448	2.81499e-06	   20.9929	2.05124e-05	   21.1269	3.02518e-05	   21.0215	1.78598e-05	   21.0215	  0.446494	
   21.0177	8.33128e-06	   21.0635	2.55688e-05	   21.1996	3.52786e-05	   21.0936	2.30596e-05	   21.0936	   0.57649	
   21.0896	1.38303e-05	   21.1338	3.05557e-05	   21.2713	4.03162e-05	   21.1649	2.82341e-05	   21.1649	  0.705851	
     21.16	1.92747e-05	   21.2034	3.54732e-05	   21.3425	4.53591e-05	   21.2353	3.3369e-05	   21.2353	  0.834224	
   21.2299	2.46525e-05	   21.2716	4.03346e-05	    21.413	5.04069e-05	   21.3048	3.84646e-05	   21.3048	  0.961616	
   21.2994	2.99583e-05	   21.3389	4.51619e-05	   21.4826	5.54541e-05	   21.3736	4.35248e-05	   21.3736	   1.08812	
   21.3674	3.51917e-05	   21.4045	4.99798e-05	   21.5506	6.04888e-05	   21.4408	4.85534e-05	   21.4408	   1.21384	
   21.4347	4.03521e-05	   21.4694	5.48166e-05	   21.6174	6.55059e-05	   21.5072	5.35582e-05	   21.5072	   1.33896	
   21.5016	 4.546e-05	    21.534	5.96938e-05	   21.6838	7.05034e-05	   21.5732	5.85524e-05	   21.5732	   1.46381	
   21.5676	5.05461e-05	    21.598	6.46249e-05	   21.7494	7.54806e-05	   21.6383	6.35505e-05	   21.6383	   1.58876	
   21.6321	5.56294e-05	   21.6613	6.95762e-05	   21.8149	8.04374e-05	   21.7028	6.85477e-05	   21.7028	   1.71369	
    21.696	6.07269e-05	   21.7243	7.45553e-05	   21.8791	8.53673e-05	   21.7665	7.35498e-05	   21.7665	   1.83875	
   21.7589	6.5869e-05	   21.7863	7.95667e-05	   21.9438	9.02735e-05	   21.8297	7.85697e-05	   21.8297	   1.96424	
   21.8216	7.10651e-05	   21.8471	8.45953e-05	   22.0079	9.51605e-05	   21.8922	8.36069e-05	   21.8922	   2.09017	
   21.8836	7.63106e-05	   21.9068	8.96115e-05	   22.0713	0.000100038	   21.9539	8.86534e-05	   21.9539	   2.21633	
   21.9443	8.16124e-05	   21.9658	9.45888e-05	   22.1331	0.000104913	   22.0144	9.37048e-05	   22.0144	   2.34262	
   22.0041	8.69497e-05	    22.024	9.95408e-05	   22.1939	0.000109783	    22.074	9.87578e-05	    22.074	   2.46895	
   22.0631	9.23062e-05	    22.082	0.000104449	   22.2538	0.000114653	    22.133	0.000103803	    22.133	   2.59507	
    22.122	9.76563e-05	   22.1388	0.000109307	   22.3125	0.000119525	   22.1911	0.00010883	   22.1911	   2.72074	
   22.1797	0.000102972	   22.1952	0.00011413	   22.3706	0.000124392	   22.2485	0.000113831	   22.2485	   2.84578	
   22.2366	0.000108235	   22.2502	0.000118913	   22.4279	0.000129252	   22.3049	 0.0001188	   22.3049	      2.97	
   22.2929	0.000113424	   22.3062	0.000123673	   22.4845	0.000134096	   22.3612	0.000123731	   22.3612	   3.09328	
   22.3485	0.000118541	   22.3613	0.00012842	   22.5399	0.000138921	   22.4166	0.000128627	   22.4166	   3.21568	
   22.4034	0.00012359	   22.4148	0.000133147	   22.5929	0.000143722	   22.4704	0.000133486	   22.4704	   3.33716	
   22.4567	0.000128574	   22.4681	0.000137849	   22.6458	0.000148495	   22.5235	0.000138306	   22.5235	   3.45766	
    22.509	0.000133508	   22.5208	0.000142511	   22.6973	0.000153242	   22.5757	0.000143087	   22.5757	   3.57716	
   22.5603	0.000138403	   22.5723	0.000147139	   22.7491	0.000157958	   22.6272	0.000147833	   22.6272	   3.69583	
     22.61	0.000143282	   22.6221	0.000151727	   22.7994	0.000162652	   22.6772	0.000152554	   22.6772	   3.81385	
   22.6586	0.000148161	   22.6706	0.000156281	   22.8484	0.000167333	   22.7259	0.000157258	   22.7259	   3.93146	
   22.7061	0.000153052	   22.7183	0.000160792	   22.8962	0.000172004	   22.7735	0.000161949	   22.7735	   4.04874	
    22.753	0.000157966	   22.7646	0.00016526	   22.9425	0.000176671	     22.82	0.000166633	     22.82	   4.16581	
   22.7995	0.000162901	   22.8104	0.000169698	   22.9881	0.000181335	    22.866	0.000171312	    22.866	   4.28279	
   22.8453	0.000167855	   22.8561	0.000174122	   23.0329	  0.000186	   22.9114	0.000175992	   22.9114	    4.3998	
   22.8901	0.000172812	   22.9006	0.000178539	   23.0768	0.000190665	   22.9558	0.000180672	   22.9558	    4.5168	
   22.9339	0.000177764	   22.9449	0.000182943	    23.119	0.000195324	   22.9992	0.000185344	   22.9992	    4.6336	
   22.9776	0.000182696	   22.9887	0.000187338	   23.1602	0.000199971	   23.0422	0.000190002	   23.0422	   4.75004	
   23.0209	0.000187585	   23.0311	0.000191738	   23.1999	0.000204598	    23.084	0.00019464	    23.084	   4.86601	
   23.0631	0.000192428	   23.0731	0.000196135	   23.2386	0.000209199	   23.1249	0.000199254	   23.1249	   4.98135	
   23.1038	0.000197224	   23.1149	0.000200516	   23.2763	0.000213769	    23.165	0.000203836	    23.165	   5.09591	
   23.1441	0.000201956	   23.1552	0.000204885	   23.3129	 0.0002183	   23.2041	0.000208381	   23.2041	   5.20952	
   23.1833	0.00020664	   23.1944	0.00020923	   23.3478	0.000222795	   23.2418	0.000212889	   23.2418	   5.32221	
   23.2219	0.000211292	   23.2328	0.000213532	   23.3817	0.000227254	   23.2788	0.00021736	   23.2788	   5.43399	
   23.2588	0.000215926	     23.27	0.000217796	   23.4149	0.000231681	   23.3146	0.000221801	   23.3146	   5.54502	
   23.2958	0.000220558	   23.3063	0.000222019	   23.4463	0.000236087	   23.3495	0.000226221	   23.3495	   5.65554	
    23.332	0.000225206	   23.3408	0.000226202	    23.477	0.000240483	   23.3833	0.000230631	   23.3833	   5.76576	
   23.3674	0.000229887	   23.3744	0.000230357	   23.5072	0.000244879	   23.4164	0.000235041	   23.4164	   5.87603	
   23.4015	0.000234595	   23.4077	0.000234503	   23.5363	0.000249282	   23.4485	0.00023946	   23.4485	    5.9865	
   23.4353	0.000239323	   23.4407	0.000238641	   23.5663	 0.0002537	   23.4808	0.000243888	   23.4808	    6.0972	
   23.4675	0.000244076	    23.472	0.000242778	   23.5956	0.000258147	   23.5117	0.000248333	   23.5117	   6.20833	
   23.4988	0.000248824	   23.5028	0.000246929	   23.6245	0.000262705	    23.542	0.000252819	    23.542	   6.32048	
   23.5291	0.00025355	   23.5319	0.000251097	   23.6526	0.000267333	   23.5712	0.000257327	   23.5712	   6.43316	
   23.5584	0.000258239	   23.5604	0.000255263	   23.6788	0.00027199	   23.5992	0.000261831	   23.5992	   6.54577	
   23.5875	0.000262876	   23.5886	0.000259434	    23.705	0.000276644	    23.627	0.000266318	    23.627	   6.65795	
   23.6151	0.000267448	   23.6152	0.000263614	   23.7311	0.000281252	   23.6538	0.000270771	   23.6538	   6.76929	
   23.6416	0.000271954	   23.6408	0.000267787	   23.7592	0.000285796	   23.6805	0.000275179	   23.6805	   6.87948	
    23.668	0.000276403	   23.6658	0.000271948	   23.7894	0.000290199	   23.7077	0.000279517	   23.7077	   6.98791	
   23.6941	0.000280799	   23.6897	0.000276102	   23.8168	0.000294456	   23.7335	0.000283786	   23.7335	   7.09464	
   23.7191	0.000285154	   23.7126	0.000280238	   23.8422	0.000298573	   23.7579	0.000287988	   23.7579	   7.19971	
   23.7421	0.000289496	   23.7358	0.000284348	   23.8679	0.000302559	    23.782	0.000292134	    23.782	   7.30335	
   23.7649	0.000293836	   23.7579	0.00028848	   23.8946	0.000306471	   23.8058	0.000296262	   23.8058	   7.40655	
    23.786	0.000298187	   23.7794	0.000292629	   23.9177	0.000310347	   23.8277	0.000300388	   23.8277	   7.50969	
   23.8062	0.000302562	   23.7996	0.000296732	   23.9338	0.000314223	   23.8465	0.000304506	   23.8465	   7.61264	
   23.8253	0.000306962	   23.8193	0.000300843	   23.9485	0.000318217	   23.8643	0.000308674	   23.8643	   7.71686	
   23.8441	0.000311383	   23.8385	0.00030496	   23.9647	0.000322382	   23.8824	0.000312908	   23.8824	   7.82271	
   23.8614	0.000315814	    23.858	0.000309019	    23.978	0.000326731	   23.8991	0.000317188	   23.8991	    7.9297	
   23.8777	0.000320241	   23.8784	0.00031299	   23.9864	0.00033122	   23.9142	0.000321484	   23.9142	    8.0371	
   23.8926	0.000324648	    23.897	0.000316884	   23.9932	0.000335839	   23.9276	0.00032579	   23.9276	   8.14476	
   23.9066	0.000329018	   23.9136	0.000320685	   24.0007	0.00034055	   23.9403	0.000330084	   23.9403	   8.25211	
   23.9198	0.00033334	   23.9309	0.00032438	   24.0077	0.000345249	   23.9528	0.000334323	   23.9528	   8.35808	
   23.9314	0.000337602	   23.9476	0.000328003	    24.013	0.000349864	    23.964	0.00033849	    23.964	   8.46224	
   23.9416	 0.0003418	   23.9623	0.000331568	    24.019	0.000354318	   23.9743	0.000342562	   23.9743	   8.56404	
   23.9506	0.000345941	   23.9725	0.000335085	   24.0255	0.00035855	   23.9829	0.000346526	   23.9829	   8.66314	
    23.959	0.000350032	   23.9818	0.000338618	   24.0332	0.000362552	   23.9913	 0.0003504	   23.9913	   8.76001	
   23.9659	0.000354087	   23.9907	0.000342222	   24.0399	0.000366336	   23.9988	0.000354215	   23.9988	   8.85537	
   23.9709	0.000358118	    23.996	0.000345902	   24.0456	0.000369934	   24.0041	0.000357985	   24.0041	   8.94961	
    23.975	0.000362145	   23.9973	0.000349674	   24.0508	0.000373402	   24.0077	0.000361741	   24.0077	   9.04351	
   23.9781	0.000366181	   23.9977	0.000353565	   24.0558	0.000376836	   24.0105	0.000365527	   24.0105	   9.13819	
   23.9796	0.000370233	   23.9979	0.000357559	   24.0604	0.000380333	   24.0126	0.000369375	   24.0126	   9.23438	
   23.9802	0.000374307	   23.9965	0.000361618	   24.0647	0.000383954	   24.0138	0.000373293	   24.0138	   9.33233	
   23.9808	0.000378398	   23.9931	0.000365719	   24.0687	0.00038775	   24.0142	0.000377289	   24.0142	   9.43222	
   23.9807	0.000382496	   23.9892	0.000369813	   24.0711	0.000391742	   24.0136	0.00038135	   24.0136	   9.53376	
   23.9799	0.000386592	   23.9861	0.000373839	   24.0712	0.000395915	   24.0124	0.000385448	   24.0124	   9.63621	
   23.9781	0.000390669	   23.9828	0.000377773	   24.0703	0.00040023	   24.0104	0.000389557	   24.0104	   9.73893	
   23.9751	0.000394712	   23.9788	0.000381591	   24.0696	0.000404619	   24.0078	0.000393641	   24.0078	   9.84102	
    23.971	0.000398709	   23.9737	0.000385266	   24.0679	0.000408997	   24.0042	0.000397657	   24.0042	   9.94143	
   23.9657	0.000402649	   23.9674	0.000388798	   24.0636	0.000413279	   23.9989	0.000401575	   23.9989	   10.0394	
   23.9595	0.000406531	   23.9611	0.000392226	   24.0576	0.000417411	   23.9927	0.00040539	   23.9927	   10.1347	
   23.9524	0.000410353	   23.9538	0.000395578	   24.0516	0.000421356	   23.9859	0.000409096	   23.9859	   10.2274	
   23.9445	0.000414129	   23.9456	0.000398887	   24.0445	0.000425082	   23.9782	0.000412699	   23.9782	   10.3175	
    23.936	0.000417868	   23.9366	0.000402214	   24.0361	0.000428595	   23.9696	0.000416225	   23.9696	   10.4056	
   23.9263	0.000421581	    23.927	 0.0004056	   24.0259	0.000431931	   23.9597	0.000419704	   23.9597	   10.4926	
   23.9161	0.00042529	   23.9153	0.000409074	   24.0161	0.000435145	   23.9492	0.000423169	   23.9492	   10.5792	
    23.904	0.000429005	   23.9024	0.000412661	   24.0067	0.000438303	   23.9377	0.000426657	   23.9377	   10.6664	
   23.8913	0.000432736	   23.8883	0.000416368	   23.9957	0.000441477	   23.9251	0.000430194	   23.9251	   10.7548	
   23.8776	0.000436486	   23.8741	0.000420167	   23.9837	0.000444727	   23.9118	0.000433793	   23.9118	   10.8448	
   23.8629	0.000440255	   23.8583	0.000424025	   23.9714	0.000448094	   23.8975	0.000437458	   23.8975	   10.9365	
   23.8476	0.000444036	   23.8418	0.000427909	   23.9584	0.000451609	   23.8826	0.000441185	   23.8826	   11.0296	
    23.831	0.000447816	   23.8246	0.000431761	   23.9447	0.000455266	   23.8668	0.000444948	   23.8668	   11.1237	
   23.8148	0.000451581	   23.8055	0.000435527	   23.9297	0.000459036	     23.85	0.000448715	     23.85	   11.2179	
   23.7979	0.000455319	   23.7859	0.000439178	   23.9138	0.000462882	   23.8325	0.00045246	   23.8325	   11.3115	
   23.7793	0.000459014	   23.7655	0.000442691	   23.8969	0.000466752	   23.8139	0.000456152	   23.8139	   11.4038	
   23.7599	0.00046266	   23.7443	0.000446058	   23.8789	0.000470585	   23.7944	0.000459768	   23.7944	   11.4942	
   23.7391	0.000466251	   23.7233	0.000449299	   23.8594	0.000474319	   23.7739	0.00046329	   23.7739	   11.5822	
   23.7171	0.000469789	    23.701	0.000452434	   23.8379	0.000477903	    23.752	0.000466708	    23.752	   11.6677	
   23.6943	0.000473279	   23.6783	0.000455519	   23.8153	0.000481304	   23.7293	0.000470034	   23.7293	   11.7509	
   23.6705	0.000476732	   23.6539	0.000458607	   23.7918	0.000484511	   23.7054	0.000473283	   23.7054	   11.8321	
   23.6467	0.000480162	    23.629	0.000461726	   23.7671	0.000487542	   23.6809	0.000476477	   23.6809	   11.9119	
   23.6221	0.000483582	   23.6041	0.000464906	   23.7417	0.000490436	    23.656	0.000479641	    23.656	    11.991	
   23.5958	0.000487003	   23.5779	0.000468181	   23.7149	0.000493247	   23.6295	0.00048281	   23.6295	   12.0703	
   23.5691	0.000490436	   23.5512	0.000471549	   23.6871	0.000496038	   23.6025	0.000486008	   23.6025	   12.1502	
   23.5415	0.000493883	   23.5245	0.000474974	   23.6587	0.000498864	   23.5749	0.000489241	   23.5749	    12.231	
   23.5123	0.000497345	   23.4961	0.000478425	   23.6289	0.000501782	   23.5458	0.000492517	   23.5458	   12.3129	
   23.4825	0.000500814	   23.4671	0.00048186	   23.5993	0.000504826	   23.5163	0.000495833	   23.5163	   12.3958	
   23.4515	0.000504282	   23.4367	0.000485228	   23.5686	0.000508006	   23.4856	0.000499172	   23.4856	   12.4793	
   23.4196	0.000507741	   23.4052	0.000488486	   23.5376	0.000511307	   23.4541	0.000502511	   23.4541	   12.5628	
    23.387	0.000511174	    23.373	0.000491611	   23.5067	0.000514699	   23.4222	0.000505828	   23.4222	   12.6457	
   23.3531	0.000514571	   23.3401	0.00049458	   23.4751	0.000518135	   23.3894	0.000509095	   23.3894	   12.7274	
    23.318	0.000517925	   23.3068	0.000497409	   23.4423	0.000521546	   23.3557	0.000512293	   23.3557	   12.8073	
   23.2818	0.000521227	   23.2723	0.00050014	   23.4077	0.000524868	   23.3206	0.000515412	   23.3206	   12.8853	
   23.2454	0.00052448	   23.2372	0.00050282	   23.3724	0.000528063	    23.285	0.000518454	    23.285	   12.9614	
   23.2083	0.000527684	   23.2013	0.000505491	   23.3364	0.000531097	   23.2487	0.000521424	   23.2487	   13.0356	
   23.1708	0.00053085	   23.1643	0.000508205	   23.2992	0.000533963	   23.2114	0.000524339	   23.2114	   13.1085	
   23.1328	0.000533987	   23.1254	0.000511015	   23.2608	0.000536663	    23.173	0.000527222	    23.173	   13.1805	
   23.0937	0.000537105	   23.0852	0.000513938	   23.2211	0.000539232	   23.1334	0.000530092	   23.1334	   13.2523	
   23.0532	0.00054022	   23.0444	0.000516985	     23.18	0.000541724	   23.0925	0.000532976	   23.0925	   13.3244	
   23.0122	0.000543339	   23.0031	0.000520142	   23.1385	0.000544192	   23.0513	0.000535891	   23.0513	   13.3973	
   22.9702	0.000546467	   22.9606	0.000523371	   23.0963	0.000546687	    23.009	0.000538842	    23.009	    13.471	
   22.9274	0.000549607	    22.918	0.000526628	   23.0525	0.000549255	    22.966	0.00054183	    22.966	   13.5457	
   22.8839	0.000552752	   22.8747	0.000529862	   23.0085	0.000551921	   22.9224	0.000544845	   22.9224	   13.6211	
     22.84	 0.0005559	   22.8308	0.000533024	   22.9633	 0.0005547	    22.878	0.000547874	    22.878	   13.6969	
   22.7943	0.000559037	   22.7861	0.000536064	   22.9168	0.000557577	   22.8324	0.000550893	   22.8324	   13.7723	
   22.7479	0.000562152	   22.7398	0.000538964	    22.869	0.000560526	   22.7856	0.00055388	   22.7856	    13.847	
   22.7013	0.000565233	   22.6917	0.000541722	   22.8203	0.00056351	   22.7378	0.000556822	   22.7378	   13.9205	
   22.6543	0.000568267	    22.644	0.000544344	   22.7707	0.000566478	   22.6896	0.000559696	   22.6896	   13.9924	
   22.6059	0.000571251	   22.5944	0.000546864	   22.7197	0.000569385	     22.64	 0.0005625	     22.64	   14.0625	
   22.5568	0.000574184	   22.5441	0.000549321	   22.6669	0.000572192	   22.5893	0.000565232	   22.5893	   14.1308	
   22.5065	0.000577068	   22.4934	0.000551757	   22.6125	0.000574879	   22.5375	0.000567901	   22.5375	   14.1975	
   22.4561	0.00057991	   22.4406	0.000554222	   22.5577	0.00057745	   22.4848	0.000570527	   22.4848	   14.2632	
   22.4049	0.000582718	   22.3878	0.000556755	   22.5017	0.000579911	   22.4315	0.000573128	   22.4315	   14.3282	
   22.3524	0.000585508	   22.3349	0.000559372	   22.4448	0.000582278	   22.3774	0.00057572	   22.3774	    14.393	
   22.2989	0.000588293	   22.2808	0.000562075	   22.3873	0.000584572	   22.3224	0.000578313	   22.3224	   14.4578	
   22.2442	0.00059108	   22.2256	0.000564849	   22.3293	0.000586821	   22.2664	0.000580917	   22.2664	   14.5229	
   22.1883	0.000593881	   22.1691	0.000567676	   22.2704	0.000589056	   22.2093	0.000583538	   22.2093	   14.5884	
   22.1316	0.000596692	   22.1119	0.000570509	    22.211	0.000591295	   22.1515	0.000586165	   22.1515	   14.6541	
   22.0735	0.000599513	   22.0532	0.000573312	   22.1498	0.000593564	   22.0922	0.000588796	   22.0922	   14.7199	
   22.0147	0.000602337	   21.9934	0.000576049	   22.0885	0.000595875	   22.0322	0.00059142	   22.0322	   14.7855	
   21.9543	0.000605148	   21.9334	0.000578678	   22.0267	0.000598237	   21.9715	0.000594021	   21.9715	   14.8505	
   21.8933	0.00060794	   21.8721	0.000581194	   21.9639	0.000600651	   21.9097	0.000596595	   21.9097	   14.9149	
   21.8314	0.000610699	   21.8103	0.000583602	   21.9008	0.000603101	   21.8475	0.000599134	   21.8475	   14.9783	
   21.7679	0.000613416	   21.7469	0.000585899	   21.8371	0.000605569	    21.784	0.000601628	    21.784	   15.0407	
   21.7042	0.000616084	   21.6832	0.000588111	   21.7727	0.000608019	     21.72	0.000604071	     21.72	   15.1018	
   21.6402	0.000618701	   21.6184	0.000590285	   21.7067	0.000610417	   21.6551	0.000606468	   21.6551	   15.1617	
   21.5753	0.000621273	   21.5528	0.000592461	   21.6396	0.000612761	   21.5892	0.000608832	   21.5892	   15.2208	
   21.5099	0.000623804	    21.486	0.000594664	   21.5723	0.000615047	   21.5227	0.000611172	   21.5227	   15.2793	
   21.4437	 0.0006263	    21.418	0.000596924	   21.5038	0.000617259	   21.4552	0.000613494	   21.4552	   15.3374	
   21.3761	0.000628779	   21.3493	0.000599272	   21.4336	0.000619408	   21.3863	0.00061582	   21.3863	   15.3955	
   21.3072	0.000631244	   21.2795	0.000601702	   21.3633	0.000621517	   21.3167	0.000618155	   21.3167	   15.4539	
   21.2376	 0.0006337	   21.2082	0.000604206	   21.2925	0.000623616	   21.2461	0.000620507	   21.2461	   15.5127	
   21.1666	0.000636169	   21.1364	0.000606771	   21.2208	0.000625716	   21.1746	0.000622886	   21.1746	   15.5721	
   21.0953	0.000638662	   21.0635	0.000609352	   21.1478	0.000627836	   21.1022	0.000625283	   21.1022	   15.6321	
   21.0226	0.000641159	   20.9892	0.000611904	   21.0738	0.00063001	   21.0285	0.000627691	   21.0285	   15.6923	
   20.9488	0.000643649	   20.9148	0.000614398	   20.9998	0.000632222	   20.9545	0.00063009	   20.9545	   15.7522	
   20.8741	0.000646158	    20.839	0.000616805	   20.9251	0.000634471	   20.8794	0.000632478	   20.8794	   15.8119	
   20.7989	0.000648661	   20.7632	0.000619096	     20.85	0.000636738	    20.804	0.000634831	    20.804	   15.8708	
   20.7235	0.000651118	   20.6872	0.000621267	   20.7734	0.000639008	    20.728	0.000637131	    20.728	   15.9283	
   20.6466	0.00065352	   20.6103	0.000623332	    20.696	0.00064125	    20.651	0.000639368	    20.651	   15.9842	
   20.5694	0.000655851	   20.5315	0.000625305	   20.6184	0.000643428	   20.5731	0.000641528	   20.5731	   16.0382	
   20.4913	0.000658098	   20.4521	0.000627216	   20.5391	0.000645539	   20.4942	0.000643618	   20.4942	   16.0904	
   20.4127	0.000660259	   20.3723	0.000629116	    20.459	0.000647569	   20.4146	0.000645648	   20.4146	   16.1412	
   20.3331	0.000662349	   20.2923	0.000631032	   20.3789	0.000649524	   20.3348	0.000647635	   20.3348	   16.1909	
   20.2522	0.000664372	    20.211	0.000632994	    20.298	0.000651433	   20.2537	 0.0006496	   20.2537	     16.24	
   20.1702	0.000666355	   20.1294	0.000635032	   20.2164	0.000653309	    20.172	0.000651565	    20.172	   16.2891	
   20.0876	0.000668345	   20.0472	0.00063715	   20.1341	0.000655177	   20.0896	0.000653557	   20.0896	   16.3389	
   20.0038	0.000670373	   19.9638	0.000639338	   20.0509	0.000657056	   20.0062	0.000655589	   20.0062	   16.3897	
   19.9196	0.000672451	   19.8809	0.000641571	   19.9672	0.000658954	   19.9226	0.000657658	   19.9226	   16.4415	
   19.8356	0.000674597	   19.7967	0.000643829	   19.8825	0.000660896	   19.8383	0.000659774	   19.8383	   16.4944	
   19.7516	0.00067682	   19.7121	0.000646073	   19.7969	0.00066286	   19.7535	0.000661918	   19.7535	   16.5479	
   19.6669	0.000679101	   19.6275	0.000648264	   19.7103	0.000664829	   19.6682	0.000664064	   19.6682	   16.6016	
   19.5809	0.000681417	   19.5421	0.000650375	   19.6231	0.000666799	    19.582	0.000666197	    19.582	   16.6549	
   19.4949	0.000683734	   19.4559	0.000652377	   19.5354	0.000668738	   19.4954	0.000668283	   19.4954	   16.7071	
   19.4084	0.000686013	   19.3686	0.000654268	    19.447	0.000670623	    19.408	0.000670302	    19.408	   16.7575	
    19.321	0.000688221	   19.2804	0.000656054	   19.3579	0.000672428	   19.3198	0.000672234	   19.3198	   16.8059	
   19.2331	0.000690336	   19.1918	0.000657751	   19.2687	0.000674151	   19.2312	0.000674079	   19.2312	    16.852	
   19.1444	0.000692337	   19.1025	0.00065939	   19.1779	0.000675799	   19.1416	0.000675842	   19.1416	    16.896	
   19.0551	0.000694215	   19.0127	0.000661003	    19.087	0.000677359	   19.0516	0.000677526	   19.0516	   16.9381	
   18.9653	0.000695983	   18.9224	0.00066263	   18.9957	0.000678876	   18.9611	0.000679163	   18.9611	   16.9791	
    18.874	0.000697667	   18.8307	0.000664295	   18.9042	0.00068039	   18.8696	0.000680784	   18.8696	   17.0196	
   18.7819	0.000699296	   18.7378	0.000666016	   18.8119	0.000681911	   18.7772	0.000682408	   18.7772	   17.0602	
   18.6891	0.000700905	   18.6442	0.000667806	   18.7185	0.00068347	   18.6839	0.000684061	   18.6839	   17.1015	
   18.5952	0.000702534	   18.5502	0.000669653	   18.6237	0.000685095	   18.5897	0.000685761	   18.5897	    17.144	
   18.5014	0.00070421	   18.4562	0.000671543	   18.5278	0.000686796	   18.4951	0.000687516	   18.4951	   17.1879	
   18.4064	0.00070595	   18.3618	0.000673452	   18.4313	0.000688548	   18.3998	0.000689316	   18.3998	   17.2329	
   18.3113	0.000707763	   18.2664	0.000675347	    18.334	0.000690335	   18.3039	0.000691148	   18.3039	   17.2787	
   18.2151	0.000709639	   18.1698	0.000677197	   18.2353	0.000692134	   18.2067	0.00069299	   18.2067	   17.3248	
    18.119	0.000711552	   18.0726	0.000678975	    18.137	0.000693893	   18.1095	0.000694806	   18.1095	   17.3702	
   18.0217	0.000713478	   17.9749	0.000680664	    18.038	0.00069558	   18.0115	0.000696574	   18.0115	   17.4144	
   17.9232	0.000715386	   17.8752	0.000682257	   17.9377	0.000697179	    17.912	0.000698274	    17.912	   17.4568	
   17.8243	0.000717236	   17.7752	0.000683755	   17.8374	0.000698659	   17.8123	0.000699883	   17.8123	   17.4971	
   17.7241	0.000719006	   17.6749	0.000685179	    17.736	0.000700019	   17.7117	0.000701401	   17.7117	    17.535	
   17.6242	0.000720673	   17.5729	0.000686545	   17.6339	0.000701284	   17.6103	0.000702834	   17.6103	   17.5709	
   17.5236	0.000722237	   17.4699	0.000687884	   17.5315	0.00070247	   17.5083	0.000704197	   17.5083	   17.6049	
   17.4225	0.000723704	   17.3659	0.000689224	   17.4277	0.000703608	   17.4054	0.000705512	   17.4054	   17.6378	
   17.3215	0.000725098	   17.2609	0.000690589	   17.3228	0.000704758	   17.3017	0.000706815	   17.3017	   17.6704	
   17.2191	0.000726456	   17.1563	0.000691997	   17.2174	0.000705941	   17.1976	0.000708132	   17.1976	   17.7033	
   17.1159	0.000727851	   17.0512	0.000693457	    17.111	0.000707175	   17.0927	0.000709494	   17.0927	   17.7374	
   17.0115	0.000729295	   16.9455	0.000694966	   17.0037	0.000708502	   16.9869	0.000710921	   16.9869	    17.773	
   16.9062	0.000730792	   16.8385	0.000696509	   16.8956	0.000709932	   16.8801	0.000712411	   16.8801	   17.8103	
   16.7995	0.000732336	   16.7308	0.000698063	    16.787	0.000711433	   16.7725	0.000713944	   16.7725	   17.8486	
   16.6914	0.000733912	   16.6226	0.000699602	   16.6783	0.000712982	   16.6641	0.000715498	   16.6641	   17.8875	
   16.5828	0.000735493	   16.5135	0.000701095	   16.5689	0.000714568	   16.5551	0.000717052	   16.5551	   17.9263	
   16.4729	0.000737023	   16.4046	0.000702522	   16.4593	0.000716142	   16.4456	0.000718562	   16.4456	   17.9641	
   16.3623	0.00073848	   16.2956	0.000703866	   16.3483	0.00071765	   16.3354	0.000719998	   16.3354	        18	
   16.2519	0.000739842	   16.1853	0.000705116	   16.2365	0.000719082	   16.2246	0.000721347	   16.2246	   18.0337	
   16.1406	0.000741095	   16.0752	0.000706278	   16.1241	0.000720415	   16.1133	0.000722596	   16.1133	   18.0649	
   16.0288	0.000742247	   15.9638	0.000707363	   16.0111	0.00072161	   16.0012	0.00072374	   16.0012	   18.0935	
   15.9154	0.00074331	   15.8524	0.000708391	   15.8978	0.000722674	   15.8885	0.000724792	   15.8885	   18.1198	
   15.8019	0.000744299	   15.7403	0.000709388	   15.7835	0.000723636	   15.7752	0.000725774	   15.7752	   18.1444	
   15.6876	0.00074525	   15.6274	0.000710377	   15.6691	 0.0007245	   15.6614	0.000726709	   15.6614	   18.1677	
   15.5721	0.000746228	   15.5147	0.000711386	   15.5541	0.000725309	    15.547	0.000727641	    15.547	    18.191	
    15.456	0.000747278	   15.4005	0.000712429	   15.4382	0.000726111	   15.4315	0.000728606	   15.4315	   18.2152	
   15.3389	0.000748406	   15.2857	0.000713516	   15.3216	0.000726946	   15.3154	0.000729623	   15.3154	   18.2406	
   15.2207	0.000749631	   15.1704	0.000714646	   15.2041	0.000727833	   15.1984	0.000730703	   15.1984	   18.2676	
   15.1024	0.000751002	   15.0543	0.000715804	   15.0864	0.000728796	    15.081	0.000731867	    15.081	   18.2967	
    14.983	0.000752545	   14.9378	0.000716974	   14.9672	0.00072985	   14.9627	0.000733123	   14.9627	   18.3281	
   14.8625	0.000754166	   14.8204	0.000718132	   14.8471	0.000730969	   14.8433	0.000734422	   14.8433	   18.3606	
   14.7425	0.00075575	   14.7018	0.000719252	   14.7264	0.000732135	   14.7236	0.000735713	   14.7236	   18.3928	
   14.6226	0.000757307	   14.5833	0.000720317	   14.6057	0.00073332	   14.6038	0.000736981	   14.6038	   18.4245	
   14.5041	0.000758743	   14.4642	0.000721311	   14.4848	0.000734472	   14.4844	0.000738175	   14.4844	   18.4544	
   14.3886	0.000759931	   14.3451	0.000722227	   14.3624	0.000735549	   14.3654	0.000739236	   14.3654	   18.4809	
   14.2739	0.000760877	   14.2253	0.000723068	   14.2397	0.000736529	   14.2463	0.000740158	   14.2463	   18.5039	
   14.1553	0.000761595	   14.1057	0.000723846	   14.1171	0.000737383	    14.126	0.000740941	    14.126	   18.5235	
   14.0356	0.000762094	   13.9851	0.000724578	   13.9945	0.00073811	   14.0051	0.000741594	   14.0051	   18.5399	
   13.9182	0.000762419	    13.864	0.000725285	   13.8713	0.000738726	   13.8845	0.000742143	   13.8845	   18.5536	
   13.8004	0.000762667	   13.7423	0.000725992	    13.748	0.000739254	   13.7635	0.000742638	   13.7635	   18.5659	
   13.6767	0.000762904	   13.6202	0.000726719	   13.6241	0.000739731	   13.6403	0.000743118	   13.6403	    18.578	
   13.5504	0.000763186	   13.4974	0.000727478	   13.4995	 0.0007402	   13.5158	0.000743621	   13.5158	   18.5905	
   13.4256	0.000763646	   13.3736	0.000728282	   13.3745	0.000740704	   13.3912	0.000744211	   13.3912	   18.6053	
   13.3016	0.000764335	   13.2485	0.000729127	   13.2488	0.000741257	   13.2663	0.000744906	   13.2663	   18.6227	
   13.1748	0.000765221	   13.1227	0.000730004	   13.1227	0.000741876	     13.14	 0.0007457	     13.14	   18.6425	
   13.0441	0.000766308	   12.9965	0.000730892	   12.9953	0.00074256	   13.0119	0.000746587	   13.0119	   18.6647	
   12.9123	0.000767561	   12.8698	0.000731764	   12.8674	0.000743292	   12.8832	0.000747539	   12.8832	   18.6885	
   12.7813	0.000768904	   12.7423	0.000732635	   12.7384	0.000744048	    12.754	0.000748529	    12.754	   18.7132	
   12.6492	0.000770251	   12.6137	0.000733479	   12.6084	0.000744793	   12.6238	0.000749508	   12.6238	   18.7377	
   12.5166	0.000771525	   12.4845	0.000734273	   12.4775	0.000745508	   12.4929	0.000750435	   12.4929	   18.7609	
   12.3842	0.000772639	   12.3546	0.000734974	    12.346	0.000746176	   12.3616	0.000751263	   12.3616	   18.7816	
   12.2515	0.00077351	   12.2243	0.000735585	   12.2132	0.000746782	   12.2297	0.000751959	   12.2297	    18.799	
   12.1189	0.000774136	   12.0937	0.000736107	   12.0799	0.000747318	   12.0975	0.00075252	   12.0975	    18.813	
   11.9845	0.000774516	   11.9628	0.000736529	   11.9468	0.000747783	   11.9647	0.000752943	   11.9647	   18.8236	
   11.8498	0.000774664	   11.8311	0.000736872	    11.813	0.000748186	   11.8313	0.000753241	   11.8313	    18.831	
   11.7155	0.00077466	   11.6992	0.000737164	    11.679	0.000748521	   11.6979	0.000753448	   11.6979	   18.8362	
   11.5802	0.00077459	   11.5666	0.000737424	   11.5458	0.000748819	   11.5642	0.000753611	   11.5642	   18.8403	
   11.4458	0.000774535	   11.4338	0.000737692	   11.4122	 0.0007491	   11.4306	0.000753776	   11.4306	   18.8444	
   11.3112	0.000774575	   11.2998	0.000738014	   11.2788	0.000749353	   11.2966	0.000753981	   11.2966	   18.8495	
   11.1758	0.000774773	   11.1654	0.000738467	   11.1454	0.000749599	   11.1622	0.00075428	   11.1622	    18.857	
   11.0389	0.000775159	   11.0308	0.000739014	   11.0122	0.000749874	   11.0273	0.000754682	   11.0273	   18.8671	
   10.9019	0.00077572	   10.8962	0.00073963	   10.8783	0.000750178	   10.8921	0.000755176	   10.8921	   18.8794	
    10.765	0.000776449	   10.7609	0.00074031	   10.7449	0.000750498	   10.7569	0.000755752	   10.7569	   18.8938	
   10.6278	0.000777285	   10.6264	  0.000741	   10.6115	0.000750832	   10.6219	0.000756372	   10.6219	   18.9093	
   10.4895	0.000778134	   10.4941	0.000741664	   10.4772	0.000751179	   10.4869	0.000756992	   10.4869	   18.9248	
   10.3499	0.000778934	   10.3635	0.00074222	   10.3432	0.000751511	   10.3522	0.000757555	   10.3522	   18.9389	
   10.2105	0.00077962	   10.2313	0.000742634	    10.209	0.000751799	   10.2169	0.000758017	   10.2169	   18.9504	
   10.0721	0.000780131	   10.0958	0.000742894	   10.0738	0.000752035	   10.0806	0.000758354	   10.0806	   18.9588	
   9.93274	0.000780435	   9.96226	0.00074299	   9.93705	0.000752197	   9.94402	0.000758541	   9.94402	   18.9635	
   9.79169	0.000780535	   9.83072	0.000742954	   9.80021	0.000752257	   9.80754	0.000758582	   9.80754	   18.9646	
   9.65118	0.000780458	   9.69539	0.000742823	   9.66422	0.000752245	   9.67026	0.000758509	   9.67026	   18.9627	
   9.51138	0.000780238	   9.55434	0.000742627	   9.52821	0.000752178	   9.53131	0.000758348	   9.53131	   18.9587	
   9.37097	0.000779942	   9.41351	0.000742453	   9.39045	0.00075206	   9.39164	0.000758152	   9.39164	   18.9538	
   9.22994	0.000779636	   9.27401	0.000742381	   9.25293	0.000751927	    9.2523	0.000757981	    9.2523	   18.9495	
   9.08926	0.000779372	   9.13162	0.000742458	    9.1151	0.000751809	   9.11199	0.00075788	   9.11199	    18.947	
   8.94884	0.00077921	   8.98507	0.000742697	   8.97548	0.000751723	    8.9698	0.000757877	    8.9698	   18.9469	
   8.80838	0.000779181	   8.83729	0.000743096	   8.83463	0.000751675	   8.82677	0.000757984	   8.82677	   18.9496	
   8.66807	0.000779288	   8.69003	0.000743646	   8.69452	0.000751678	   8.68421	0.000758204	   8.68421	   18.9551	
   8.52784	0.000779513	   8.54322	0.000744286	   8.55481	0.00075172	   8.54196	0.000758506	   8.54196	   18.9627	
   8.38763	0.000779822	   8.39584	0.000744946	    8.4142	0.000751774	   8.39922	0.000758847	   8.39922	   18.9712	
   8.24764	0.000780162	   8.24838	0.00074555	   8.27415	0.000751825	   8.25672	0.000759179	   8.25672	   18.9795	
   8.10706	0.000780466	   8.10178	0.000746013	   8.13458	0.000751841	   8.11447	0.00075944	   8.11447	    18.986	
   7.96543	0.000780682	   7.95521	0.000746284	   7.99418	0.000751793	    7.9716	0.000759586	    7.9716	   18.9897	
    7.8242	0.000780761	    7.8084	0.000746334	   7.85273	0.000751665	   7.82844	0.000759587	   7.82844	   18.9897	
    7.6821	0.000780661	   7.66182	0.000746163	   7.71074	0.000751451	   7.68489	0.000759425	   7.68489	   18.9856	
   7.53891	0.000780377	   7.51638	0.000745789	   7.56822	0.000751149	   7.54117	0.000759105	   7.54117	   18.9776	
   7.39516	0.000779919	   7.37122	0.000745257	   7.42539	0.000750765	   7.39726	0.000758647	   7.39726	   18.9662	
   7.25204	0.000779315	   7.22678	0.000744641	   7.28199	0.00075032	   7.25361	0.000758092	   7.25361	   18.9523	
   7.10875	0.000778612	    7.0832	0.000744007	   7.13803	0.000749836	   7.10999	0.000757485	   7.10999	   18.9371	
   6.96405	0.000777867	   6.94036	0.00074342	   6.99375	0.000749332	   6.96605	0.000756873	   6.96605	   18.9218	
   6.81921	0.00077714	   6.79673	0.000742928	    6.8489	0.000748839	   6.82161	0.000756302	   6.82161	   18.9076	
   6.67325	0.000776478	   6.65112	0.000742555	   6.70324	0.000748372	   6.67587	0.000755802	   6.67587	    18.895	
   6.52718	0.000775918	   6.50582	0.000742305	   6.55751	0.000747932	   6.53017	0.000755385	   6.53017	   18.8846	
   6.38098	0.000775476	   6.36028	0.00074217	    6.4105	0.000747522	   6.38392	0.000755056	   6.38392	   18.8764	
   6.23414	0.000775138	   6.21449	0.000742103	   6.26346	0.000747133	   6.23736	0.000754791	   6.23736	   18.8698	
   6.08739	0.000774881	   6.06723	0.000742049	   6.11541	0.00074674	   6.09001	0.000754557	   6.09001	   18.8639	
   5.94143	0.000774665	    5.9193	0.000741957	   5.96736	0.000746318	    5.9427	0.000754313	    5.9427	   18.8578	
   5.79567	0.000774431	   5.77169	0.00074178	   5.82001	0.000745846	   5.79579	0.000754019	   5.79579	   18.8505	
   5.64983	0.000774125	   5.62338	0.000741471	   5.67302	0.000745303	   5.64874	0.000753633	   5.64874	   18.8408	
   5.50314	0.000773701	   5.47441	0.000741003	   5.52586	0.000744667	   5.50114	0.000753124	   5.50114	   18.8281	
   5.35662	0.000773129	   5.32503	0.000740377	   5.37706	0.00074394	    5.3529	0.000752482	    5.3529	    18.812	
   5.20973	0.000772392	   5.17597	0.000739605	   5.22818	0.000743122	   5.20463	0.000751706	   5.20463	   18.7927	
   5.06319	0.000771501	   5.02816	0.000738719	   5.07871	0.000742218	   5.05668	0.000750813	   5.05668	   18.7703	
   4.91573	0.000770494	   4.88049	0.000737767	   4.92916	0.000741257	   4.90846	0.000749839	   4.90846	    18.746	
   4.76812	0.000769384	   4.73198	0.000736784	   4.77998	0.000740261	   4.76003	0.00074881	   4.76003	   18.7202	
   4.62011	0.000768217	   4.58313	0.00073581	   4.63113	0.000739251	   4.61145	0.000747759	   4.61145	    18.694	
   4.47289	0.000767069	    4.4337	0.000734883	   4.48279	0.000738253	   4.46313	0.000746735	   4.46313	   18.6684	
    4.3247	0.000765969	   4.28445	0.000734018	   4.33417	0.000737281	   4.31444	0.000745756	   4.31444	   18.6439	
   4.17533	0.000764937	   4.13557	0.000733225	    4.1848	0.000736338	   4.16523	0.000744834	   4.16523	   18.6208	
   4.02607	0.000764009	   3.98603	0.000732502	   4.03589	0.000735422	     4.016	0.000743977	     4.016	   18.5994	
   3.87687	0.000763197	   3.83661	0.000731807	   3.88668	0.000734522	   3.86672	0.000743175	   3.86672	   18.5794	
   3.72723	0.00076248	   3.68677	0.000731115	   3.73597	0.000733622	   3.71666	0.000742406	   3.71666	   18.5601	
   3.57764	0.000761828	   3.53702	0.000730406	     3.586	0.000732699	   3.56688	0.000741645	   3.56688	   18.5411	
   3.42855	0.000761212	   3.38635	0.000729633	    3.4355	0.000731734	    3.4168	0.000740859	    3.4168	   18.5215	
   3.27991	0.000760583	   3.23579	0.000728742	    3.2857	 0.0007307	   3.26713	0.000740008	   3.26713	   18.5002	
   3.13116	0.000759888	   3.08531	0.000727735	   3.13627	0.00072958	   3.11758	0.000739067	   3.11758	   18.4767	
   2.98132	0.000759106	   2.93439	0.000726626	   2.98596	0.000728365	   2.96722	0.000738032	   2.96722	   18.4508	
   2.83167	0.00075819	   2.78449	0.000725429	   2.83626	0.000727059	   2.81748	0.000736893	   2.81748	   18.4223	
   2.68145	0.000757104	   2.63504	0.000724168	   2.68614	0.000725668	   2.66754	0.000735646	   2.66754	   18.3912	
   2.53163	0.000755855	   2.48453	0.000722874	   2.53536	0.000724202	   2.51718	0.00073431	   2.51718	   18.3578	
   2.38121	0.000754458	    2.3335	0.000721591	   2.38445	0.000722678	   2.36638	0.000732909	   2.36638	   18.3227	
   2.23068	0.000752941	   2.18245	0.000720352	   2.23267	0.00072112	   2.21527	0.000731471	   2.21527	   18.2868	
   2.08052	0.00075134	   2.03113	0.000719181	   2.08103	0.00071954	   2.06422	0.00073002	   2.06422	   18.2505	
   1.93019	0.000749711	    1.8793	0.000718075	    1.9295	0.000717946	     1.913	0.000728577	     1.913	   18.2144	
   1.77969	0.000748096	   1.72674	0.00071701	   1.77686	0.000716338	    1.7611	0.000727148	    1.7611	   18.1787	
   1.62901	0.000746533	   1.57422	0.000715956	   1.62342	0.000714717	   1.60889	0.000725736	   1.60889	   18.1434	
   1.47695	0.000745062	   1.42196	0.00071488	   1.46923	0.000713087	   1.45605	0.000724343	   1.45605	   18.1086	
   1.32575	0.000743682	   1.27017	0.000713732	    1.3153	0.000711447	   1.30374	0.000722954	   1.30374	   18.0739	
   1.17342	0.000742384	   1.11878	0.000712459	   1.16088	0.000709797	   1.15103	0.000721547	   1.15103	   18.0387	
   1.02145	0.000741148	  0.967277	0.00071104	    1.0048	0.000708133	  0.997842	0.000720107	  0.997842	   18.0027	
  0.870782	0.000739938	   0.81564	0.000709462	  0.847895	0.00070646	  0.844772	0.00071862	  0.844772	   17.9655	
  0.719598	0.000738701	  0.665071	0.000707727	  0.690721	0.000704779	  0.691797	0.000717069	  0.691797	   17.9267	
  0.568162	0.000737388	  0.513779	0.000705854	  0.533536	0.000703073	  0.538493	0.000715438	  0.538493	    17.886	
  0.416476	0.000735962	  0.363726	0.000703866	  0.377062	0.000701327	  0.385755	0.000713718	  0.385755	    17.843	
  0.264543	0.000734389	  0.212872	0.000701802	   0.22052	0.00069953	  0.232645	0.000711907	  0.232645	   17.7977	
  0.112608	0.000732654	 0.0627006	0.000699718	 0.0648713	0.000697672	 0.0800599	0.000710015	 0.0800599	   17.7504	
 -0.039107	0.000730772	-0.0878258	0.000697666	-0.0889955	0.00069574	-0.0719761	0.000708059	-0.0719761	   17.7015	
 -0.191356	0.000728754	 -0.239661	0.000695683	 -0.242674	0.00069374	 -0.224564	0.000706059	 -0.224564	   17.6515	
 -0.343392	0.00072663	 -0.391757	0.000693795	  -0.39667	0.000691674	 -0.377273	0.000704033	 -0.377273	   17.6008	
  -0.49573	0.000724451	 -0.544111	0.000692016	  -0.55097	0.000689532	  -0.53027	  0.000702	  -0.53027	     17.55	
 -0.647883	0.000722259	 -0.696236	0.000690339	 -0.704595	0.000687312	 -0.682905	0.00069997	 -0.682905	   17.4993	
 -0.800117	0.000720091	 -0.849128	0.000688731	 -0.857613	0.000685054	 -0.835619	0.000697959	 -0.835619	    17.449	
 -0.951961	0.000717977	  -1.00298	0.000687149	  -1.01104	0.00068277	 -0.988661	0.000695965	 -0.988661	   17.3991	
  -1.10371	0.000715932	  -1.15604	0.00068554	  -1.16246	0.000680454	  -1.14074	0.000693975	  -1.14074	   17.3494	
  -1.25561	0.000713955	  -1.30839	0.00068385	  -1.31349	0.000678123	   -1.2925	0.000691976	   -1.2925	   17.2994	
  -1.40649	0.000712026	   -1.4601	0.000682012	  -1.46513	0.000675794	  -1.44391	0.000689944	  -1.44391	   17.2486	
  -1.55739	0.000710116	  -1.61027	0.000680006	  -1.61616	0.000673466	  -1.59461	0.000687862	  -1.59461	   17.1966	
  -1.70834	0.000708187	  -1.76001	0.000677806	  -1.76544	0.000671107	   -1.7446	 0.0006857	   -1.7446	   17.1425	
  -1.85911	0.000706201	   -1.9089	0.000675395	  -1.91337	0.00066873	  -1.89379	0.000683442	  -1.89379	    17.086	
  -2.01045	0.000704126	  -2.05701	0.000672824	  -2.06321	0.000666324	  -2.04356	0.000681091	  -2.04356	   17.0273	
  -2.16066	0.000701931	  -2.20421	0.000670151	  -2.21435	0.000663871	  -2.19307	0.000678651	  -2.19307	   16.9663	
  -2.31152	0.000699602	  -2.35132	0.000667412	  -2.36431	0.000661392	  -2.34238	0.000676135	  -2.34238	   16.9034	
  -2.46326	0.000697138	  -2.49885	0.000664654	  -2.51537	0.000658867	  -2.49249	0.000673553	  -2.49249	   16.8388	
  -2.61461	0.000694551	  -2.64632	0.000661939	  -2.66769	0.000656285	  -2.64287	0.000670925	  -2.64287	   16.7731	
  -2.76586	0.000691867	   -2.7933	0.000659311	  -2.81928	0.000653642	  -2.79281	0.000668273	  -2.79281	   16.7068	
  -2.91657	0.000689118	   -2.9408	0.00065678	  -2.96972	0.000650941	  -2.94236	0.000665613	  -2.94236	   16.6403	
  -3.06702	0.000686342	  -3.08737	0.000654342	  -3.11961	0.000648197	  -3.09134	0.00066296	  -3.09134	    16.574	
  -3.21751	0.00068357	  -3.23505	0.000651983	   -3.2719	0.00064539	  -3.24149	0.000660314	  -3.24149	   16.5079	
  -3.36685	0.000680824	  -3.38426	0.000649656	  -3.42305	0.00064253	  -3.39139	0.00065767	  -3.39139	   16.4417	
  -3.51684	0.000678123	  -3.53273	0.000647306	  -3.57125	0.000639636	  -3.54027	0.000655022	  -3.54027	   16.3755	
  -3.66672	0.00067547	  -3.68031	0.000644901	  -3.71963	0.000636682	  -3.68889	0.000652351	  -3.68889	   16.3088	
  -3.81629	0.00067285	  -3.82855	 0.0006424	  -3.86869	0.00063368	  -3.83784	0.000649643	  -3.83784	   16.2411	
  -3.96535	0.000670245	   -3.9779	0.000639763	  -4.01697	0.000630641	  -3.98674	0.000646883	  -3.98674	   16.1721	
  -4.11397	0.000667625	  -4.12686	0.000636978	   -4.1643	0.000627572	  -4.13505	0.000644058	  -4.13505	   16.1015	
  -4.26222	0.000664959	    -4.275	0.000634057	    -4.312	0.000624475	  -4.28307	0.000641163	  -4.28307	   16.0291	
  -4.41062	0.000662216	   -4.4241	0.000631006	  -4.46078	0.00062136	  -4.43183	0.000638194	  -4.43183	   15.9549	
    -4.558	0.000659374	   -4.5729	0.000627853	  -4.60939	0.000618238	   -4.5801	0.000635155	   -4.5801	   15.8789	
  -4.70518	0.000656419	   -4.7205	0.000624649	  -4.75739	0.000615103	  -4.72769	0.000632057	  -4.72769	   15.8014	
  -4.85196	0.000653346	  -4.86845	0.000621424	  -4.90582	0.00061196	  -4.87541	0.00062891	  -4.87541	   15.7227	
  -4.99866	0.00065017	  -5.01629	0.00061821	  -5.05418	0.000608812	  -5.02304	0.00062573	  -5.02304	   15.6433	
  -5.14555	0.000646908	  -5.16428	0.000615039	  -5.20275	0.000605644	  -5.17086	0.00062253	  -5.17086	   15.5633	
  -5.29193	0.000643582	  -5.31172	0.000611918	  -5.35082	0.000602448	  -5.31816	0.000619316	  -5.31816	   15.4829	
  -5.43907	0.000640227	  -5.45844	0.000608845	   -5.4975	0.000599214	    -5.465	0.000616095	    -5.465	   15.4024	
  -5.58622	0.000636868	  -5.60526	0.00060581	  -5.64436	0.00059593	  -5.61195	0.000612869	  -5.61195	   15.3217	
  -5.73246	0.00063353	  -5.75268	0.000602794	  -5.79119	0.000592584	  -5.75878	0.000609636	  -5.75878	   15.2409	
  -5.87885	0.000630223	  -5.89972	0.000599768	  -5.93681	0.000589169	  -5.90513	0.000606387	  -5.90513	   15.1597	
  -6.02493	0.000626949	  -6.04716	0.000596704	  -6.08305	0.000585683	  -6.05171	0.000603112	  -6.05171	   15.0778	
  -6.17027	0.000623699	   -6.1938	0.000593578	   -6.2294	0.00058213	  -6.19783	0.000599803	  -6.19783	   14.9951	
  -6.31546	0.000620454	  -6.34022	0.000590362	  -6.37613	0.000578519	  -6.34394	0.000596445	  -6.34394	   14.9111	
  -6.45983	0.000617188	  -6.48503	0.000587047	  -6.52133	0.000574871	  -6.48873	0.000593035	  -6.48873	   14.8259	
   -6.6037	0.000613874	  -6.62934	0.000583638	   -6.6661	0.000571197	  -6.63305	0.00058957	  -6.63305	   14.7392	
  -6.74814	0.000610488	  -6.77421	0.000580138	  -6.81149	0.000567513	  -6.77795	0.000586046	  -6.77795	   14.6512	
  -6.89168	0.000607018	  -6.91915	0.000576566	  -6.95652	0.000563834	  -6.92245	0.000582473	  -6.92245	   14.5618	
  -7.03492	0.000603449	  -7.06442	0.000572939	  -7.10125	0.000560164	  -7.06686	0.00057885	  -7.06686	   14.4713	
  -7.17746	0.000599779	   -7.2098	0.000569283	  -7.24479	0.000556501	  -7.21068	0.000575188	  -7.21068	   14.3797	
  -7.32106	0.00059602	  -7.35531	0.00056561	  -7.38798	0.000552837	  -7.35478	0.000571489	  -7.35478	   14.2872	
  -7.46449	0.00059219	   -7.5005	0.000561942	  -7.53163	0.000549158	  -7.49887	0.000567763	  -7.49887	   14.1941	
  -7.60804	0.000588316	  -7.64568	0.000558295	  -7.67405	0.000545454	  -7.64259	0.000564021	  -7.64259	   14.1005	
  -7.75127	0.000584416	   -7.7904	0.00055465	  -7.81707	0.000541705	  -7.78624	0.000560257	  -7.78624	   14.0064	
  -7.89352	0.000580516	  -7.93448	0.000551014	  -7.95972	0.000537905	  -7.92924	0.000556478	  -7.92924	    13.912	
  -8.03611	0.000576634	  -8.07732	0.000547383	  -8.10281	0.000534041	  -8.07208	0.000552686	  -8.07208	   13.8172	
  -8.17787	0.000572778	  -8.21975	0.00054373	  -8.24561	0.000530107	  -8.21441	0.000548872	  -8.21441	   13.7218	
  -8.31914	0.000568949	   -8.3609	0.00054004	  -8.38795	0.00052611	    -8.356	0.000545033	    -8.356	   13.6258	
  -8.46073	0.000565139	  -8.50141	0.000536298	  -8.52968	0.000522057	  -8.49727	0.000541164	  -8.49727	   13.5291	
  -8.60243	0.000561332	  -8.64209	0.000532494	   -8.6716	0.000517959	  -8.63871	0.000537262	  -8.63871	   13.4315	
  -8.74403	0.000557512	  -8.78226	0.000528608	  -8.81304	0.000513833	  -8.77978	0.000533318	  -8.77978	   13.3329	
   -8.8856	0.000553654	  -8.92249	0.000524634	  -8.95384	0.000509689	  -8.92064	0.000529326	  -8.92064	   13.2331	
  -9.02718	0.000549739	  -9.06235	0.000520586	  -9.09481	0.000505539	  -9.06145	0.000525288	  -9.06145	   13.1322	
  -9.16857	0.000545747	  -9.20217	0.000516464	  -9.23576	0.000501388	  -9.20217	 0.0005212	  -9.20217	     13.03	
  -9.30865	0.000541668	  -9.34151	0.000512281	  -9.37626	0.00049724	  -9.34214	0.000517063	  -9.34214	   12.9266	
  -9.44804	 0.0005375	  -9.48023	0.000508072	  -9.51566	0.000493098	  -9.48131	0.00051289	  -9.48131	   12.8222	
  -9.58757	0.000533246	  -9.61844	0.000503853	  -9.65532	0.000488954	  -9.62044	0.000508685	  -9.62044	   12.7171	
   -9.7261	0.000528927	  -9.75623	0.000499641	  -9.79503	0.000484806	  -9.75912	0.000504458	  -9.75912	   12.6115	
  -9.86471	0.000524559	  -9.89418	0.000495452	  -9.93339	0.000480645	  -9.89743	0.000500219	  -9.89743	   12.5055	
   -10.003	0.000520165	  -10.0319	0.000491293	  -10.0715	0.000476461	  -10.0355	0.000495973	  -10.0355	   12.3993	
  -10.1398	0.00051577	  -10.1696	0.000487155	  -10.2091	0.000472245	  -10.1728	0.000491723	  -10.1728	   12.2931	
  -10.2765	0.000511388	  -10.3062	0.000483024	  -10.3461	0.000467984	  -10.3096	0.000487465	  -10.3096	   12.1866	
  -10.4125	0.000507032	  -10.4435	0.000478893	  -10.4831	0.000463681	  -10.4464	0.000483202	  -10.4464	     12.08	
  -10.5481	0.000502706	  -10.5799	0.000474731	  -10.6194	0.000459324	  -10.5825	0.00047892	  -10.5825	    11.973	
  -10.6837	0.000498402	  -10.7155	0.000470514	  -10.7549	0.000454891	   -10.718	0.000474602	   -10.718	   11.8651	
  -10.8181	0.000494113	  -10.8507	0.000466234	  -10.8901	0.000450391	  -10.8529	0.000470246	  -10.8529	   11.7561	
  -10.9515	0.000489817	  -10.9852	0.000461875	  -11.0248	0.000445855	  -10.9872	0.000465849	  -10.9872	   11.6462	
  -11.0845	0.000485494	  -11.1201	0.000457433	  -11.1598	0.000441267	  -11.1215	0.000461398	  -11.1215	    11.535	
  -11.2177	0.000481121	   -11.254	0.000452918	  -11.2945	0.00043664	  -11.2554	0.000456893	  -11.2554	   11.4223	
  -11.3512	0.00047667	  -11.3889	0.000448341	  -11.4294	0.000432006	  -11.3898	0.000452339	  -11.3898	   11.3085	
  -11.4841	0.000472108	  -11.5235	0.000443725	  -11.5637	0.000427387	  -11.5237	0.00044774	  -11.5237	   11.1935	
  -11.6171	0.00046745	  -11.6574	0.000439108	  -11.6966	0.000422786	  -11.6571	0.000443114	  -11.6571	   11.0779	
  -11.7502	0.000462723	  -11.7908	0.000434474	  -11.8297	0.000418216	  -11.7902	0.000438471	  -11.7902	   10.9618	
  -11.8819	0.000457925	  -11.9227	0.000429827	  -11.9622	0.000413685	  -11.9223	0.000433812	  -11.9223	   10.8453	
  -12.0139	0.000453082	  -12.0545	0.000425213	  -12.0941	0.00040917	  -12.0542	0.000429155	  -12.0542	   10.7289	
  -12.1453	0.000448242	  -12.1863	0.00042064	  -12.2254	0.000404669	  -12.1857	0.000424517	  -12.1857	   10.6129	
  -12.2757	0.000443437	  -12.3164	0.000416065	   -12.355	0.000400165	  -12.3157	0.000419889	  -12.3157	   10.4972	
  -12.4063	0.000438692	  -12.4457	0.000411504	   -12.485	0.000395618	  -12.4456	0.000415272	  -12.4456	   10.3818	
  -12.5358	0.000434013	   -12.574	0.000406981	   -12.614	0.000390994	  -12.5746	0.000410663	  -12.5746	   10.2666	
  -12.6652	0.000429395	  -12.7009	0.000402468	  -12.7422	0.000386278	  -12.7028	0.000406047	  -12.7028	   10.1512	
  -12.7937	0.000424816	  -12.8277	0.000397965	  -12.8695	0.000381456	  -12.8303	0.000401412	  -12.8303	   10.0353	
  -12.9213	0.000420256	  -12.9534	0.000393478	  -12.9962	0.000376541	   -12.957	0.000396758	   -12.957	   9.91896	
  -13.0488	0.000415693	  -13.0783	0.000388986	  -13.1221	0.000371546	  -13.0831	0.000392075	  -13.0831	   9.80187	
  -13.1752	0.000411075	  -13.2029	0.000384447	  -13.2477	0.000366471	  -13.2086	0.000387331	  -13.2086	   9.68327	
  -13.3023	0.000406347	  -13.3268	0.000379891	  -13.3726	0.000361365	  -13.3339	0.000382534	  -13.3339	   9.56335	
   -13.429	0.000401495	  -13.4502	0.000375327	   -13.497	0.000356269	  -13.4587	0.000377697	  -13.4587	   9.44242	
  -13.5547	0.000396503	  -13.5729	0.000370697	  -13.6214	0.000351191	   -13.583	0.000372797	   -13.583	   9.31992	
  -13.6799	0.00039137	  -13.6954	0.000366008	  -13.7449	0.000346131	  -13.7067	0.000367836	  -13.7067	   9.19591	
  -13.8053	0.000386118	  -13.8173	0.000361279	  -13.8677	0.000341073	  -13.8301	0.000362823	  -13.8301	   9.07058	
  -13.9301	0.000380782	  -13.9376	0.000356503	  -13.9896	0.000336037	  -13.9524	0.000357774	  -13.9524	   8.94435	
  -14.0537	0.000375409	  -14.0572	0.000351677	  -14.1112	0.000331025	   -14.074	0.000352704	   -14.074	    8.8176	
  -14.1763	0.000370045	  -14.1768	0.000346821	  -14.2319	0.000326042	   -14.195	0.000347636	   -14.195	    8.6909	
  -14.2985	0.000364745	  -14.2959	0.000341941	  -14.3522	0.000321074	  -14.3156	0.000342587	  -14.3156	   8.56467	
  -14.4197	0.000359543	  -14.4151	0.000337051	  -14.4725	0.000316099	  -14.4358	0.000337564	  -14.4358	   8.43911	
    -14.54	0.000354453	  -14.5337	0.000332176	  -14.5925	0.000311144	  -14.5554	0.000332591	  -14.5554	   8.31478	
  -14.6601	0.000349486	  -14.6523	0.000327332	  -14.7118	0.000306218	  -14.6747	0.000327679	  -14.6747	   8.19196	
  -14.7796	0.000344628	  -14.7705	 0.0003225	  -14.8313	0.000301302	  -14.7938	0.00032281	  -14.7938	   8.07024	
  -14.8989	0.000339843	  -14.8874	0.000317671	  -14.9492	0.000296396	  -14.9118	0.00031797	  -14.9118	   7.94925	
   -15.017	0.000335083	  -15.0041	0.000312866	  -15.0677	0.000291487	  -15.0296	0.000313145	  -15.0296	   7.82863	
  -15.1345	0.000330296	    -15.12	0.000308062	  -15.1847	0.000286575	  -15.1464	0.000308311	  -15.1464	   7.70777	
  -15.2517	0.000325437	  -15.2359	0.000303248	  -15.3009	0.000281657	  -15.2628	0.000303447	  -15.2628	   7.58618	
  -15.3677	0.00032046	  -15.3512	0.000298418	  -15.4166	0.000276715	  -15.3785	0.000298531	  -15.3785	   7.46327	
  -15.4834	0.000315335	  -15.4651	0.000293554	  -15.5315	0.000271724	  -15.4933	0.000293537	  -15.4933	   7.33843	
  -15.5987	0.000310069	  -15.5789	0.000288649	  -15.6468	0.000266668	  -15.6082	0.000288462	  -15.6082	   7.21154	
  -15.7139	0.000304668	  -15.6929	0.000283706	  -15.7614	0.00026156	  -15.7227	0.000283311	  -15.7227	   7.08278	
  -15.8281	0.000299162	  -15.8056	0.000278728	  -15.8756	0.000256402	  -15.8364	0.000278097	  -15.8364	   6.95244	
  -15.9415	0.000293597	  -15.9178	0.000273708	  -15.9892	0.000251193	  -15.9495	0.000272833	  -15.9495	   6.82082	
  -16.0538	0.000288019	  -16.0297	0.00026865	  -16.1024	0.000245944	  -16.0619	0.000267538	  -16.0619	   6.68844	
  -16.1654	0.000282471	  -16.1411	0.000263575	   -16.215	0.00024068	  -16.1739	0.000262242	  -16.1739	   6.55604	
  -16.2762	0.000276984	  -16.2512	0.00025849	  -16.3261	0.000235421	  -16.2845	0.000256965	  -16.2845	   6.42412	
   -16.386	0.000271589	  -16.3605	0.000253395	  -16.4364	0.000230188	  -16.3943	0.000251724	  -16.3943	    6.2931	
  -16.4951	0.000266294	  -16.4701	0.000248308	  -16.5462	0.000224999	  -16.5038	0.000246534	  -16.5038	   6.16334	
  -16.6032	0.000261077	  -16.5783	0.000243231	  -16.6545	0.000219858	   -16.612	0.000241389	   -16.612	   6.03472	
  -16.7116	0.00025593	  -16.6862	0.000238167	  -16.7625	0.000214763	  -16.7201	0.000236286	  -16.7201	   5.90716	
  -16.8187	0.00025082	  -16.7941	0.000233115	  -16.8695	0.000209714	  -16.8274	0.000231216	  -16.8274	   5.78041	
  -16.9255	0.000245707	  -16.9004	0.000228072	  -16.9756	0.000204701	  -16.9338	0.00022616	  -16.9338	     5.654	
  -17.0321	0.000240556	  -17.0056	0.000223027	  -17.0817	0.000199705	  -17.0398	0.000221096	  -17.0398	    5.5274	
   -17.137	0.000235334	  -17.1102	0.000217972	   -17.187	0.000194703	  -17.1447	0.000216003	  -17.1447	   5.40007	
  -17.2411	0.000230021	  -17.2143	0.000212907	  -17.2917	0.000189683	   -17.249	0.00021087	   -17.249	   5.27176	
  -17.3453	0.000224605	  -17.3178	0.000207814	  -17.3958	0.000184633	   -17.353	0.000205684	   -17.353	    5.1421	
  -17.4491	0.000219092	  -17.4199	0.000202678	   -17.499	0.000179542	   -17.456	0.000200437	   -17.456	   5.01092	
  -17.5518	 0.0002135	  -17.5211	0.000197505	  -17.6023	0.000174407	  -17.5584	0.000195137	  -17.5584	   4.87842	
  -17.6537	0.000207856	  -17.6218	0.000192292	  -17.7042	0.000169223	  -17.6599	0.00018979	  -17.6599	   4.74476	
   -17.754	0.000202199	  -17.7223	0.000187044	  -17.8046	0.000164004	  -17.7603	0.000184415	  -17.7603	   4.61039	
  -17.8531	0.000196568	  -17.8223	0.00018177	  -17.9047	0.000158764	    -17.86	0.000179034	    -17.86	   4.47586	
  -17.9511	0.000190993	   -17.921	0.000176485	  -18.0033	0.000153512	  -17.9585	0.000173663	  -17.9585	   4.34158	
  -18.0496	 0.0001855	  -18.0189	 0.0001712	  -18.1011	0.00014826	  -18.0565	0.00016832	  -18.0565	   4.20801	
  -18.1476	0.000180099	  -18.1169	0.000165929	  -18.1985	0.000143019	  -18.1543	0.000163016	  -18.1543	   4.07539	
  -18.2446	0.000174786	  -18.2128	0.000160687	  -18.2953	0.000137802	  -18.2509	0.000157758	  -18.2509	   3.94396	
  -18.3416	0.000169545	  -18.3089	0.000155477	  -18.3916	0.000132616	  -18.3474	0.000152546	  -18.3474	   3.81364	
  -18.4379	0.000164353	  -18.4046	0.000150295	  -18.4868	0.000127452	  -18.4431	0.000147367	  -18.4431	   3.68416	
  -18.5333	0.000159177	  -18.4997	0.000145141	  -18.5814	0.000122314	  -18.5381	0.000142211	  -18.5381	   3.55527	
  -18.6279	0.000153962	  -18.5942	0.000140006	  -18.6753	0.00011719	  -18.6324	0.000137053	  -18.6324	   3.42632	
  -18.7218	0.000148663	  -18.6868	0.000134875	  -18.7681	0.000112071	  -18.7256	0.00013187	  -18.7256	   3.29674	
  -18.8154	0.000143273	  -18.7798	0.00012974	  -18.8604	0.000106948	  -18.8185	0.000126653	  -18.8185	   3.16633	
  -18.9079	0.000137811	   -18.872	0.000124586	  -18.9518	0.000101803	  -18.9106	 0.0001214	  -18.9106	   3.03501	
  -18.9995	0.000132269	  -18.9632	0.000119409	  -19.0421	9.66311e-05	  -19.0016	0.000116103	  -19.0016	   2.90257	
  -19.0911	0.000126661	  -19.0538	0.000114205	   -19.132	9.14264e-05	  -19.0923	0.000110764	  -19.0923	    2.7691	
  -19.1813	0.000121017	  -19.1434	0.000108975	  -19.2214	8.61893e-05	   -19.182	0.000105394	   -19.182	   2.63485	
  -19.2703	0.000115388	  -19.2327	0.000103725	  -19.3105	8.09245e-05	  -19.2712	0.000100013	  -19.2712	   2.50032	
  -19.3577	0.00010981	  -19.3215	9.84604e-05	  -19.3986	7.56364e-05	  -19.3593	9.46355e-05	  -19.3593	   2.36589	
  -19.4442	0.000104311	  -19.4089	9.31985e-05	  -19.4853	7.03425e-05	  -19.4461	8.9284e-05	  -19.4461	    2.2321	
  -19.5297	9.89111e-05	  -19.4968	8.79485e-05	  -19.5725	6.50525e-05	   -19.533	8.39707e-05	   -19.533	   2.09927	
  -19.6149	9.36117e-05	  -19.5841	8.27165e-05	  -19.6591	5.97788e-05	  -19.6194	7.87023e-05	  -19.6194	   1.96756	
  -19.7001	8.84158e-05	  -19.6706	7.7514e-05	  -19.7458	5.45388e-05	  -19.7055	7.34895e-05	  -19.7055	   1.83724	
  -19.7846	8.33124e-05	  -19.7569	7.23412e-05	  -19.8317	4.93313e-05	  -19.7911	6.83283e-05	  -19.7911	   1.70821	
  -19.8693	7.82529e-05	  -19.8421	6.72002e-05	  -19.9158	4.41619e-05	  -19.8758	6.3205e-05	  -19.8758	   1.58012	
  -19.9533	7.31857e-05	  -19.9272	6.2088e-05	  -19.9994	3.90302e-05	    -19.96	5.81013e-05	    -19.96	   1.45253	
   -20.037	6.80654e-05	  -20.0107	5.6998e-05	  -20.0822	3.3926e-05	  -20.0433	5.29965e-05	  -20.0433	   1.32491	
    -20.12	6.28582e-05	  -20.0937	5.19251e-05	  -20.1636	2.8842e-05	  -20.1258	4.78751e-05	  -20.1258	   1.19688	
  -20.2017	5.75301e-05	  -20.1763	4.68543e-05	  -20.2447	2.37629e-05	  -20.2075	4.27157e-05	  -20.2075	   1.06789	
  -20.2827	5.20612e-05	  -20.2574	4.17819e-05	  -20.3245	1.86778e-05	  -20.2882	3.7507e-05	  -20.2882	  0.937675	
  -20.3628	4.64606e-05	  -20.3362	3.67002e-05	  -20.4042	1.35756e-05	  -20.3678	3.22455e-05	  -20.3678	  0.806137	
  -20.4417	4.07395e-05	  -20.4149	3.15983e-05	  -20.4838	8.4477e-06	  -20.4468	2.69285e-05	  -20.4468	  0.673213	
   -20.519	3.49312e-05	  -20.4932	2.64793e-05	  -20.5623	3.29373e-06	  -20.5249	2.15681e-05	  -20.5249	  0.539202	
  -20.5956	2.90824e-05	  -20.5716	2.13431e-05	   -20.641	-1.88955e-06	  -20.6027	1.61787e-05	  -20.6027	  0.404466	
  -20.6723	2.32312e-05	  -20.6496	1.61959e-05	  -20.7193	-7.094e-06	  -20.6804	1.07777e-05	  -20.6804	  0.269443	
  -20.7479	1.7431e-05	  -20.7273	1.10478e-05	  -20.7972	-1.23068e-05	  -20.7574	5.39067e-06	  -20.7574	  0.134767	
  -20.8226	1.17386e-05	  -20.8032	5.90628e-06	  -20.8748	-1.75192e-05	  -20.8335	4.18958e-08	  -20.8335	0.00104739	
  -20.8966	6.1944e-06	   -20.877	7.81544e-07	  -20.9509	-2.2717e-05	  -20.9082	-5.24701e-06	  -20.9082	 -0.131175	
  -20.9709	8.25259e-07	  -20.9504	-4.32088e-06	  -21.0267	-2.78886e-05	  -20.9827	-1.04614e-05	  -20.9827	 -0.261535	
  -21.0441	-4.36436e-06	  -21.0221	-9.39332e-06	  -21.1015	-3.30223e-05	  -21.0559	-1.55933e-05	  -21.0559	 -0.389833	
  -21.1172	-9.39613e-06	  -21.0931	-1.44264e-05	  -21.1753	-3.81146e-05	  -21.1285	-2.06457e-05	  -21.1285	 -0.516142	
  -21.1889	-1.43089e-05	  -21.1637	-1.94344e-05	  -21.2491	-4.31667e-05	  -21.2005	-2.56367e-05	  -21.2005	 -0.640917	
  -21.2596	-1.91368e-05	  -21.2337	-2.44134e-05	  -21.3219	-4.81756e-05	  -21.2717	-3.05753e-05	  -21.2717	 -0.764382	
    -21.33	-2.39534e-05	  -21.3028	-2.93732e-05	   -21.393	-5.31518e-05	   -21.342	-3.54928e-05	   -21.342	  -0.88732	
  -21.3992	-2.88335e-05	  -21.3711	-3.43229e-05	   -21.463	-5.81058e-05	  -21.4111	-4.04207e-05	  -21.4111	  -1.01052	
  -21.4667	-3.38077e-05	  -21.4383	-3.92638e-05	  -21.5321	-6.30444e-05	   -21.479	-4.5372e-05	   -21.479	   -1.1343	
  -21.5319	-3.88968e-05	  -21.5058	-4.42091e-05	  -21.6006	-6.79828e-05	  -21.5461	-5.03629e-05	  -21.5461	  -1.25907	
  -21.5958	-4.41008e-05	  -21.5718	-4.91619e-05	  -21.6675	-7.29294e-05	  -21.6117	-5.53974e-05	  -21.6117	  -1.38493	
  -21.6589	-4.9432e-05	  -21.6378	-5.41305e-05	  -21.7334	-7.78919e-05	  -21.6767	-6.04848e-05	  -21.6767	  -1.51212	
  -21.7203	-5.4873e-05	  -21.7021	-5.91193e-05	  -21.7991	-8.28721e-05	  -21.7405	-6.56215e-05	  -21.7405	  -1.64054	
    -21.78	-6.03625e-05	  -21.7653	-6.41284e-05	  -21.8627	-8.78681e-05	  -21.8027	-7.07864e-05	  -21.8027	  -1.76966	
  -21.8385	-6.5873e-05	  -21.8281	-6.91592e-05	  -21.9259	-9.28768e-05	  -21.8641	-7.59697e-05	  -21.8641	  -1.89924	
  -21.8951	-7.1346e-05	  -21.8896	-7.41948e-05	  -21.9875	-9.78868e-05	  -21.9241	-8.11426e-05	  -21.9241	  -2.02856	
  -21.9503	-7.67446e-05	  -21.9504	-7.92159e-05	   -22.048	-0.000102887	  -21.9829	-8.62826e-05	  -21.9829	  -2.15707	
  -22.0051	-8.20557e-05	  -22.0111	-8.42089e-05	  -22.1075	-0.000107865	  -22.0413	-9.13767e-05	  -22.0413	  -2.28442	
  -22.0607	-8.72389e-05	  -22.0709	-8.91552e-05	  -22.1661	-0.000112807	  -22.0992	-9.64005e-05	  -22.0992	  -2.41001	
  -22.1144	-9.23054e-05	    -22.13	-9.40434e-05	  -22.2231	-0.000117708	  -22.1559	-0.000101352	  -22.1559	  -2.53381	
  -22.1659	-9.72634e-05	  -22.1886	-9.88638e-05	  -22.2783	-0.000122559	  -22.2109	-0.000106229	  -22.2109	  -2.65572	
   -22.218	-0.000102147	  -22.2468	-0.000103626	  -22.3332	-0.00012736	   -22.266	-0.000111044	   -22.266	   -2.7761	
  -22.2704	-0.000106976	   -22.305	-0.000108352	  -22.3869	-0.000132119	  -22.3208	-0.000115816	  -22.3208	  -2.89539	
  -22.3226	-0.00011177	  -22.3619	-0.000113069	  -22.4391	-0.00013684	  -22.3746	-0.00012056	  -22.3746	  -3.01399	
  -22.3734	-0.000116562	  -22.4185	-0.000117811	  -22.4907	-0.00014154	  -22.4275	-0.000125304	  -22.4275	  -3.13261	
  -22.4247	-0.000121376	  -22.4747	-0.000122587	  -22.5417	-0.000146231	  -22.4804	-0.000130065	  -22.4804	  -3.25163	
  -22.4765	-0.000126247	  -22.5295	-0.000127392	  -22.5918	-0.000150924	  -22.5326	-0.000134854	  -22.5326	  -3.37136	
  -22.5275	-0.000131195	  -22.5841	-0.00013222	  -22.6406	-0.00015563	  -22.5841	-0.000139682	  -22.5841	  -3.49204	
  -22.5766	-0.000136206	  -22.6387	-0.000137069	  -22.6891	-0.000160348	  -22.6348	-0.000144541	  -22.6348	  -3.61352	
  -22.6266	-0.00014128	  -22.6929	-0.000141924	  -22.7372	-0.000165084	  -22.6856	-0.000149429	  -22.6856	  -3.73573	
  -22.6759	-0.000146396	   -22.747	-0.000146751	  -22.7846	-0.000169832	  -22.7359	-0.000154326	  -22.7359	  -3.85815	
  -22.7237	-0.000151522	  -22.7998	-0.000151534	  -22.8307	-0.000174582	  -22.7848	-0.000159212	  -22.7848	  -3.98031	
  -22.7703	-0.000156633	  -22.8513	-0.000156272	  -22.8766	-0.000179327	  -22.8327	-0.000164077	  -22.8327	  -4.10193	
  -22.8159	-0.000161699	  -22.9021	-0.000160961	   -22.921	-0.000184051	  -22.8797	-0.000168904	  -22.8797	  -4.22259	
  -22.8611	-0.000166711	  -22.9515	-0.000165603	   -22.964	-0.000188744	  -22.9255	-0.000173686	  -22.9255	  -4.34215	
  -22.9045	-0.000171632	  -22.9985	-0.000170207	  -23.0076	-0.000193396	  -22.9702	-0.000178411	  -22.9702	  -4.46029	
  -22.9469	-0.000176453	  -23.0427	-0.000174789	  -23.0496	-0.000197999	  -23.0131	-0.00018308	  -23.0131	  -4.57701	
   -22.989	-0.000181188	  -23.0861	-0.000179339	  -23.0914	-0.000202555	  -23.0555	-0.000187694	  -23.0555	  -4.69235	
  -23.0308	-0.000185838	  -23.1286	-0.000183891	  -23.1329	-0.000207063	  -23.0974	-0.000192264	  -23.0974	  -4.80659	
  -23.0721	-0.00019043	   -23.168	-0.00018848	  -23.1732	-0.000211531	  -23.1378	-0.000196814	  -23.1378	  -4.92035	
  -23.1126	-0.000194993	  -23.2075	-0.000193094	  -23.2129	-0.00021597	  -23.1777	-0.000201352	  -23.1777	  -5.03381	
  -23.1523	-0.000199558	  -23.2455	-0.00019774	  -23.2507	-0.000220386	  -23.2162	-0.000205895	  -23.2162	  -5.14736	
  -23.1911	-0.000204155	  -23.2819	-0.000202425	  -23.2873	-0.000224796	  -23.2534	-0.000210459	  -23.2534	  -5.26147	
  -23.2284	-0.000208804	  -23.3167	-0.00020715	  -23.3229	-0.000229204	  -23.2894	-0.000215053	  -23.2894	  -5.37632	
  -23.2642	-0.00021352	  -23.3501	-0.000211896	  -23.3579	-0.000233618	  -23.3241	-0.000219678	  -23.3241	  -5.49195	
  -23.2994	-0.0002183	  -23.3825	-0.000216637	  -23.3924	-0.000238043	  -23.3581	-0.000224327	  -23.3581	  -5.60817	
   -23.333	-0.00022313	  -23.4133	-0.000221388	  -23.4254	-0.000242476	  -23.3905	-0.000228998	  -23.3905	  -5.72495	
  -23.3664	-0.000227996	  -23.4426	-0.000226123	  -23.4579	-0.000246914	  -23.4223	-0.000233678	  -23.4223	  -5.84194	
  -23.3989	-0.000232863	  -23.4726	-0.000230818	  -23.4895	-0.00025135	  -23.4537	-0.000238344	  -23.4537	  -5.95859	
  -23.4302	-0.000237706	   -23.502	-0.000235469	    -23.52	-0.000255773	  -23.4841	-0.000242983	  -23.4841	  -6.07457	
  -23.4613	-0.000242498	   -23.529	-0.000240066	  -23.5497	-0.000260174	  -23.5133	-0.000247579	  -23.5133	  -6.18949	
   -23.492	-0.000247213	  -23.5544	-0.000244598	  -23.5785	-0.000264537	  -23.5416	-0.000252116	  -23.5416	   -6.3029	
  -23.5219	-0.00025184	  -23.5813	-0.000249058	  -23.6061	-0.000268857	  -23.5697	-0.000256585	  -23.5697	  -6.41462	
  -23.5499	-0.00025638	  -23.6093	-0.000253462	  -23.6335	-0.000273125	  -23.5976	-0.000260989	  -23.5976	  -6.52472	
  -23.5766	-0.000260844	  -23.6344	-0.000257823	  -23.6597	-0.00027734	  -23.6236	-0.000265335	  -23.6236	  -6.63339	
  -23.6029	-0.000265249	  -23.6586	-0.00026215	   -23.685	-0.000281501	  -23.6488	-0.000269633	  -23.6488	  -6.74083	
  -23.6279	-0.000269619	  -23.6839	-0.000266485	  -23.7095	-0.000285579	  -23.6738	-0.000273894	  -23.6738	  -6.84736	
  -23.6518	-0.000273987	  -23.7081	-0.00027084	  -23.7324	-0.000289613	  -23.6974	-0.000278147	  -23.6974	  -6.95367	
  -23.6749	-0.000278375	  -23.7299	-0.000275223	  -23.7545	-0.000293634	  -23.7198	-0.00028241	  -23.7198	  -7.06026	
  -23.6976	-0.000282796	  -23.7506	-0.000279654	  -23.7758	-0.000297649	  -23.7413	-0.000286699	  -23.7413	  -7.16749	
  -23.7195	-0.000287264	  -23.7716	-0.000284138	  -23.7958	-0.000301684	  -23.7623	-0.000291029	  -23.7623	  -7.27572	
  -23.7402	-0.000291778	  -23.7921	-0.000288673	  -23.8164	-0.000305757	  -23.7829	-0.000295403	  -23.7829	  -7.38507	
  -23.7591	-0.000296332	  -23.8101	-0.00029324	  -23.8361	-0.000309915	  -23.8018	-0.000299829	  -23.8018	  -7.49573	
  -23.7782	-0.000300914	  -23.8274	-0.000297818	  -23.8544	-0.000314154	    -23.82	-0.000304295	    -23.82	  -7.60738	
  -23.7955	-0.000305503	  -23.8443	-0.000302379	  -23.8712	-0.000318461	   -23.837	-0.000308781	   -23.837	  -7.71952	
  -23.8121	-0.000310083	  -23.8606	-0.000306894	  -23.8868	-0.000322827	  -23.8531	-0.000313268	  -23.8531	   -7.8317	
  -23.8276	-0.000314635	  -23.8758	-0.000311345	  -23.9023	-0.000327205	  -23.8686	-0.000317729	  -23.8686	  -7.94321	
   -23.843	-0.000319149	  -23.8888	-0.000315713	  -23.9162	-0.00033157	  -23.8827	-0.000322144	  -23.8827	   -8.0536	
  -23.8573	-0.000323614	  -23.9017	-0.000319987	  -23.9301	-0.000335903	  -23.8964	-0.000326501	  -23.8964	  -8.16254	
  -23.8695	-0.000328025	  -23.9135	-0.000324178	  -23.9429	-0.000340154	  -23.9087	-0.000330786	  -23.9087	  -8.26965	
  -23.8809	-0.00033239	  -23.9231	-0.000328304	  -23.9543	-0.000344293	  -23.9194	-0.000334996	  -23.9194	  -8.37489	
  -23.8917	-0.000336709	  -23.9317	-0.000332387	  -23.9651	-0.000348304	  -23.9295	-0.000339133	  -23.9295	  -8.47834	
   -23.901	-0.000340993	   -23.939	-0.000336454	  -23.9753	-0.0003522	  -23.9384	-0.000343216	  -23.9384	  -8.58039	
  -23.9096	-0.000345257	  -23.9458	-0.000340533	  -23.9841	-0.000355991	  -23.9465	-0.00034726	  -23.9465	  -8.68151	
  -23.9169	-0.000349505	  -23.9513	-0.00034464	   -23.992	-0.0003597	  -23.9534	-0.000351282	  -23.9534	  -8.78204	
  -23.9228	-0.000353734	  -23.9563	-0.000348787	  -23.9994	-0.000363376	  -23.9595	-0.000355299	  -23.9595	  -8.88248	
  -23.9285	-0.000357966	  -23.9617	-0.000352979	  -24.0056	-0.000367054	  -23.9653	-0.000359333	  -23.9653	  -8.98332	
  -23.9323	-0.000362203	  -23.9659	-0.000357199	  -24.0106	-0.000370777	  -23.9696	-0.000363393	  -23.9696	  -9.08483	
  -23.9349	-0.000366436	   -23.969	-0.000361424	   -24.014	-0.000374581	  -23.9726	-0.000367481	  -23.9726	  -9.18701	
  -23.9373	-0.000370657	   -23.971	-0.000365627	  -24.0178	-0.000378477	  -23.9754	-0.000371587	  -23.9754	  -9.28968	
  -23.9383	-0.000374869	  -23.9716	-0.000369794	  -24.0207	-0.000382463	  -23.9769	-0.000375708	  -23.9769	  -9.39271	
  -23.9391	-0.000379061	  -23.9714	-0.000373873	  -24.0226	-0.00038652	  -23.9777	-0.000379818	  -23.9777	  -9.49545	
   -23.939	-0.000383209	  -23.9704	-0.00037784	  -24.0236	-0.000390625	  -23.9777	-0.000383891	  -23.9777	  -9.59729	
  -23.9388	-0.000387309	   -23.968	-0.000381716	  -24.0238	-0.000394738	  -23.9769	-0.000387921	  -23.9769	  -9.69803	
  -23.9372	-0.00039136	   -23.965	-0.00038551	  -24.0239	-0.000398813	  -23.9754	-0.000391894	  -23.9754	  -9.79736	
  -23.9348	-0.000395351	  -23.9614	-0.000389213	  -24.0228	-0.000402817	   -23.973	-0.000395793	   -23.973	  -9.89483	
  -23.9326	-0.000399289	  -23.9566	-0.000392851	  -24.0204	-0.000406717	  -23.9699	-0.000399619	  -23.9699	  -9.99048	
  -23.9288	-0.000403191	  -23.9505	-0.000396469	  -24.0174	-0.000410498	  -23.9656	-0.000403386	  -23.9656	  -10.0846	
  -23.9238	-0.000407064	  -23.9442	-0.000400088	  -24.0139	-0.000414165	  -23.9606	-0.000407106	  -23.9606	  -10.1776	
  -23.9175	-0.000410917	  -23.9376	-0.000403736	  -24.0099	-0.000417724	   -23.955	-0.000410793	   -23.955	  -10.2698	
  -23.9095	-0.000414772	  -23.9294	-0.000407449	  -24.0049	-0.000421202	  -23.9479	-0.000414474	  -23.9479	  -10.3619	
     -23.9	-0.000418642	  -23.9198	-0.000411234	  -23.9981	-0.000424632	  -23.9393	-0.000418169	  -23.9393	  -10.4542	
  -23.8884	-0.000422526	  -23.9102	-0.000415083	  -23.9905	-0.00042805	  -23.9297	-0.000421886	  -23.9297	  -10.5472	
  -23.8765	-0.000426432	  -23.8994	-0.000419005	  -23.9813	-0.000431485	  -23.9191	-0.00042564	  -23.9191	   -10.641	
  -23.8643	-0.00043035	  -23.8874	-0.000422962	  -23.9709	-0.000434957	  -23.9075	-0.000429423	  -23.9075	  -10.7356	
  -23.8509	-0.000434263	  -23.8736	-0.000426904	  -23.9592	-0.000438487	  -23.8946	-0.000433218	  -23.8946	  -10.8304	
  -23.8372	-0.000438158	  -23.8595	-0.000430828	   -23.946	-0.00044208	  -23.8809	-0.000437022	  -23.8809	  -10.9256	
  -23.8225	-0.00044202	  -23.8452	-0.000434706	  -23.9325	-0.000445727	  -23.8668	-0.000440818	  -23.8668	  -11.0204	
  -23.8072	-0.000445834	  -23.8303	-0.000438492	  -23.9173	-0.000449413	  -23.8516	-0.00044458	  -23.8516	  -11.1145	
  -23.7912	-0.00044959	  -23.8147	-0.000442129	  -23.9014	-0.000453103	  -23.8357	-0.000448274	  -23.8357	  -11.2068	
  -23.7741	-0.000453284	  -23.7976	-0.000445622	  -23.8849	-0.00045677	  -23.8189	-0.000451892	  -23.8189	  -11.2973	
  -23.7574	-0.000456921	  -23.7794	-0.000448953	  -23.8672	-0.000460387	  -23.8013	-0.00045542	  -23.8013	  -11.3855	
  -23.7394	-0.000460503	  -23.7605	-0.000452115	  -23.8487	-0.000463923	  -23.7829	-0.000458847	  -23.7829	  -11.4712	
  -23.7196	-0.000464048	  -23.7401	-0.000455168	  -23.8293	-0.000467366	   -23.763	-0.000462194	   -23.763	  -11.5548	
  -23.6984	-0.000467569	  -23.7187	-0.000458138	  -23.8093	-0.000470708	  -23.7421	-0.000465472	  -23.7421	  -11.6368	
  -23.6752	-0.000471081	  -23.6976	-0.000461067	  -23.7887	-0.000473958	  -23.7205	-0.000468702	  -23.7205	  -11.7175	
  -23.6509	-0.000474599	  -23.6752	-0.000464026	  -23.7667	-0.000477131	  -23.6976	-0.000471919	  -23.6976	   -11.798	
  -23.6262	-0.00047813	  -23.6514	-0.000467061	  -23.7441	-0.000480249	  -23.6739	-0.000475146	  -23.6739	  -11.8787	
  -23.6007	-0.000481677	   -23.626	-0.000470187	  -23.7205	-0.000483345	   -23.649	-0.000478403	   -23.649	  -11.9601	
   -23.574	-0.000485233	  -23.5995	-0.00047341	  -23.6955	-0.000486443	   -23.623	-0.000481695	   -23.623	  -12.0424	
  -23.5469	-0.000488793	  -23.5725	-0.000476749	  -23.6699	-0.000489571	  -23.5964	-0.000485038	  -23.5964	  -12.1259	
  -23.5189	-0.000492349	  -23.5447	-0.000480191	  -23.6432	-0.000492748	  -23.5689	-0.000488429	  -23.5689	  -12.2107	
  -23.4893	-0.000495881	  -23.5152	-0.000483671	  -23.6155	-0.000495977	    -23.54	-0.000491843	    -23.54	  -12.2961	
  -23.4582	-0.000499383	  -23.4858	-0.000487158	   -23.587	-0.000499256	  -23.5103	-0.000495266	  -23.5103	  -12.3816	
  -23.4266	-0.000502844	  -23.4543	-0.000490603	  -23.5571	-0.000502571	  -23.4793	-0.000498673	  -23.4793	  -12.4668	
  -23.3944	-0.000506253	  -23.4217	-0.000493951	  -23.5267	-0.000505896	  -23.4476	-0.000502034	  -23.4476	  -12.5508	
  -23.3605	-0.000509611	  -23.3882	-0.000497186	   -23.496	-0.000509208	  -23.4149	-0.000505335	  -23.4149	  -12.6334	
  -23.3259	-0.000512918	  -23.3533	-0.000500291	  -23.4642	-0.000512473	  -23.3811	-0.000508561	  -23.3811	   -12.714	
  -23.2908	-0.00051618	  -23.3183	-0.000503262	  -23.4315	-0.000515672	  -23.3469	-0.000511705	  -23.3469	  -12.7926	
  -23.2559	-0.000519405	  -23.2816	-0.000506104	  -23.3973	-0.000518785	  -23.3116	-0.000514765	  -23.3116	  -12.8691	
  -23.2203	-0.000522601	  -23.2437	-0.000508863	  -23.3622	-0.000521807	  -23.2754	-0.000517757	  -23.2754	  -12.9439	
  -23.1838	-0.000525794	  -23.2044	-0.000511578	  -23.3254	-0.000524744	  -23.2379	-0.000520705	  -23.2379	  -13.0176	
  -23.1469	-0.000528955	  -23.1645	-0.000514274	  -23.2875	-0.000527606	  -23.1996	-0.000523611	  -23.1996	  -13.0903	
  -23.1094	-0.000532053	  -23.1243	-0.000516999	  -23.2491	-0.000530419	  -23.1609	-0.00052649	  -23.1609	  -13.1623	
  -23.0703	-0.000535114	  -23.0837	-0.000519786	  -23.2095	-0.000533209	  -23.1212	-0.000529369	  -23.1212	  -13.2342	
  -23.0296	-0.000538192	  -23.0432	-0.000522643	  -23.1682	-0.000535996	  -23.0804	-0.000532277	  -23.0804	  -13.3069	
  -22.9874	-0.000541236	  -23.0017	-0.000525582	  -23.1263	-0.000538808	  -23.0385	-0.000535209	  -23.0385	  -13.3802	
  -22.9433	-0.000544261	  -22.9591	-0.000528591	  -23.0832	-0.000541654	  -22.9952	-0.000538169	  -22.9952	  -13.4542	
  -22.8978	-0.000547312	  -22.9156	-0.00053164	   -23.039	-0.000544541	  -22.9508	-0.000541164	  -22.9508	  -13.5291	
    -22.85	-0.000550382	  -22.8712	-0.000534697	  -22.9939	-0.000547468	   -22.905	-0.000544182	   -22.905	  -13.6046	
  -22.8019	-0.000553473	  -22.8263	-0.000537733	  -22.9475	-0.000550422	  -22.8586	-0.000547209	  -22.8586	  -13.6802	
  -22.7536	-0.000556603	  -22.7805	-0.000540717	  -22.9005	-0.000553385	  -22.8115	-0.000550235	  -22.8115	  -13.7559	
  -22.7025	-0.000559774	  -22.7338	-0.000543613	  -22.8519	-0.000556333	  -22.7627	-0.00055324	  -22.7627	   -13.831	
  -22.6496	-0.000562955	  -22.6862	-0.000546413	  -22.8028	-0.000559248	  -22.7129	-0.000556205	  -22.7129	  -13.9051	
  -22.5983	-0.000566154	  -22.6374	-0.000549119	  -22.7525	-0.000562109	  -22.6628	-0.000559127	  -22.6628	  -13.9782	
  -22.5476	-0.000569354	  -22.5871	-0.000551733	  -22.7012	-0.000564898	  -22.6119	-0.000561995	  -22.6119	  -14.0499	
  -22.4956	-0.000572495	  -22.5362	-0.000554282	  -22.6485	-0.000567617	  -22.5601	-0.000564798	  -22.5601	  -14.1199	
  -22.4427	-0.000575538	  -22.4842	-0.000556792	  -22.5942	-0.000570267	   -22.507	-0.000567532	   -22.507	  -14.1883	
  -22.3926	-0.000578483	  -22.4314	-0.000559285	  -22.5392	-0.000572858	  -22.4544	-0.000570209	  -22.4544	  -14.2552	
  -22.3438	-0.000581312	  -22.3772	-0.000561794	  -22.4828	-0.000575408	  -22.4013	-0.000572838	  -22.4013	  -14.3209	
  -22.2948	 -0.000584	  -22.3218	-0.000564344	  -22.4257	-0.000577936	  -22.3474	-0.000575427	  -22.3474	  -14.3857	
  -22.2444	-0.000586569	  -22.2655	-0.000566952	  -22.3686	-0.000580464	  -22.2928	-0.000577995	  -22.2928	  -14.4499	
  -22.1932	-0.000589042	  -22.2085	-0.000569615	  -22.3106	-0.000583006	  -22.2374	-0.000580554	  -22.2374	  -14.5139	
  -22.1419	-0.000591455	  -22.1504	-0.000572329	  -22.2523	-0.000585575	  -22.1815	-0.00058312	  -22.1815	   -14.578	
  -22.0887	-0.000593863	  -22.0924	-0.000575083	   -22.193	-0.000588178	  -22.1247	-0.000585708	  -22.1247	  -14.6427	
  -22.0323	-0.000596315	  -22.0339	-0.000577844	  -22.1325	-0.000590807	  -22.0662	-0.000588322	  -22.0662	   -14.708	
  -21.9742	-0.000598833	  -21.9749	-0.000580588	  -22.0711	-0.000593452	  -22.0068	-0.000590958	  -22.0068	  -14.7739	
  -21.9151	-0.000601446	  -21.9151	-0.00058329	  -22.0097	-0.000596097	  -21.9466	-0.000593611	  -21.9466	  -14.8403	
  -21.8559	-0.000604173	  -21.8539	-0.000585921	  -21.9474	-0.00059872	  -21.8857	-0.000596271	  -21.8857	  -14.9068	
  -21.7946	-0.000607003	  -21.7923	-0.000588471	  -21.8848	-0.000601302	  -21.8239	-0.000598925	  -21.8239	  -14.9731	
  -21.7323	-0.000609902	  -21.7292	-0.00059093	  -21.8213	-0.000603822	  -21.7609	-0.000601551	  -21.7609	  -15.0388	
  -21.6697	-0.000612844	  -21.6654	-0.000593302	  -21.7572	-0.000606268	  -21.6975	-0.000604138	  -21.6975	  -15.1035	
  -21.6059	-0.000615791	  -21.6014	-0.0005956	  -21.6928	-0.000608638	  -21.6334	-0.000606677	  -21.6334	  -15.1669	
    -21.54	-0.000618685	  -21.5364	-0.000597846	  -21.6277	-0.000610934	   -21.568	-0.000609155	   -21.568	  -15.2289	
  -21.4742	-0.0006215	  -21.4715	-0.000600072	  -21.5621	-0.000613172	  -21.5026	-0.000611581	  -21.5026	  -15.2895	
  -21.4082	-0.00062421	  -21.4056	-0.000602299	  -21.4954	-0.000615363	  -21.4364	-0.000613958	  -21.4364	  -15.3489	
  -21.3421	-0.000626792	  -21.3389	-0.000604553	  -21.4272	-0.000617528	  -21.3694	-0.000616291	  -21.3694	  -15.4073	
  -21.2744	-0.000629257	  -21.2716	-0.000606852	   -21.358	-0.000619686	  -21.3013	-0.000618598	  -21.3013	   -15.465	
  -21.2063	-0.000631624	  -21.2027	-0.000609199	  -21.2873	-0.00062185	  -21.2321	-0.000620891	  -21.2321	  -15.5223	
  -21.1376	-0.000633924	  -21.1324	-0.000611595	  -21.2157	-0.000624038	  -21.1619	-0.000623186	  -21.1619	  -15.5796	
  -21.0676	-0.000636185	   -21.061	-0.000614025	  -21.1439	-0.000626249	  -21.0908	-0.000625486	  -21.0908	  -15.6372	
  -20.9961	-0.000638449	  -20.9889	-0.000616469	  -21.0708	-0.000628481	  -21.0186	-0.000627799	  -21.0186	   -15.695	
   -20.924	-0.000640758	  -20.9156	-0.000618899	  -20.9987	-0.000630727	  -20.9461	-0.000630128	  -20.9461	  -15.7532	
  -20.8523	-0.000643131	  -20.8415	-0.000621289	  -20.9256	-0.000632973	  -20.8731	-0.000632464	  -20.8731	  -15.8116	
  -20.7794	-0.000645591	   -20.767	-0.000623619	  -20.8521	-0.000635203	  -20.7995	-0.000634805	  -20.7995	  -15.8701	
  -20.7044	-0.000648135	  -20.6907	-0.000625868	  -20.7774	-0.000637401	  -20.7242	-0.000637135	  -20.7242	  -15.9284	
  -20.6285	-0.000650745	  -20.6142	-0.000628026	  -20.7018	-0.000639554	  -20.6482	-0.000639442	  -20.6482	   -15.986	
  -20.5513	-0.000653397	  -20.5388	-0.000630102	  -20.6257	-0.000641651	  -20.5719	-0.000641717	  -20.5719	  -16.0429	
  -20.4738	-0.000656057	  -20.4621	-0.000632104	  -20.5483	-0.000643686	  -20.4947	-0.000643949	  -20.4947	  -16.0987	
  -20.3956	-0.000658687	  -20.3847	-0.000634053	  -20.4703	-0.000645663	  -20.4169	-0.000646134	  -20.4169	  -16.1534	
  -20.3162	-0.000661245	  -20.3068	-0.000635975	  -20.3912	-0.000647589	   -20.338	-0.00064827	   -20.338	  -16.2067	
  -20.2367	-0.000663702	   -20.228	-0.000637894	  -20.3113	-0.000649473	  -20.2587	-0.000650356	  -20.2587	  -16.2589	
   -20.157	-0.000666036	  -20.1482	-0.000639832	  -20.2305	-0.000651335	  -20.1786	-0.000652401	  -20.1786	    -16.31	
  -20.0764	-0.000668237	  -20.0683	-0.000641801	  -20.1488	-0.000653183	  -20.0978	-0.000654407	  -20.0978	  -16.3602	
   -19.995	-0.000670324	   -19.987	-0.000643811	  -20.0665	-0.000655034	  -20.0161	-0.000656389	  -20.0161	  -16.4097	
   -19.912	-0.000672322	  -19.9046	-0.000645857	  -19.9838	-0.000656892	  -19.9335	-0.000658357	  -19.9335	  -16.4589	
  -19.8282	-0.000674266	  -19.8209	-0.000647926	  -19.8996	-0.000658754	  -19.8496	-0.000660315	  -19.8496	  -16.5079	
   -19.744	-0.000676203	  -19.7368	-0.000650003	  -19.8152	-0.000660625	  -19.7653	-0.000662277	  -19.7653	  -16.5569	
  -19.6589	-0.000678176	   -19.652	-0.000652066	  -19.7299	-0.000662493	  -19.6803	-0.000664245	  -19.6803	  -16.6061	
  -19.5725	-0.000680221	  -19.5665	-0.000654092	  -19.6436	-0.000664355	  -19.5942	-0.000666222	  -19.5942	  -16.6556	
  -19.4845	-0.00068235	  -19.4809	-0.000656065	  -19.5571	-0.000666202	  -19.5075	-0.000668206	  -19.5075	  -16.7051	
  -19.3965	-0.000684568	  -19.3938	-0.00065797	  -19.4701	-0.000668021	  -19.4201	-0.000670186	  -19.4201	  -16.7547	
  -19.3083	-0.000686864	  -19.3057	-0.000659801	  -19.3829	-0.000669816	  -19.3323	-0.00067216	  -19.3323	   -16.804	
  -19.2191	-0.000689203	  -19.2173	-0.000661562	  -19.2953	-0.000671583	  -19.2439	-0.000674116	  -19.2439	  -16.8529	
  -19.1289	-0.00069155	  -19.1272	-0.000663266	  -19.2066	-0.000673321	  -19.1543	-0.000676046	  -19.1543	  -16.9011	
   -19.038	-0.000693866	  -19.0365	-0.000664928	  -19.1186	-0.000675032	  -19.0644	-0.000677942	  -19.0644	  -16.9486	
  -18.9463	-0.000696116	  -18.9446	-0.000666567	  -19.0296	-0.000676719	  -18.9735	-0.000679801	  -18.9735	   -16.995	
  -18.8539	-0.000698257	  -18.8514	-0.00066821	  -18.9412	-0.00067839	  -18.8821	-0.000681619	  -18.8821	  -17.0405	
  -18.7603	-0.000700261	  -18.7587	-0.000669872	  -18.8519	-0.000680044	  -18.7903	-0.000683392	  -18.7903	  -17.0848	
   -18.666	-0.000702136	  -18.6645	-0.000671562	  -18.7608	-0.000681683	  -18.6971	-0.000685127	  -18.6971	  -17.1282	
  -18.5708	-0.000703894	  -18.5691	-0.000673288	  -18.6696	-0.000683301	  -18.6031	-0.000686828	  -18.6031	  -17.1707	
  -18.4749	-0.000705555	   -18.473	-0.000675033	  -18.5766	-0.00068488	  -18.5082	-0.000688489	  -18.5082	  -17.2122	
  -18.3787	-0.000707151	  -18.3765	-0.000676786	  -18.4832	-0.000686425	  -18.4128	-0.000690121	  -18.4128	   -17.253	
  -18.2818	-0.000708711	    -18.28	-0.000678536	  -18.3887	-0.000687946	  -18.3168	-0.000691731	  -18.3168	  -17.2933	
  -18.1844	-0.00071029	  -18.1826	-0.000680265	  -18.2927	-0.000689436	  -18.2199	-0.000693331	  -18.2199	  -17.3333	
  -18.0869	-0.000711959	  -18.0845	-0.000681965	  -18.1957	-0.00069091	  -18.1224	-0.000694944	  -18.1224	  -17.3736	
  -17.9882	-0.000713695	  -17.9867	-0.000683624	  -18.0988	-0.000692377	  -18.0246	-0.000696565	  -18.0246	  -17.4141	
   -17.889	-0.000715452	  -17.8881	-0.000685245	  -18.0009	-0.000693855	   -17.926	-0.000698184	   -17.926	  -17.4546	
  -17.7893	-0.000717302	  -17.7891	-0.000686836	  -17.9023	-0.000695346	  -17.8269	-0.000699828	  -17.8269	  -17.4957	
   -17.689	-0.000719202	  -17.6885	-0.0006884	  -17.8025	-0.000696843	  -17.7267	-0.000701482	  -17.7267	   -17.537	
  -17.5881	-0.000721072	  -17.5874	-0.000689945	  -17.7021	-0.00069835	  -17.6259	-0.000703122	  -17.6259	  -17.5781	
  -17.4868	-0.000722892	  -17.4851	-0.000691482	  -17.6011	-0.00069985	  -17.5244	-0.000704741	  -17.5244	  -17.6185	
  -17.3842	-0.00072464	  -17.3824	-0.000693022	  -17.4981	-0.00070133	  -17.4216	-0.000706331	  -17.4216	  -17.6583	
  -17.2805	-0.000726258	  -17.2792	-0.000694561	  -17.3945	-0.000702779	  -17.3181	-0.000707866	  -17.3181	  -17.6967	
  -17.1763	-0.000727718	  -17.1742	-0.000696109	  -17.2896	-0.000704195	  -17.2133	-0.00070934	  -17.2133	  -17.7335	
  -17.0712	-0.00072904	  -17.0685	-0.000697657	  -17.1844	-0.000705563	   -17.108	-0.000710753	   -17.108	  -17.7688	
  -16.9657	-0.000730216	  -16.9625	-0.000699165	  -17.0794	-0.000706874	  -17.0025	-0.000712085	  -17.0025	  -17.8021	
  -16.8601	-0.000731274	  -16.8544	-0.000700639	  -16.9728	-0.000708128	  -16.8958	-0.000713347	  -16.8958	  -17.8337	
  -16.7543	-0.000732307	  -16.7459	-0.000702077	  -16.8656	-0.000709334	  -16.7886	-0.000714573	  -16.7886	  -17.8643	
  -16.6476	-0.000733364	  -16.6369	-0.000703446	  -16.7576	-0.000710502	  -16.6807	-0.000715771	  -16.6807	  -17.8943	
    -16.54	-0.000734458	  -16.5277	-0.000704742	  -16.6487	-0.000711639	  -16.5721	-0.000716946	  -16.5721	  -17.9237	
  -16.4308	-0.000735643	   -16.418	-0.00070598	  -16.5398	-0.000712757	  -16.4629	-0.000718126	  -16.4629	  -17.9532	
  -16.3206	-0.000736953	  -16.3074	-0.000707173	  -16.4298	-0.000713881	  -16.3526	-0.000719336	  -16.3526	  -17.9834	
  -16.2098	-0.000738385	  -16.1964	-0.000708322	  -16.3192	-0.000715022	  -16.2418	-0.000720576	  -16.2418	  -18.0144	
  -16.0987	-0.000739908	  -16.0848	-0.000709442	  -16.2078	-0.000716162	  -16.1304	-0.000721837	  -16.1304	  -18.0459	
   -15.987	-0.000741496	  -15.9721	-0.000710569	   -16.095	-0.000717326	   -16.018	-0.00072313	   -16.018	  -18.0783	
  -15.8743	-0.000743084	  -15.8591	-0.000711707	  -15.9824	-0.000718512	  -15.9053	-0.000724434	  -15.9053	  -18.1109	
  -15.7611	-0.000744561	  -15.7451	-0.000712874	  -15.8678	-0.000719704	  -15.7913	-0.000725713	  -15.7913	  -18.1428	
  -15.6471	-0.000745924	  -15.6304	-0.000714094	  -15.7538	-0.000720897	  -15.6771	-0.000726971	  -15.6771	  -18.1743	
  -15.5324	-0.000747132	  -15.5152	-0.000715355	  -15.6392	-0.000722085	  -15.5622	-0.000728191	  -15.5622	  -18.2048	
  -15.4169	-0.000748171	  -15.4002	-0.000716644	   -15.523	-0.000723272	  -15.4467	-0.000729362	  -15.4467	  -18.2341	
   -15.301	-0.000749054	  -15.2845	-0.000717955	  -15.4066	-0.000724434	  -15.3307	-0.000730481	  -15.3307	   -18.262	
  -15.1845	-0.000749811	  -15.1682	-0.000719275	  -15.2895	-0.000725557	  -15.2141	-0.000731547	  -15.2141	  -18.2887	
   -15.067	-0.000750507	  -15.0511	-0.000720583	  -15.1724	-0.000726648	  -15.0968	-0.000732579	  -15.0968	  -18.3145	
  -14.9496	-0.000751177	  -14.9343	-0.000721842	  -15.0547	-0.000727678	  -14.9795	-0.000733565	  -14.9795	  -18.3391	
  -14.8316	-0.000751888	  -14.8168	-0.000723033	  -14.9358	-0.00072865	  -14.8614	-0.000734523	  -14.8614	  -18.3631	
   -14.713	-0.000752684	  -14.6997	-0.000724133	  -14.8165	-0.000729576	  -14.7431	-0.000735464	  -14.7431	  -18.3866	
  -14.5936	-0.00075358	  -14.5813	-0.000725127	  -14.6964	-0.000730452	  -14.6238	-0.000736387	  -14.6238	  -18.4097	
  -14.4744	-0.000754613	  -14.4611	-0.000726029	  -14.5752	-0.000731288	  -14.5036	-0.00073731	  -14.5036	  -18.4327	
  -14.3538	-0.000755773	  -14.3411	-0.000726831	  -14.4534	-0.000732089	  -14.3828	-0.000738231	  -14.3828	  -18.4558	
  -14.2331	-0.00075701	  -14.2206	-0.000727557	  -14.3312	-0.000732877	  -14.2616	-0.000739148	  -14.2616	  -18.4787	
  -14.1125	-0.000758269	  -14.0996	-0.000728246	  -14.2077	-0.000733659	  -14.1399	-0.000740058	  -14.1399	  -18.5014	
  -13.9911	-0.000759485	  -13.9785	-0.000728915	  -14.0837	-0.000734443	  -14.0178	-0.000740948	  -14.0178	  -18.5237	
  -13.8691	-0.00076061	  -13.8555	-0.000729598	  -13.9579	-0.00073525	  -13.8942	-0.000741819	  -13.8942	  -18.5455	
  -13.7468	-0.000761592	  -13.7323	-0.000730318	  -13.8326	-0.000736074	  -13.7705	-0.000742662	  -13.7705	  -18.5665	
  -13.6239	-0.000762401	  -13.6088	-0.0007311	   -13.707	-0.000736914	  -13.6466	-0.000743472	  -13.6466	  -18.5868	
   -13.501	-0.000763023	  -13.4846	-0.000731936	  -13.5807	-0.000737766	  -13.5221	-0.000744242	  -13.5221	   -18.606	
  -13.3777	-0.000763463	  -13.3602	-0.000732826	  -13.4551	-0.00073861	  -13.3976	-0.000744966	  -13.3976	  -18.6242	
  -13.2537	-0.00076378	  -13.2353	-0.000733763	   -13.329	-0.000739432	  -13.2726	-0.000745658	  -13.2726	  -18.6415	
  -13.1286	-0.000764035	  -13.1103	-0.000734708	  -13.2028	-0.000740215	  -13.1473	-0.000746319	  -13.1473	   -18.658	
  -13.0023	-0.000764296	  -12.9843	-0.000735633	  -13.0763	-0.000740953	   -13.021	-0.000746961	   -13.021	   -18.674	
  -12.8762	-0.000764633	  -12.8576	-0.000736516	  -12.9492	-0.000741633	  -12.8943	-0.000747594	  -12.8943	  -18.6899	
   -12.749	-0.000765104	  -12.7315	-0.000737321	  -12.8218	-0.000742249	  -12.7674	-0.000748225	  -12.7674	  -18.7056	
  -12.6223	-0.000765745	  -12.6045	-0.00073803	  -12.6945	-0.00074281	  -12.6404	-0.000748862	  -12.6404	  -18.7215	
  -12.4953	-0.000766553	  -12.4774	-0.000738637	  -12.5679	-0.000743319	  -12.5135	-0.000749503	  -12.5135	  -18.7376	
  -12.3677	-0.000767509	  -12.3498	-0.000739151	  -12.4407	-0.000743789	  -12.3861	-0.000750149	  -12.3861	  -18.7537	
  -12.2391	-0.00076857	  -12.2216	-0.000739581	  -12.3119	-0.000744241	  -12.2575	-0.000750797	  -12.2575	  -18.7699	
  -12.1114	-0.000769664	  -12.0927	-0.000739907	   -12.183	-0.000744686	   -12.129	-0.000751419	   -12.129	  -18.7855	
  -11.9821	-0.000770728	   -11.964	-0.000740192	  -12.0535	-0.000745135	  -11.9999	-0.000752018	  -11.9999	  -18.8005	
  -11.8525	-0.000771698	  -11.8352	-0.000740471	  -11.9234	-0.000745595	  -11.8703	-0.000752588	  -11.8703	  -18.8147	
  -11.7215	-0.00077252	  -11.7065	-0.000740785	  -11.7935	-0.000746069	  -11.7405	-0.000753125	  -11.7405	  -18.8281	
  -11.5905	-0.00077315	   -11.577	-0.000741161	  -11.6627	-0.000746552	  -11.6101	-0.000753621	  -11.6101	  -18.8405	
  -11.4595	-0.000773576	  -11.4471	-0.000741611	  -11.5321	-0.000747031	  -11.4796	-0.000754073	  -11.4796	  -18.8518	
  -11.3277	-0.000773831	  -11.3158	-0.000742179	  -11.4008	-0.000747501	  -11.3481	-0.000754504	  -11.3481	  -18.8626	
  -11.1959	-0.000773946	   -11.185	-0.000742859	  -11.2691	-0.000747944	  -11.2167	-0.000754916	  -11.2167	  -18.8729	
  -11.0636	-0.000773968	  -11.0544	-0.000743628	  -11.1376	-0.000748343	  -11.0852	-0.000755313	  -11.0852	  -18.8828	
  -10.9306	-0.000773959	  -10.9227	-0.000744453	  -11.0054	-0.000748697	  -10.9529	-0.000755703	  -10.9529	  -18.8926	
  -10.7979	-0.000773981	  -10.7914	-0.000745269	  -10.8722	-0.000748995	  -10.8205	-0.000756081	  -10.8205	   -18.902	
  -10.6644	-0.000774097	  -10.6597	-0.00074604	  -10.7383	-0.000749236	  -10.6875	-0.000756458	  -10.6875	  -18.9114	
  -10.5299	-0.000774334	  -10.5271	-0.000746728	  -10.6043	-0.000749425	  -10.5538	-0.000756829	  -10.5538	  -18.9207	
  -10.3957	-0.000774712	  -10.3942	-0.000747288	    -10.47	-0.000749566	    -10.42	-0.000757189	    -10.42	  -18.9297	
  -10.2606	-0.000775225	  -10.2604	-0.000747694	  -10.3357	-0.000749669	  -10.2856	-0.000757529	  -10.2856	  -18.9382	
  -10.1251	-0.000775848	  -10.1262	-0.000747919	  -10.2018	-0.000749737	  -10.1511	-0.000757835	  -10.1511	  -18.9459	
  -9.98927	-0.000776556	  -9.99121	-0.000747987	  -10.0675	-0.000749786	   -10.016	-0.00075811	   -10.016	  -18.9527	
   -9.8532	-0.000777278	   -9.8553	-0.000747931	  -9.93286	-0.00074982	  -9.88046	-0.000758343	  -9.88046	  -18.9586	
  -9.71665	-0.000777937	  -9.71947	-0.000747784	  -9.79774	-0.000749843	  -9.74462	-0.000758521	  -9.74462	   -18.963	
  -9.57935	-0.000778504	  -9.58293	-0.000747601	  -9.66255	-0.000749863	  -9.60828	-0.000758656	  -9.60828	  -18.9664	
  -9.44201	-0.000778928	  -9.44591	-0.00074743	  -9.52674	-0.000749875	  -9.47155	-0.000758744	  -9.47155	  -18.9686	
   -9.3041	-0.00077916	  -9.30839	-0.000747323	  -9.39029	-0.000749878	  -9.33426	-0.000758787	  -9.33426	  -18.9697	
  -9.16608	-0.000779186	  -9.16986	-0.000747311	  -9.25319	-0.000749868	  -9.19638	-0.000758788	  -9.19638	  -18.9697	
  -9.02839	-0.00077902	  -9.03034	-0.000747404	  -9.11568	-0.000749837	  -9.05814	-0.000758754	  -9.05814	  -18.9688	
  -8.89045	-0.000778698	  -8.89083	-0.000747596	  -8.97747	-0.000749778	  -8.91958	-0.000758691	  -8.91958	  -18.9673	
  -8.75151	-0.000778261	  -8.75053	-0.000747855	  -8.83834	-0.000749682	  -8.78013	-0.000758599	  -8.78013	   -18.965	
  -8.61279	-0.000777786	  -8.61068	-0.000748155	  -8.69949	-0.000749547	  -8.64098	-0.000758496	  -8.64098	  -18.9624	
  -8.47373	-0.000777318	  -8.46973	-0.000748451	   -8.5594	-0.000749371	  -8.50095	-0.00075838	  -8.50095	  -18.9595	
  -8.33431	-0.000776914	  -8.32796	-0.000748691	  -8.41981	-0.000749147	  -8.36069	-0.000758251	  -8.36069	  -18.9563	
   -8.1945	-0.000776634	  -8.18611	-0.000748833	  -8.27989	-0.000748889	  -8.22017	-0.000758119	  -8.22017	   -18.953	
  -8.05451	-0.000776497	  -8.04366	-0.000748845	  -8.13843	-0.000748596	  -8.07886	-0.000757979	  -8.07886	  -18.9495	
  -7.91407	-0.000776497	  -7.90108	-0.000748713	  -7.99716	-0.000748273	  -7.93744	-0.000757828	  -7.93744	  -18.9457	
  -7.77365	-0.000776617	   -7.7574	-0.000748441	  -7.85603	-0.000747931	  -7.79569	-0.000757663	  -7.79569	  -18.9416	
   -7.6327	-0.00077682	  -7.61312	-0.000748044	  -7.71499	-0.000747574	   -7.6536	-0.000757479	   -7.6536	   -18.937	
  -7.49122	-0.000777052	  -7.46946	-0.000747555	  -7.57348	-0.000747207	  -7.51139	-0.000757271	  -7.51139	  -18.9318	
  -7.34969	-0.000777245	  -7.32465	-0.000747015	  -7.43151	-0.00074683	  -7.36861	-0.00075703	  -7.36861	  -18.9258	
  -7.20781	-0.000777344	  -7.17921	-0.000746468	  -7.28929	-0.000746444	  -7.22544	-0.000756752	  -7.22544	  -18.9188	
  -7.06461	-0.000777295	  -7.03365	-0.000745951	  -7.14657	-0.000746044	  -7.08161	-0.00075643	  -7.08161	  -18.9107	
  -6.92087	-0.000777064	  -6.88841	-0.000745484	  -7.00333	-0.000745621	  -6.93754	-0.000756056	  -6.93754	  -18.9014	
  -6.77682	-0.000776654	  -6.74319	-0.000745089	  -6.86055	-0.000745174	  -6.79352	-0.000755639	  -6.79352	   -18.891	
  -6.63222	-0.000776079	  -6.59724	-0.00074477	  -6.71716	-0.000744693	  -6.64888	-0.000755181	  -6.64888	  -18.8795	
  -6.48755	-0.000775367	  -6.45154	-0.000744511	  -6.57367	-0.000744169	  -6.50425	-0.000754683	  -6.50425	  -18.8671	
  -6.34229	-0.000774571	  -6.30602	-0.000744291	  -6.42956	-0.000743603	  -6.35929	-0.000754155	  -6.35929	  -18.8539	
  -6.19717	-0.000773749	  -6.16017	-0.000744073	   -6.2841	-0.000742994	  -6.21382	-0.000753605	  -6.21382	  -18.8401	
  -6.05143	-0.000772959	  -6.01493	-0.000743821	  -6.13906	-0.00074235	  -6.06847	-0.000753043	  -6.06847	  -18.8261	
  -5.90531	-0.000772246	  -5.86878	-0.000743499	  -5.99363	-0.000741677	  -5.92258	-0.000752474	  -5.92258	  -18.8118	
  -5.75906	-0.000771645	  -5.72223	-0.000743077	  -5.84759	-0.000740978	  -5.77629	-0.0007519	  -5.77629	  -18.7975	
  -5.61192	-0.000771166	  -5.57649	-0.00074254	  -5.70069	-0.000740266	   -5.6297	-0.000751324	   -5.6297	  -18.7831	
  -5.46442	-0.000770798	  -5.43049	-0.000741877	  -5.55345	-0.000739545	  -5.48279	-0.00075074	  -5.48279	  -18.7685	
   -5.3168	-0.000770513	  -5.28446	-0.000741101	   -5.4066	-0.000738813	  -5.33595	-0.000750142	  -5.33595	  -18.7536	
  -5.16831	-0.000770266	  -5.13837	-0.000740233	  -5.25959	-0.000738067	  -5.18876	-0.000749522	  -5.18876	   -18.738	
   -5.0202	-0.000769998	  -4.99219	-0.000739297	  -5.11288	-0.000737308	  -5.04176	-0.000748867	  -5.04176	  -18.7217	
  -4.87217	-0.000769662	  -4.84613	-0.00073833	   -4.9669	-0.000736531	  -4.89507	-0.000748174	  -4.89507	  -18.7044	
  -4.72443	-0.000769215	  -4.69942	-0.000737365	  -4.82107	-0.000735724	  -4.74831	-0.000747435	  -4.74831	  -18.6859	
  -4.57692	-0.000768625	  -4.55233	-0.000736431	  -4.67679	-0.000734877	  -4.60201	-0.000746644	  -4.60201	  -18.6661	
  -4.42863	-0.00076804	  -4.40509	-0.000735198	  -4.53101	-0.000733889	  -4.45491	-0.000745709	  -4.45491	  -18.6427	
  -4.28009	-0.000767366	  -4.25697	-0.000734012	  -4.38478	-0.00073288	  -4.30728	-0.000744753	  -4.30728	  -18.6188	
  -4.13176	-0.00076659	  -4.10872	-0.00073293	  -4.23858	-0.000731845	  -4.15969	-0.000743788	  -4.15969	  -18.5947	
  -3.98264	-0.000765711	  -3.95986	-0.00073198	  -4.09142	-0.000730784	   -4.0113	-0.000742825	   -4.0113	  -18.5706	
  -3.83277	-0.000764735	  -3.81135	-0.000731166	  -3.94333	-0.000729703	  -3.86248	-0.000741868	  -3.86248	  -18.5467	
