# User: ACHyster
# File name: C:/ACHYSTER/ACHyster SENS/SHAMS/CoFe2O4-1gl-water-45 Glycerol-Sens-07-03-2023/CoFe2O4-1gl-water-45 Glycerol- 10_100F- 12 kAm -Sens-07-03-20230004#1.txt
# Saved at: ma. mar. 7 16:49:08 2023
# Hyster Loop (3 iterations). Intensity: 12.0 kA/m; Tuned frequency: 50.0 kHz
# Units x axis: (kA/m)
# Units y axis: "Repeats y" & "Average y" (10^(-3)Am^2); "Mass avg y" (Am^2/kg)
# Magnetic mass: 4e-05 g
# Parameter      	Repeat   1	Repeat   2	Repeat   3	Average   	Sigma     
# H_C (kA/m)     	      10.3	      10.3	      10.3	      10.3	       0.0
# M_R (Am^2/kg)  	      14.0	      14.2	      14.0	      14.1	       0.1
# M_max (Am^2/kg)	       8.2	       8.5	       8.2	       8.3	       0.1
# Area (mJ/kg)   	     653.1	     661.4	     653.3	     655.9	       3.9
# SAR (W/g)      	      32.7	      33.1	      32.7	      32.8	       0.2
#Repeat 1 x	Repeat 1 y	Repeat 2 x	Repeat 2 y	Repeat 3 x	Repeat 3 y	Average x 	Average y 	Mass avg x 	Mass avg y 
  -1.66815	-0.00059866	  -1.67841	-0.000608814	  -1.67743	-0.000605254	  -1.67466	-0.000604243	  -1.67466	  -15.1061	
  -1.59339	-0.000597113	  -1.60377	-0.000607334	   -1.6024	-0.000603568	  -1.59985	-0.000602672	  -1.59985	  -15.0668	
  -1.51878	-0.000595602	  -1.52923	-0.000605813	  -1.52735	-0.000602039	  -1.52512	-0.000601151	  -1.52512	  -15.0288	
  -1.44414	-0.000594125	  -1.45449	-0.000604248	  -1.45227	-0.000600678	   -1.4503	-0.000599684	   -1.4503	  -14.9921	
  -1.36951	-0.000592645	  -1.37973	-0.000602647	   -1.3772	-0.000599383	  -1.37548	-0.000598225	  -1.37548	  -14.9556	
  -1.29489	-0.000591116	  -1.30481	-0.000601023	  -1.30201	-0.000597975	  -1.30057	-0.000596705	  -1.30057	  -14.9176	
   -1.2203	-0.000589513	   -1.2299	-0.00059939	  -1.22671	-0.000596337	  -1.22564	-0.00059508	  -1.22564	   -14.877	
  -1.14585	-0.000587837	  -1.15512	-0.000597753	  -1.15157	-0.000594455	  -1.15085	-0.000593348	  -1.15085	  -14.8337	
  -1.07124	-0.000586122	  -1.08017	-0.000596109	  -1.07618	-0.000592473	  -1.07586	-0.000591568	  -1.07586	  -14.7892	
 -0.996624	-0.000584408	   -1.0052	-0.000594448	  -1.00041	-0.00059055	  -1.00075	-0.000589802	  -1.00075	   -14.745	
 -0.921926	-0.000582722	 -0.930318	-0.000592763	 -0.923458	-0.000588823	 -0.925234	-0.000588103	 -0.925234	  -14.7026	
 -0.847086	-0.000581063	 -0.855271	-0.000591031	 -0.846545	-0.0005873	 -0.849634	-0.000586464	 -0.849634	  -14.6616	
 -0.772251	-0.000579401	 -0.780346	-0.000589262	 -0.769131	-0.000585839	 -0.773909	-0.000584834	 -0.773909	  -14.6209	
 -0.697282	-0.000577695	 -0.705261	-0.000587453	 -0.692898	-0.000584246	  -0.69848	-0.000583131	  -0.69848	  -14.5783	
 -0.622323	-0.000575904	 -0.630161	-0.000585569	 -0.615775	-0.000582356	 -0.622753	-0.000581276	 -0.622753	  -14.5319	
 -0.547305	-0.000574026	 -0.555094	-0.000583654	 -0.540159	-0.000580166	 -0.547519	-0.000579282	 -0.547519	  -14.4821	
 -0.472161	-0.000572099	 -0.479871	-0.000581723	 -0.464629	-0.000577829	  -0.47222	-0.000577217	  -0.47222	  -14.4304	
 -0.396903	-0.000570168	 -0.404508	-0.000579833	 -0.389724	-0.000575556	 -0.397045	-0.000575186	 -0.397045	  -14.3796	
 -0.321573	-0.000568283	 -0.328367	-0.000577978	  -0.31423	-0.000573515	  -0.32139	-0.000573259	  -0.32139	  -14.3315	
 -0.246278	-0.000566432	 -0.251735	-0.000576146	 -0.239036	-0.00057171	 -0.245683	-0.000571429	 -0.245683	  -14.2857	
 -0.170745	-0.000564581	 -0.174541	-0.000574297	 -0.163619	-0.000569999	 -0.169635	-0.000569626	 -0.169635	  -14.2406	
-0.0951293	-0.000562674	-0.0979301	-0.000572346	-0.0881328	-0.000568164	-0.0937307	-0.000567728	-0.0937307	  -14.1932	
-0.0195412	-0.000560687	-0.0219252	-0.000570268	-0.0123465	-0.000566059	-0.0179376	-0.000565671	-0.0179376	  -14.1418	
 0.0560326	-0.00055862	   0.05393	-0.000568059	 0.0630455	-0.00056368	 0.0576694	-0.000563453	 0.0576694	  -14.0863	
  0.131548	-0.000556511	   0.12917	-0.000565783	  0.138781	-0.000561166	  0.133166	-0.000561153	  0.133166	  -14.0288	
  0.206873	-0.000554417	  0.203984	-0.00056352	  0.214418	-0.000558712	  0.208425	-0.000558883	  0.208425	  -13.9721	
  0.282299	-0.000552366	  0.278614	-0.000561321	  0.290274	-0.000556458	  0.283729	-0.000556715	  0.283729	  -13.9179	
  0.357543	-0.000550345	  0.353491	-0.000559194	  0.365545	-0.000554408	  0.358859	-0.000554649	  0.358859	  -13.8662	
  0.433032	-0.000548313	   0.42866	-0.000557091	  0.440893	-0.000552428	  0.434195	-0.000552611	  0.434195	  -13.8153	
  0.508472	-0.000546213	  0.503965	-0.000554931	  0.516313	-0.000550333	  0.509583	-0.000550493	  0.509583	  -13.7623	
  0.583935	-0.000544019	  0.579664	-0.00055267	  0.592072	-0.000548006	  0.585224	-0.000548232	  0.585224	  -13.7058	
  0.659485	-0.000541751	  0.655224	-0.0005503	  0.667751	-0.000545448	   0.66082	-0.000545833	   0.66082	  -13.6458	
  0.734977	-0.000539458	   0.73102	-0.00054787	  0.743335	-0.000542791	  0.736444	-0.000543373	  0.736444	  -13.5843	
  0.810418	-0.000537193	   0.80662	-0.000545449	  0.818693	-0.0005402	  0.811911	-0.000540947	  0.811911	  -13.5237	
  0.885811	-0.000534969	  0.882179	-0.000543083	  0.893984	-0.000537786	  0.887325	-0.000538613	  0.887325	  -13.4653	
  0.961115	-0.000532766	  0.957653	-0.000540773	  0.969167	-0.000535542	  0.962645	-0.00053636	  0.962645	   -13.409	
   1.03652	-0.000530531	   1.03309	-0.000538467	   1.04444	-0.00053335	   1.03802	-0.000534116	   1.03802	  -13.3529	
   1.11175	-0.000528215	   1.10837	-0.000536097	   1.11951	-0.000531059	   1.11321	-0.000531791	   1.11321	  -13.2948	
   1.18705	-0.000525807	   1.18357	-0.000533627	   1.19448	-0.00052857	   1.18837	-0.000529335	   1.18837	  -13.2334	
   1.26232	-0.000523329	   1.25876	-0.000531056	    1.2693	-0.000525888	   1.26346	-0.000526758	   1.26346	  -13.1689	
   1.33742	-0.000520841	   1.33408	-0.000528442	   1.34384	-0.000523131	   1.33845	-0.000524138	   1.33845	  -13.1034	
   1.41265	-0.000518378	   1.40938	-0.000525854	   1.41826	-0.000520438	   1.41343	-0.000521557	   1.41343	  -13.0389	
   1.48771	-0.000515956	   1.48454	-0.000523341	   1.49256	-0.000517898	   1.48827	-0.000519065	   1.48827	  -12.9766	
   1.56281	-0.000513545	   1.55939	-0.000520904	   1.56672	-0.000515503	   1.56297	-0.000516651	   1.56297	  -12.9163	
    1.6379	-0.000511092	   1.63414	-0.000518486	   1.64094	-0.000513148	   1.63766	-0.000514242	   1.63766	   -12.856	
   1.71298	-0.000508558	   1.70865	-0.000516007	   1.71508	-0.000510702	   1.71223	-0.000511756	   1.71223	  -12.7939	
   1.78801	-0.000505934	   1.78319	-0.000513393	   1.78925	-0.00050808	   1.78681	-0.000509136	   1.78681	  -12.7284	
   1.86291	-0.000503256	   1.85766	-0.000510624	   1.86335	-0.000505294	    1.8613	-0.000506391	    1.8613	  -12.6598	
   1.93782	-0.000500574	    1.9322	-0.000507756	   1.93726	-0.000502444	   1.93576	-0.000503591	   1.93576	  -12.5898	
   2.01275	-0.000497924	   2.00667	-0.000504891	   2.01128	-0.000499653	   2.01023	-0.000500823	   2.01023	  -12.5206	
   2.08758	-0.000495307	   2.08112	-0.000502133	   2.08512	-0.000496993	   2.08461	-0.000498144	   2.08461	  -12.4536	
   2.16212	-0.000492682	    2.1558	-0.00049953	   2.15899	-0.000494447	   2.15897	-0.000495553	   2.15897	  -12.3888	
   2.23658	-0.000490001	   2.23067	-0.000497037	   2.23284	-0.000491916	   2.23337	-0.000492984	   2.23337	  -12.3246	
   2.31069	-0.000487234	   2.30587	-0.00049453	   2.30655	-0.000489288	   2.30771	-0.000490351	   2.30771	  -12.2588	
   2.38472	-0.000484391	    2.3811	-0.000491878	   2.38007	-0.000486502	   2.38196	-0.00048759	   2.38196	  -12.1898	
   2.45859	-0.000481515	   2.45608	-0.000489009	   2.45348	-0.000483578	   2.45605	-0.000484701	   2.45605	  -12.1175	
   2.53245	-0.000478667	   2.53057	-0.00048596	   2.52667	-0.000480608	    2.5299	-0.000481745	    2.5299	  -12.0436	
   2.60631	-0.000475857	   2.60433	-0.000482851	   2.59994	-0.000477692	   2.60353	-0.0004788	   2.60353	    -11.97	
   2.68007	-0.000473093	   2.67733	-0.000479824	   2.67302	-0.000474887	   2.67681	-0.000475935	   2.67681	  -11.8984	
   2.75364	-0.000470313	   2.75022	-0.00047696	     2.746	-0.000472172	   2.74995	-0.000473148	   2.74995	  -11.8287	
   2.82712	-0.000467477	   2.82309	-0.000474233	   2.81896	-0.000469462	   2.82306	-0.000470391	   2.82306	  -11.7598	
   2.90052	-0.00046457	   2.89623	-0.00047153	   2.89165	-0.000466665	   2.89613	-0.000467588	   2.89613	  -11.6897	
   2.97382	-0.000461614	   2.96948	-0.000468711	   2.96433	-0.000463732	   2.96921	-0.000464685	   2.96921	  -11.6171	
   3.04693	-0.00045866	   3.04268	-0.000465696	   3.03691	-0.000460682	   3.04217	-0.000461679	   3.04217	   -11.542	
   3.12001	-0.000455738	   3.11545	-0.000462509	   3.10941	-0.000457599	   3.11496	-0.000458615	   3.11496	  -11.4654	
   3.19294	-0.000452864	   3.18799	-0.000459263	   3.18199	-0.000454562	   3.18764	-0.000455563	   3.18764	  -11.3891	
   3.26561	-0.00045001	   3.26032	-0.000456085	   3.25437	-0.000451617	    3.2601	-0.00045257	    3.2601	  -11.3143	
   3.33811	-0.000447121	   3.33242	-0.000453051	   3.32654	-0.000448737	   3.33236	-0.000449636	   3.33236	  -11.2409	
   3.41053	-0.000444141	   3.40451	-0.000450137	   3.39871	-0.000445852	   3.40459	-0.00044671	   3.40459	  -11.1678	
   3.48277	-0.000441097	   3.47646	-0.000447239	   3.47062	-0.000442885	   3.47662	-0.00044374	   3.47662	  -11.0935	
   3.55494	-0.000438048	   3.54858	-0.000444238	   3.54238	-0.000439801	   3.54863	-0.000440695	   3.54863	  -11.0174	
   3.62697	-0.000435062	   3.62047	-0.000441061	   3.61407	-0.000436623	    3.6205	-0.000437582	    3.6205	  -10.9396	
   3.69874	-0.00043216	   3.69214	-0.000437733	   3.68545	-0.000433427	   3.69211	-0.00043444	   3.69211	   -10.861	
   3.77002	-0.000429289	   3.76376	-0.000434348	   3.75682	-0.000430277	   3.76353	-0.000431305	   3.76353	  -10.7826	
   3.84045	-0.000426399	   3.83522	-0.000431023	   3.82806	-0.000427199	   3.83458	-0.000428207	   3.83458	  -10.7052	
   3.91053	-0.000423407	   3.90649	-0.000427825	   3.89916	-0.000424138	   3.90539	-0.000425124	   3.90539	  -10.6281	
   3.98045	-0.000420314	   3.97778	-0.000424733	   3.97033	-0.00042104	   3.97619	-0.000422029	   3.97619	  -10.5507	
   4.05078	-0.000417156	   4.04885	-0.000421664	    4.0413	-0.000417859	   4.04698	-0.000418893	   4.04698	  -10.4723	
   4.12086	-0.000414006	   4.11962	-0.000418508	     4.112	-0.000414606	   4.11749	-0.000415707	   4.11749	  -10.3927	
   4.19097	-0.000410907	   4.19025	-0.000415202	   4.18261	-0.000411317	   4.18794	-0.000412475	   4.18794	  -10.3119	
   4.26086	-0.000407867	   4.26063	-0.000411767	   4.25297	-0.000408054	   4.25815	-0.000409229	   4.25815	  -10.2307	
   4.33097	-0.000404854	   4.33092	-0.00040829	   4.32315	-0.000404859	   4.32834	-0.000406001	   4.32834	    -10.15	
   4.40035	-0.000401846	   4.40115	-0.000404867	   4.39329	-0.000401709	   4.39827	-0.000402807	   4.39827	  -10.0702	
   4.47029	-0.000398805	   4.47119	-0.000401544	   4.46317	-0.000398546	   4.46822	-0.000399632	   4.46822	  -9.99079	
   4.53969	-0.000395728	   4.54095	-0.000398297	   4.53268	-0.000395296	   4.53777	-0.000396441	   4.53777	  -9.91101	
   4.60984	-0.000392621	   4.61048	-0.000395045	   4.60214	-0.000391926	   4.60749	-0.000393197	   4.60749	  -9.82993	
   4.67893	-0.000389476	   4.67969	-0.000391693	   4.67131	-0.000388454	   4.67665	-0.000389874	   4.67665	  -9.74686	
   4.74851	-0.000386303	    4.7487	-0.000388182	   4.74019	-0.000384947	    4.7458	-0.000386477	    4.7458	  -9.66194	
   4.81684	-0.000383116	    4.8176	-0.000384545	   4.80901	-0.000381483	   4.81448	-0.000383048	   4.81448	   -9.5762	
   4.88611	-0.000379939	   4.88631	-0.000380894	   4.87753	-0.000378101	   4.88331	-0.000379645	   4.88331	  -9.49112	
   4.95407	-0.000376763	   4.95495	-0.000377347	   4.94587	-0.000374797	   4.95163	-0.000376302	   4.95163	  -9.40755	
   5.02298	-0.00037358	   5.02347	-0.000373954	   5.01413	-0.000371508	   5.02019	-0.000373014	   5.02019	  -9.32536	
   5.09081	-0.000370364	   5.09162	-0.000370657	   5.08221	-0.000368145	   5.08821	-0.000369722	   5.08821	  -9.24306	
   5.15944	-0.000367096	   5.15987	-0.000367333	   5.15043	-0.000364671	   5.15658	-0.000366367	   5.15658	  -9.15917	
   5.22703	-0.000363773	   5.22797	-0.000363868	   5.21853	-0.000361073	   5.22451	-0.000362904	   5.22451	  -9.07261	
   5.29495	-0.00036041	   5.29579	-0.000360208	   5.28639	-0.000357424	   5.29237	-0.000359347	   5.29237	  -8.98368	
   5.36184	-0.000357045	   5.36327	-0.000356445	    5.3542	-0.000353803	   5.35977	-0.000355764	   5.35977	  -8.89411	
   5.42931	-0.000353694	   5.43061	-0.000352677	   5.42188	-0.000350265	   5.42727	-0.000352212	   5.42727	   -8.8053	
   5.49623	-0.000350361	   5.49757	-0.000349033	   5.48934	-0.000346799	   5.49438	-0.000348731	   5.49438	  -8.71827	
   5.56336	-0.00034702	   5.56452	-0.000345526	   5.55655	-0.000343334	   5.56147	-0.000345293	   5.56147	  -8.63233	
   5.62978	-0.000343636	   5.63132	-0.000342104	   5.62361	-0.000339795	   5.62824	-0.000341845	   5.62824	  -8.54612	
   5.69654	-0.000340195	   5.69775	-0.000338637	    5.6903	-0.00033613	   5.69486	-0.000338321	   5.69486	  -8.45802	
    5.7627	-0.000336709	   5.76428	-0.000335038	   5.75693	-0.000332359	    5.7613	-0.000334702	    5.7613	  -8.36756	
   5.82896	-0.000333209	   5.83066	-0.0003313	   5.82342	-0.000328553	   5.82768	-0.000331021	   5.82768	  -8.27552	
   5.89485	-0.000329718	    5.8968	-0.000327494	   5.88968	-0.000324785	   5.89378	-0.000327332	   5.89378	  -8.18331	
   5.96086	-0.000326228	   5.96248	-0.000323729	   5.95577	-0.000321098	    5.9597	-0.000323685	    5.9597	  -8.09213	
   6.02622	-0.000322714	   6.02805	-0.000320066	   6.02174	-0.000317466	   6.02533	-0.000320082	   6.02533	  -8.00205	
   6.09148	-0.000319143	   6.09328	-0.000316499	   6.08735	-0.000313818	    6.0907	-0.000316487	    6.0907	  -7.91216	
   6.15633	-0.000315509	   6.15838	-0.000312948	   6.15268	-0.000310103	    6.1558	-0.000312853	    6.1558	  -7.82134	
   6.22125	-0.000311838	   6.22338	-0.000309321	   6.21778	-0.000306297	    6.2208	-0.000309152	    6.2208	  -7.72881	
   6.28587	-0.00030817	   6.28807	-0.000305568	   6.28257	-0.000302444	    6.2855	-0.000305394	    6.2855	  -7.63485	
   6.35053	-0.000304536	   6.35224	-0.000301715	   6.34695	-0.000298612	   6.34991	-0.000301621	   6.34991	  -7.54052	
   6.41499	-0.000300936	   6.41624	-0.000297839	   6.41131	-0.000294837	   6.41418	-0.000297871	   6.41418	  -7.44677	
    6.4793	-0.000297333	   6.47999	-0.000294022	    6.4754	-0.000291126	   6.47823	-0.00029416	   6.47823	  -7.35401	
    6.5431	-0.000293679	   6.54329	-0.000290297	    6.5392	-0.000287421	   6.54186	-0.000290466	   6.54186	  -7.26165	
   6.60678	-0.000289943	   6.60628	-0.000286632	   6.60265	-0.000283657	   6.60524	-0.000286744	   6.60524	   -7.1686	
   6.67023	-0.000286125	   6.66911	-0.000282946	   6.66592	-0.000279793	   6.66842	-0.000282955	   6.66842	  -7.07387	
   6.73351	-0.000282266	   6.73156	-0.000279186	   6.72877	-0.000275841	   6.73128	-0.000279098	   6.73128	  -6.97744	
   6.79664	-0.000278417	   6.79395	-0.000275316	   6.79137	-0.000271861	   6.79399	-0.000275198	   6.79399	  -6.87995	
   6.85947	-0.000274611	   6.85623	-0.000271375	   6.85385	-0.000267918	   6.85652	-0.000271302	   6.85652	  -6.78254	
   6.92191	-0.000270851	   6.91818	-0.00026743	   6.91599	-0.000264061	    6.9187	-0.000267447	    6.9187	  -6.68617	
   6.98418	-0.000267096	   6.97975	-0.00026353	   6.97787	-0.000260276	    6.9806	-0.000263634	    6.9806	  -6.59085	
   7.04616	-0.0002633	   7.04112	-0.000259696	   7.03935	-0.000256505	   7.04221	-0.000259834	   7.04221	  -6.49585	
   7.10784	-0.000259425	   7.10225	-0.000255892	   7.10059	-0.000252682	   7.10356	 -0.000256	   7.10356	  -6.39999	
     7.169	-0.000255471	   7.16308	-0.00025207	   7.16139	-0.000248749	   7.16449	-0.000252097	   7.16449	  -6.30242	
   7.22988	-0.000251471	   7.22396	-0.000248184	   7.22183	-0.000244723	   7.22522	-0.000248126	   7.22522	  -6.20315	
   7.29057	-0.000247474	   7.28466	-0.00024422	   7.28214	-0.000240658	   7.28579	-0.000244117	   7.28579	  -6.10293	
   7.35085	-0.000243514	   7.34499	-0.000240203	   7.34212	-0.000236635	   7.34598	-0.000240117	   7.34598	  -6.00294	
   7.41081	-0.000239597	   7.40489	-0.000236182	    7.4017	-0.000232705	    7.4058	-0.000236162	    7.4058	  -5.90404	
   7.47068	-0.00023569	   7.46473	-0.000232198	   7.46111	-0.000228848	   7.46551	-0.000232246	   7.46551	  -5.80614	
   7.53025	-0.000231756	   7.52429	-0.000228267	    7.5203	-0.000225018	   7.52495	-0.000228347	   7.52495	  -5.70868	
   7.58943	-0.000227766	   7.58339	-0.000224365	   7.57907	-0.000221124	   7.58396	-0.000224418	   7.58396	  -5.61045	
   7.64822	-0.000223721	   7.64226	-0.000220447	   7.63765	-0.000217121	   7.64271	-0.000220429	   7.64271	  -5.51073	
   7.70683	-0.00021965	   7.70098	-0.000216471	   7.69598	-0.000213022	   7.70126	-0.000216381	   7.70126	  -5.40953	
   7.76508	-0.000215585	   7.75935	-0.000212435	     7.754	-0.00020888	   7.75948	-0.0002123	   7.75948	  -5.30751	
   7.82278	-0.000211556	    7.8173	-0.000208367	   7.81155	-0.000204786	   7.81721	-0.000208237	   7.81721	  -5.20591	
   7.88017	-0.000207564	   7.87508	-0.000204316	   7.86884	-0.000200784	    7.8747	-0.000204221	    7.8747	  -5.10553	
   7.93736	-0.000203589	   7.93265	-0.000200311	   7.92584	-0.000196845	   7.93195	-0.000200248	   7.93195	  -5.00621	
   7.99415	-0.0001996	   7.98981	-0.000196356	    7.9825	-0.000192908	   7.98882	-0.000196288	   7.98882	   -4.9072	
   8.05047	-0.000195569	    8.0465	-0.000192421	   8.03864	-0.000188888	    8.0452	-0.000192293	    8.0452	  -4.80732	
   8.10648	-0.00019149	   8.10312	-0.000188472	   8.09425	-0.000184758	   8.10128	-0.00018824	   8.10128	    -4.706	
   8.16225	-0.000187387	   8.15948	-0.000184469	    8.1497	-0.000180548	   8.15714	-0.000184134	   8.15714	  -4.60336	
   8.21761	-0.00018329	    8.2154	-0.000180411	   8.20465	-0.000176335	   8.21255	-0.000180012	   8.21255	   -4.5003	
   8.27262	-0.00017923	   8.27093	-0.000176333	   8.25945	-0.000172208	   8.26767	-0.000175924	   8.26767	   -4.3981	
   8.32757	-0.000175212	    8.3261	-0.000172277	   8.31371	-0.000168216	   8.32246	-0.000171901	   8.32246	  -4.29754	
   8.38227	-0.000171213	   8.38086	-0.000168257	   8.36782	-0.000164347	   8.37699	-0.000167939	   8.37699	  -4.19847	
   8.43653	-0.000167199	    8.4352	-0.000164257	   8.42143	-0.000160503	   8.43106	-0.000163987	   8.43106	  -4.09966	
   8.49043	-0.000163149	   8.48918	-0.000160256	   8.47457	-0.000156568	   8.48473	-0.000159991	   8.48473	  -3.99977	
   8.54412	-0.000159058	   8.54281	-0.000156231	   8.52707	-0.000152455	     8.538	-0.000155915	     8.538	  -3.89786	
   8.59756	-0.000154946	   8.59594	-0.000152151	   8.57881	-0.00014819	   8.59077	-0.000151762	   8.59077	  -3.79406	
   8.65058	-0.000150838	   8.64869	-0.000148003	      8.63	-0.000143878	   8.64309	-0.000147573	   8.64309	  -3.68933	
   8.70325	-0.000146757	   8.70089	-0.000143784	   8.68085	-0.000139655	     8.695	-0.000143399	     8.695	  -3.58496	
   8.75545	-0.000142705	   8.75214	-0.000139546	   8.73188	-0.000135599	   8.74649	-0.000139284	   8.74649	  -3.48209	
   8.80744	-0.000138666	     8.803	-0.000135339	   8.78261	-0.000131656	   8.79769	-0.00013522	   8.79769	  -3.38051	
   8.85889	-0.000134614	   8.85344	-0.000131202	     8.833	-0.000127744	   8.84844	-0.000131187	   8.84844	  -3.27967	
   8.91005	-0.000130533	   8.90404	-0.00012714	   8.88317	-0.000123738	   8.89909	-0.000127137	   8.89909	  -3.17842	
    8.9608	-0.000126432	    8.9539	-0.000123073	   8.93326	-0.000119596	   8.94932	-0.000123034	   8.94932	  -3.07585	
   9.01141	-0.000122334	   9.00372	-0.000118968	   8.98322	-0.000115329	   8.99945	-0.000118877	   8.99945	  -2.97192	
   9.06153	-0.000118252	   9.05282	-0.00011476	    9.0332	-0.000111066	   9.04918	-0.000114693	   9.04918	  -2.86732	
    9.1112	-0.00011418	    9.1017	-0.000110484	   9.08295	-0.00010689	   9.09862	-0.000110518	   9.09862	  -2.76295	
   9.16041	-0.000110097	   9.14995	-0.000106181	   9.13248	-0.000102845	   9.14761	-0.000106374	   9.14761	  -2.65936	
   9.20943	-0.000105982	   9.19855	-0.000101947	   9.18121	-9.8891e-05	    9.1964	-0.000102273	    9.1964	  -2.55683	
   9.25806	-0.000101828	   9.24616	-9.77884e-05	   9.23003	-9.49378e-05	   9.24475	-9.81848e-05	   9.24475	  -2.45462	
   9.30634	-9.7648e-05	   9.29389	-9.36672e-05	   9.27802	-9.09034e-05	   9.29275	-9.40729e-05	   9.29275	  -2.35182	
   9.35412	-9.34806e-05	    9.3408	-8.95217e-05	   9.32549	-8.67648e-05	   9.34014	-8.99224e-05	   9.34014	  -2.24806	
   9.40127	-8.93584e-05	   9.38776	-8.53157e-05	   9.37315	-8.25648e-05	   9.38739	-8.57463e-05	   9.38739	  -2.14366	
   9.44801	-8.52879e-05	   9.43319	-8.10468e-05	   9.42029	-7.83784e-05	   9.43383	-8.1571e-05	   9.43383	  -2.03928	
   9.49456	-8.12481e-05	   9.47859	-7.6749e-05	   9.46696	-7.4266e-05	   9.48003	-7.7421e-05	   9.48003	  -1.93553	
   9.54075	-7.71991e-05	   9.52379	-7.24624e-05	   9.51282	-7.02514e-05	   9.52579	-7.33043e-05	   9.52579	  -1.83261	
   9.58645	-7.31059e-05	   9.56853	-6.82048e-05	   9.55874	-6.6296e-05	   9.57124	-6.92022e-05	   9.57124	  -1.73006	
   9.63189	-6.89584e-05	   9.61263	-6.39786e-05	   9.60395	-6.23387e-05	   9.61615	-6.50919e-05	   9.61615	   -1.6273	
   9.67691	-6.47801e-05	   9.65661	-5.97567e-05	   9.64888	-5.83239e-05	    9.6608	-6.09536e-05	    9.6608	  -1.52384	
   9.72173	-6.06046e-05	   9.70043	-5.5509e-05	   9.69317	-5.42298e-05	   9.70511	-5.67811e-05	   9.70511	  -1.41953	
    9.7662	-5.64596e-05	    9.7438	-5.12329e-05	    9.7374	-5.00832e-05	   9.74913	-5.25919e-05	   9.74913	   -1.3148	
   9.81037	-5.23479e-05	    9.7867	-4.6943e-05	   9.78111	-4.59331e-05	   9.79273	-4.8408e-05	   9.79273	   -1.2102	
   9.85393	-4.82579e-05	   9.82953	-4.26692e-05	   9.82447	-4.1831e-05	   9.83598	-4.42527e-05	   9.83598	  -1.10632	
   9.89704	-4.41701e-05	   9.87207	-3.84238e-05	   9.86711	-3.78012e-05	   9.87874	-4.01317e-05	   9.87874	  -1.00329	
   9.93973	-4.00691e-05	    9.9142	-3.42048e-05	   9.90961	-3.38243e-05	   9.92118	-3.60327e-05	   9.92118	 -0.900819	
   9.98198	-3.59657e-05	   9.95585	-2.99964e-05	   9.95162	-2.98508e-05	   9.96315	-3.19376e-05	   9.96315	 -0.798441	
   10.0238	-3.18742e-05	   9.99716	-2.57869e-05	   9.99327	-2.58315e-05	   10.0048	-2.78309e-05	   10.0048	 -0.695772	
   10.0652	-2.78064e-05	   10.0383	-2.15637e-05	   10.0344	-2.17466e-05	    10.046	-2.37056e-05	    10.046	 -0.592639	
   10.1059	-2.37539e-05	   10.0789	-1.73289e-05	   10.0753	-1.76168e-05	   10.0867	-1.95665e-05	   10.0867	 -0.489163	
   10.1463	-1.96874e-05	   10.1192	-1.30812e-05	   10.1157	-1.34901e-05	   10.1271	-1.54195e-05	   10.1271	 -0.385489	
   10.1863	-1.55671e-05	   10.1592	-8.81906e-06	   10.1556	-9.41506e-06	    10.167	-1.12671e-05	    10.167	 -0.281677	
   10.2261	-1.13693e-05	   10.1987	-4.56282e-06	    10.195	-5.41447e-06	   10.2066	-7.11553e-06	   10.2066	 -0.177888	
   10.2655	-7.09911e-06	   10.2376	-3.17873e-07	   10.2342	-1.46103e-06	   10.2458	-2.95934e-06	   10.2458	-0.0739835	
   10.3044	-2.81928e-06	    10.276	3.88225e-06	   10.2732	2.49417e-06	   10.2845	1.18571e-06	   10.2845	 0.0296429	
   10.3428	1.39453e-06	   10.3141	8.04219e-06	   10.3119	6.49859e-06	   10.3229	5.31177e-06	   10.3229	  0.132794	
   10.3808	5.48771e-06	    10.352	1.21809e-05	     10.35	1.0567e-05	    10.361	9.41189e-06	    10.361	  0.235297	
   10.4185	9.46516e-06	     10.39	1.63294e-05	   10.3879	1.46747e-05	   10.3988	1.34898e-05	   10.3988	  0.337244	
   10.4559	1.33936e-05	   10.4278	2.05333e-05	   10.4254	1.87751e-05	   10.4364	1.75673e-05	   10.4364	  0.439183	
    10.493	1.73644e-05	   10.4651	2.47675e-05	   10.4626	2.28204e-05	   10.4736	2.16508e-05	   10.4736	   0.54127	
   10.5297	2.14467e-05	   10.5019	2.90144e-05	   10.4995	2.67994e-05	   10.5104	2.57535e-05	   10.5104	  0.643838	
   10.5659	2.56489e-05	   10.5384	3.32038e-05	    10.536	3.07355e-05	   10.5468	2.98627e-05	   10.5468	  0.746568	
   10.6014	2.9912e-05	   10.5743	3.73333e-05	    10.572	3.46703e-05	   10.5825	3.39719e-05	   10.5825	  0.849297	
   10.6364	3.41341e-05	   10.6101	4.14151e-05	   10.6075	3.86463e-05	    10.618	3.80652e-05	    10.618	  0.951629	
    10.671	3.82409e-05	   10.6449	4.54921e-05	   10.6426	4.26747e-05	   10.6528	4.21359e-05	   10.6528	    1.0534	
    10.705	4.22352e-05	     10.68	4.96268e-05	   10.6776	4.67326e-05	   10.6875	4.61982e-05	   10.6875	   1.15495	
   10.7387	4.61916e-05	   10.7138	5.38339e-05	   10.7124	5.07824e-05	   10.7216	5.02693e-05	   10.7216	   1.25673	
   10.7721	5.02028e-05	   10.7476	5.80902e-05	   10.7468	5.47907e-05	   10.7555	5.43612e-05	   10.7555	   1.35903	
   10.8051	5.43308e-05	   10.7809	6.23405e-05	   10.7808	5.87492e-05	   10.7889	5.84735e-05	   10.7889	   1.46184	
   10.8377	5.85632e-05	   10.8137	6.65235e-05	   10.8143	6.26791e-05	   10.8219	6.25886e-05	   10.8219	   1.56472	
   10.8698	6.2828e-05	    10.846	7.06332e-05	   10.8473	6.66152e-05	   10.8544	6.66921e-05	   10.8544	    1.6673	
   10.9013	6.70347e-05	   10.8782	7.47047e-05	   10.8797	7.05847e-05	   10.8864	7.07747e-05	   10.8864	   1.76937	
   10.9325	7.11279e-05	   10.9099	7.87924e-05	   10.9117	7.45842e-05	    10.918	7.48348e-05	    10.918	   1.87087	
   10.9633	7.51254e-05	   10.9411	8.29474e-05	   10.9433	7.85327e-05	   10.9492	7.88685e-05	   10.9492	   1.97171	
   10.9938	7.90975e-05	   10.9717	8.7174e-05	   10.9744	8.24364e-05	     10.98	8.29026e-05	     10.98	   2.07257	
   11.0239	8.31219e-05	    11.002	9.14422e-05	   11.0052	8.63093e-05	   11.0104	8.69578e-05	   11.0104	   2.17395	
   11.0536	8.72475e-05	   11.0319	9.56946e-05	   11.0356	9.02297e-05	   11.0404	9.10573e-05	   11.0404	   2.27643	
    11.083	9.14525e-05	   11.0615	9.98855e-05	   11.0656	9.42278e-05	     11.07	9.51886e-05	     11.07	   2.37972	
   11.1119	9.56737e-05	   11.0906	0.000104007	    11.095	9.83146e-05	   11.0991	9.93318e-05	   11.0991	    2.4833	
   11.1401	9.98375e-05	   11.1194	0.000108085	   11.1238	0.000102469	   11.1278	0.000103464	   11.1278	   2.58659	
   11.1677	0.000103915	   11.1479	0.000112161	    11.152	0.000106587	   11.1558	0.000107555	   11.1558	   2.68886	
   11.1951	0.000107917	   11.1759	0.000116269	   11.1796	0.000110597	   11.1835	0.000111594	   11.1835	   2.78985	
   11.2224	 0.0001119	   11.2035	0.000120419	   11.2069	0.000114456	   11.2109	0.000115592	   11.2109	   2.88979	
   11.2494	0.000115929	   11.2308	0.000124609	   11.2336	0.000118198	    11.238	0.000119579	    11.238	   2.98947	
   11.2761	0.000120032	   11.2578	0.000128819	   11.2601	0.00012192	   11.2647	0.00012359	   11.2647	   3.08976	
   11.3023	0.000124191	   11.2843	0.000133039	   11.2863	0.000125717	    11.291	0.000127649	    11.291	   3.19123	
   11.3282	0.000128353	   11.3102	0.00013725	   11.3121	0.000129661	   11.3169	0.000131754	   11.3169	   3.29386	
   11.3537	0.000132461	   11.3357	0.000141422	   11.3376	0.000133739	   11.3423	0.000135874	   11.3423	   3.39684	
   11.3786	0.000136494	   11.3608	0.000145534	   11.3626	0.000137856	   11.3674	0.000139961	   11.3674	   3.49903	
    11.403	0.000140468	   11.3854	0.000149579	   11.3872	0.000141909	   11.3919	0.000143985	   11.3919	   3.59963	
   11.4268	0.00014443	   11.4095	0.000153576	   11.4111	0.000145833	   11.4158	0.000147946	   11.4158	   3.69866	
     11.45	0.000148428	   11.4332	0.000157567	   11.4345	0.000149658	   11.4392	0.000151884	   11.4392	    3.7971	
   11.4726	0.000152486	   11.4562	0.000161589	   11.4573	0.000153443	    11.462	0.000155839	    11.462	   3.89599	
   11.4945	0.000156599	   11.4792	0.000165663	   11.4796	0.000157281	   11.4844	0.000159848	   11.4844	   3.99619	
   11.5161	0.000160731	   11.5014	0.000169775	   11.5011	0.000161193	   11.5062	0.000163899	   11.5062	   4.09748	
    11.537	0.00016482	   11.5233	0.000173881	   11.5223	0.00016515	   11.5275	0.00016795	   11.5275	   4.19876	
   11.5575	0.000168811	   11.5443	0.000177931	   11.5428	0.000169077	   11.5482	0.00017194	   11.5482	   4.29849	
   11.5778	0.000172701	   11.5653	0.000181891	   11.5629	0.000172907	   11.5686	0.000175833	   11.5686	   4.39582	
   11.5978	0.000176529	   11.5853	0.000185772	   11.5825	0.000176644	   11.5885	0.000179648	   11.5885	   4.49121	
   11.6176	0.000180361	   11.6051	0.000189623	   11.6018	0.000180338	   11.6082	0.000183441	   11.6082	   4.58602	
   11.6371	0.000184252	   11.6239	0.000193504	   11.6207	0.00018408	   11.6273	0.000187279	   11.6273	   4.68196	
   11.6563	0.000188224	   11.6425	0.000197457	   11.6394	0.000187916	   11.6461	0.000191199	   11.6461	   4.77997	
   11.6751	0.000192253	   11.6603	0.000201476	   11.6576	0.000191849	   11.6643	0.000195193	   11.6643	   4.87982	
   11.6935	0.000196289	   11.6778	0.000205512	   11.6755	0.000195827	   11.6822	0.000199209	   11.6822	   4.98023	
   11.7114	0.00020027	   11.6948	0.000209493	    11.693	0.000199753	   11.6998	0.000203172	   11.6998	   5.07931	
   11.7288	0.000204164	   11.7116	0.00021337	   11.7102	0.000203567	   11.7169	0.000207033	   11.7169	   5.17584	
   11.7457	0.000207968	   11.7278	0.000217139	    11.727	0.000207254	   11.7335	0.000210787	   11.7335	   5.26968	
   11.7621	0.000211725	   11.7435	0.000220849	   11.7433	0.000210874	   11.7497	0.000214482	   11.7497	   5.36206	
    11.778	0.00021549	   11.7589	0.000224572	   11.7592	0.000214518	   11.7654	0.000218193	   11.7654	   5.45483	
   11.7934	0.000219306	   11.7739	0.000228364	   11.7746	0.000218238	   11.7806	0.000221969	   11.7806	   5.54923	
   11.8081	0.000223179	   11.7884	0.000232237	   11.7895	0.000222059	   11.7954	0.000225825	   11.7954	   5.64562	
   11.8224	0.00022708	   11.8025	0.000236153	   11.8039	0.000225915	   11.8096	0.000229716	   11.8096	    5.7429	
    11.836	0.00023095	    11.816	0.000240041	   11.8178	0.000229728	   11.8233	0.000233573	   11.8233	   5.83933	
   11.8491	0.000234751	   11.8291	0.000243842	   11.8312	0.000233439	   11.8365	0.000237344	   11.8365	    5.9336	
   11.8616	0.000238465	   11.8417	0.000247536	   11.8441	0.000237052	   11.8491	0.000241018	   11.8491	   6.02544	
   11.8736	0.00024214	   11.8539	0.000251154	   11.8564	0.000240634	   11.8613	0.000244643	   11.8613	   6.11607	
    11.885	0.000245826	   11.8655	0.00025476	   11.8682	0.000244243	   11.8729	0.000248276	   11.8729	   6.20691	
   11.8959	0.000249572	   11.8766	0.000258411	   11.8795	0.000247924	    11.884	0.000251969	    11.884	   6.29922	
   11.9062	0.000253378	   11.8872	0.000262129	   11.8903	0.00025165	   11.8946	0.000255719	   11.8946	   6.39297	
   11.9159	0.000257198	   11.8974	0.000265889	   11.9005	0.000255355	   11.9046	0.000259481	   11.9046	   6.48702	
   11.9252	0.000260981	   11.9071	0.000269636	   11.9103	0.000258988	   11.9142	0.000263202	   11.9142	   6.58004	
   11.9339	0.000264684	   11.9162	0.000273316	   11.9195	0.000262519	   11.9232	0.00026684	   11.9232	   6.67099	
   11.9422	0.000268311	    11.925	0.000276905	   11.9283	0.000265981	   11.9318	0.000270399	   11.9318	   6.75997	
   11.9499	0.000271907	   11.9332	0.000280424	   11.9365	0.00026945	   11.9399	0.000273927	   11.9399	   6.84817	
   11.9572	0.000275516	    11.941	0.000283932	   11.9443	0.000273009	   11.9475	0.000277486	   11.9475	   6.93714	
    11.964	0.000279184	   11.9484	0.000287476	   11.9517	0.000276687	   11.9547	0.000281116	   11.9547	   7.02789	
   11.9703	0.000282894	   11.9553	0.000291076	   11.9586	0.000280439	   11.9614	0.000284803	   11.9614	   7.12007	
   11.9763	0.000286615	   11.9618	0.000294704	   11.9651	0.000284179	   11.9677	0.000288499	   11.9677	   7.21248	
   11.9818	0.000290291	   11.9679	0.000298311	   11.9711	0.000287822	   11.9736	0.000292141	   11.9736	   7.30353	
    11.987	0.000293888	   11.9736	0.000301861	   11.9767	0.00029132	   11.9791	0.00029569	   11.9791	   7.39224	
   11.9919	0.000297409	   11.9789	0.000305388	    11.982	0.000294696	   11.9843	0.000299164	   11.9843	   7.47911	
   11.9963	0.000300891	   11.9839	0.000308899	   11.9868	0.000298024	    11.989	0.000302605	    11.989	   7.56512	
   12.0002	0.000304381	   11.9885	0.000312404	    11.991	0.000301398	   11.9932	0.000306061	   11.9932	   7.65153	
   12.0037	0.000307912	   11.9926	0.00031587	    11.995	0.000304875	   11.9971	0.000309552	   11.9971	   7.73881	
   12.0067	0.000311478	   11.9964	0.000319286	   11.9986	0.000308451	   12.0006	0.000313071	   12.0006	   7.82678	
   12.0092	0.000315042	   11.9998	0.000322646	   12.0017	0.000312061	   12.0036	0.000316583	   12.0036	   7.91458	
   12.0112	0.000318564	   12.0027	0.000325961	   12.0043	0.00031561	   12.0061	0.000320045	   12.0061	   8.00112	
   12.0127	0.000322012	   12.0053	0.000329281	   12.0065	0.000319053	   12.0082	0.000323449	   12.0082	   8.08621	
   12.0137	 0.0003254	   12.0075	0.000332651	   12.0079	0.00032237	   12.0097	0.000326807	   12.0097	   8.17018	
   12.0142	0.00032876	    12.009	0.000336095	   12.0089	0.000325639	   12.0107	0.000330165	   12.0107	   8.25412	
   12.0142	0.000332132	   12.0101	0.00033959	   12.0093	0.000328936	   12.0112	0.000333553	   12.0112	   8.33882	
   12.0141	0.000335539	   12.0105	0.000343073	    12.009	0.000332326	   12.0112	0.000336979	   12.0112	   8.42448	
   12.0132	0.000338969	   12.0102	0.000346483	   12.0082	 0.0003358	   12.0105	0.000340417	   12.0105	   8.51043	
    12.012	0.000342389	   12.0091	0.000349784	   12.0068	0.000339284	   12.0093	0.000343819	   12.0093	   8.59548	
   12.0101	0.000345762	   12.0075	0.000352999	   12.0047	0.000342697	   12.0075	0.000347153	   12.0075	   8.67882	
   12.0082	0.000349069	   12.0053	0.000356188	   12.0022	0.000345984	   12.0052	0.000350414	   12.0052	   8.76034	
   12.0056	0.000352318	   12.0026	0.000359414	   11.9992	0.000349158	   12.0025	0.00035363	   12.0025	   8.84075	
   12.0028	0.00035554	   11.9994	0.000362711	   11.9958	0.000352291	   11.9993	0.000356848	   11.9993	   8.92119	
   11.9994	0.000358772	   11.9959	0.000366063	    11.992	0.000355465	   11.9957	 0.0003601	   11.9957	    9.0025	
   11.9957	0.000362036	   11.9919	0.000369412	   11.9878	0.00035873	   11.9918	0.000363393	   11.9918	   9.08482	
   11.9916	0.000365317	   11.9877	0.000372703	   11.9834	0.000362077	   11.9876	0.000366699	   11.9876	   9.16748	
   11.9872	0.000368586	   11.9831	0.000375907	   11.9785	0.000365434	   11.9829	0.000369976	   11.9829	   9.24939	
   11.9823	0.000371805	   11.9781	0.000379044	   11.9732	0.000368729	   11.9779	0.000373193	   11.9779	   9.32982	
    11.977	0.000374958	   11.9725	0.00038216	   11.9673	0.00037188	   11.9723	0.000376333	   11.9723	   9.40831	
   11.9714	0.000378064	   11.9665	0.000385303	   11.9609	0.000374915	   11.9663	0.000379428	   11.9663	   9.48569	
   11.9651	0.000381153	   11.9598	0.000388499	   11.9538	0.000377896	   11.9596	0.000382516	   11.9596	    9.5629	
   11.9583	0.000384256	   11.9524	0.000391736	   11.9462	0.000380924	   11.9523	0.000385639	   11.9523	   9.64097	
   11.9509	0.000387383	   11.9445	0.00039497	   11.9381	0.000384096	   11.9445	0.000388816	   11.9445	    9.7204	
   11.9429	0.000390521	   11.9361	0.000398155	   11.9295	0.00038742	   11.9362	0.000392032	   11.9362	    9.8008	
   11.9344	0.000393641	   11.9272	0.000401274	   11.9206	0.000390819	   11.9274	0.000395245	   11.9274	   9.88111	
   11.9255	0.00039671	   11.9181	0.000404338	   11.9113	0.000394162	   11.9183	0.000398403	   11.9183	   9.96008	
   11.9162	0.000399719	   11.9086	0.000407375	   11.9018	0.000397332	   11.9089	0.000401475	   11.9089	   10.0369	
   11.9066	0.000402685	   11.8988	0.000410402	   11.8921	0.000400306	   11.8991	0.000404464	   11.8991	   10.1116	
   11.8965	0.00040565	   11.8884	0.000413416	    11.882	0.000403156	    11.889	0.000407407	    11.889	   10.1852	
   11.8861	0.000408635	   11.8776	0.000416411	   11.8713	0.000406016	   11.8783	0.000410354	   11.8783	   10.2588	
    11.875	0.000411633	   11.8661	0.000419379	     11.86	0.000409008	    11.867	0.00041334	    11.867	   10.3335	
   11.8633	0.000414612	    11.854	0.000422333	   11.8482	0.000412162	   11.8552	0.000416369	   11.8552	   10.4092	
    11.851	0.000417539	   11.8414	0.000425289	   11.8359	0.00041542	   11.8428	0.000419416	   11.8428	   10.4854	
   11.8383	0.000420403	   11.8284	0.000428267	   11.8232	0.000418643	     11.83	0.000422438	     11.83	   10.5609	
   11.8252	0.000423221	   11.8151	0.000431264	   11.8101	0.000421712	   11.8168	0.000425399	   11.8168	    10.635	
   11.8118	0.000426029	   11.8016	0.00043426	   11.7968	0.00042459	   11.8034	0.000428293	   11.8034	   10.7073	
    11.798	0.000428847	   11.7878	0.000437225	    11.783	0.000427336	   11.7896	0.000431136	   11.7896	   10.7784	
   11.7837	0.000431642	   11.7733	0.000440135	   11.7689	0.000430081	   11.7753	0.000433953	   11.7753	   10.8488	
   11.7688	0.000434416	   11.7583	0.000442979	    11.754	0.000432936	   11.7604	0.000436777	   11.7604	   10.9194	
   11.7533	0.000437162	   11.7428	0.000445764	   11.7386	0.000435937	   11.7449	0.000439621	   11.7449	   10.9905	
   11.7372	0.000439919	   11.7267	0.000448512	   11.7227	0.000439022	   11.7289	0.000442484	   11.7289	   11.0621	
   11.7208	0.000442712	   11.7103	0.000451261	   11.7064	0.000442066	   11.7125	0.000445346	   11.7125	   11.1337	
    11.704	0.00044557	   11.6936	0.000454034	   11.6899	0.000444967	   11.6958	0.00044819	   11.6958	   11.2048	
    11.687	0.000448471	   11.6766	0.000456827	    11.673	0.00044769	   11.6789	0.000450996	   11.6789	   11.2749	
   11.6695	0.000451345	    11.659	0.00045962	   11.6555	0.000450297	   11.6613	0.000453754	   11.6613	   11.3438	
   11.6514	0.000454113	   11.6407	0.000462376	   11.6375	0.000452903	   11.6432	0.000456464	   11.6432	   11.4116	
   11.6327	0.000456752	   11.6219	0.000465065	   11.6189	0.000455606	   11.6245	0.000459141	   11.6245	   11.4785	
   11.6135	0.000459286	   11.6026	0.000467683	   11.5999	0.000458432	   11.6054	 0.0004618	   11.6054	    11.545	
    11.594	0.000461811	    11.583	0.000470253	   11.5804	0.000461326	   11.5858	0.000464463	   11.5858	   11.6116	
   11.5741	0.000464395	   11.5632	0.000472818	   11.5606	0.00046418	    11.566	0.000467131	    11.566	   11.6783	
   11.5538	0.000467052	   11.5431	0.000475419	   11.5405	0.000466912	   11.5458	0.000469794	   11.5458	   11.7449	
   11.5328	0.000469739	   11.5223	0.000478054	   11.5196	0.000469499	   11.5249	0.000472431	   11.5249	   11.8108	
   11.5111	0.000472376	   11.5009	0.000480698	   11.4982	0.000471996	   11.5034	0.000475023	   11.5034	   11.8756	
    11.489	0.000474936	    11.479	0.000483292	   11.4764	0.000474494	   11.4814	0.000477574	   11.4814	   11.9394	
   11.4665	0.000477418	   11.4568	0.000485805	    11.454	0.00047707	   11.4591	0.000480098	   11.4591	   12.0024	
   11.4436	0.000479872	   11.4343	0.000488232	   11.4315	0.000479735	   11.4364	0.000482613	   11.4364	   12.0653	
   11.4202	0.000482332	   11.4115	0.000490609	   11.4083	0.000482435	   11.4133	0.000485125	   11.4133	   12.1281	
   11.3961	0.000484826	   11.3881	0.000492986	   11.3845	0.000485086	   11.3896	0.000487633	   11.3896	   12.1908	
   11.3714	0.000487352	   11.3642	0.000495396	   11.3602	0.00048763	   11.3653	0.000490126	   11.3653	   12.2531	
   11.3464	0.000489874	   11.3398	0.000497841	   11.3355	0.000490058	   11.3406	0.000492591	   11.3406	   12.3148	
   11.3211	0.000492368	   11.3151	0.000500288	   11.3103	0.00049242	   11.3155	0.000495025	   11.3155	   12.3756	
   11.2953	0.000494795	   11.2901	0.000502685	   11.2847	0.000494791	     11.29	0.000497424	     11.29	   12.4356	
   11.2691	0.000497171	   11.2644	0.000505011	   11.2584	0.000497229	    11.264	0.000499804	    11.264	   12.4951	
   11.2423	0.000499501	   11.2382	0.000507269	   11.2315	0.000499742	   11.2373	0.000502171	   11.2373	   12.5543	
   11.2151	0.000501818	   11.2115	0.000509492	   11.2042	0.000502285	   11.2103	0.000504531	   11.2103	   12.6133	
   11.1876	0.000504159	   11.1845	0.000511722	   11.1766	0.000504791	   11.1829	0.000506891	   11.1829	   12.6723	
   11.1596	0.000506525	   11.1573	0.000513987	   11.1486	0.000507207	   11.1552	0.00050924	   11.1552	    12.731	
   11.1314	0.000508913	   11.1295	0.000516284	   11.1201	0.000509537	    11.127	0.000511578	    11.127	   12.7895	
   11.1027	0.000511276	   11.1012	0.000518579	   11.0911	0.000511829	   11.0983	0.000513895	   11.0983	   12.8474	
   11.0734	0.000513565	   11.0724	0.000520836	   11.0617	0.00051413	   11.0692	0.000516177	   11.0692	   12.9044	
   11.0439	0.000515764	   11.0433	0.00052304	   11.0321	0.00051646	   11.0397	0.000518421	   11.0397	   12.9605	
    11.014	0.000517883	   11.0138	0.000525196	   11.0021	0.000518794	     11.01	0.000520624	     11.01	   13.0156	
   10.9837	0.000519973	   10.9837	0.000527329	   10.9716	0.000521103	   10.9797	0.000522802	   10.9797	     13.07	
   10.9527	0.000522094	    10.953	0.000529473	   10.9406	0.000523358	   10.9488	0.000524975	   10.9488	   13.1244	
   10.9214	0.000524265	   10.9219	0.00053164	   10.9093	0.000525556	   10.9175	0.000527154	   10.9175	   13.1788	
   10.8898	0.000526475	   10.8904	0.000533836	   10.8776	0.000527722	   10.8859	0.000529344	   10.8859	   13.2336	
   10.8579	0.00052867	   10.8585	0.000536037	   10.8456	0.00052988	    10.854	0.000531529	    10.854	   13.2882	
   10.8257	0.000530797	   10.8262	0.000538202	   10.8131	0.000532044	   10.8217	0.000533681	   10.8217	    13.342	
    10.793	0.000532838	   10.7934	0.000540303	   10.7802	0.000534205	   10.7889	0.000535782	   10.7889	   13.3945	
     10.76	0.000534808	   10.7602	0.000542325	   10.7468	0.000536363	   10.7557	0.000537832	   10.7557	   13.4458	
   10.7266	0.00053677	   10.7268	0.000544292	    10.713	0.000538504	   10.7221	0.000539855	   10.7221	   13.4964	
   10.6926	0.00053878	   10.6926	0.000546253	   10.6786	0.000540633	    10.688	0.000541889	    10.688	   13.5472	
   10.6581	0.000540844	   10.6579	0.000548258	   10.6437	0.000542733	   10.6532	0.000543945	   10.6532	   13.5986	
   10.6231	0.000542911	   10.6228	0.000550325	   10.6086	0.000544814	   10.6182	0.000546017	   10.6182	   13.6504	
   10.5878	0.000544905	   10.5873	0.000552435	   10.5731	0.000546862	   10.5827	0.000548067	   10.5827	   13.7017	
   10.5522	0.000546775	   10.5512	0.000554509	   10.5371	0.000548902	   10.5468	0.000550062	   10.5468	   13.7516	
    10.516	0.00054852	   10.5145	0.000556488	   10.5006	0.000550947	   10.5104	0.000551985	   10.5104	   13.7996	
   10.4793	0.000550205	   10.4775	0.000558367	   10.4637	0.000552999	   10.4735	0.000553857	   10.4735	   13.8464	
   10.4424	0.00055193	   10.4402	0.000560175	   10.4266	0.000555052	   10.4364	0.000555719	   10.4364	    13.893	
    10.405	0.000553774	   10.4025	  0.000562	    10.389	0.000557095	   10.3988	0.000557623	   10.3988	   13.9406	
    10.367	0.00055573	   10.3642	0.000563874	   10.3509	0.000559106	   10.3607	0.00055957	   10.3607	   13.9892	
   10.3286	0.000557721	   10.3256	0.000565836	   10.3125	0.00056107	   10.3222	0.000561542	   10.3222	   14.0386	
   10.2898	0.00055964	   10.2867	0.000567835	   10.2738	0.000562984	   10.2834	0.000563487	   10.2834	   14.0872	
   10.2509	0.000561408	   10.2473	0.000569797	   10.2346	0.000564872	   10.2443	0.000565359	   10.2443	    14.134	
   10.2113	0.000563028	   10.2073	0.00057167	   10.1951	0.000566761	   10.2046	0.000567153	   10.2046	   14.1788	
   10.1713	0.000564575	    10.167	0.000573436	   10.1552	0.000568657	   10.1645	0.000568889	   10.1645	   14.2222	
    10.131	0.000566143	   10.1264	0.000575137	   10.1151	0.000570554	   10.1242	0.000570612	   10.1242	   14.2653	
   10.0903	0.000567804	   10.0852	0.000576846	   10.0746	0.000572438	   10.0834	0.000572363	   10.0834	   14.3091	
    10.049	0.000569545	   10.0434	0.000578602	   10.0337	0.000574302	    10.042	0.00057415	    10.042	   14.3537	
   10.0074	0.000571315	   10.0012	0.000580427	   9.99248	0.000576135	   10.0004	0.000575959	   10.0004	    14.399	
   9.96545	0.000573015	   9.95895	0.000582281	   9.95086	0.000577934	   9.95842	0.000577744	   9.95842	   14.4436	
     9.923	0.000574594	   9.91619	0.000584102	   9.90874	0.000579709	   9.91597	0.000579468	   9.91597	   14.4867	
   9.88007	0.000576069	   9.87301	0.000585829	   9.86617	0.000581466	   9.87309	0.000581121	   9.87309	    14.528	
   9.83688	0.00057751	   9.82961	0.000587441	   9.82335	0.000583212	   9.82995	0.000582721	   9.82995	    14.568	
   9.79335	0.000578998	    9.7857	0.000588977	   9.78011	0.000584953	   9.78639	0.000584309	   9.78639	   14.6077	
   9.74923	0.00058057	   9.74127	0.000590503	    9.7363	0.000586668	   9.74227	0.000585914	   9.74227	   14.6478	
   9.70473	0.000582203	   9.69651	0.000592083	   9.69212	0.000588352	   9.69779	0.000587546	   9.69779	   14.6887	
   9.66003	0.000583827	   9.65144	0.000593725	   9.64778	0.000589994	   9.65308	0.000589182	   9.65308	   14.7295	
   9.61486	0.000585362	   9.60586	0.000595396	   9.60287	0.00059161	   9.60786	0.000590789	   9.60786	   14.7697	
   9.56921	0.00058678	   9.55986	0.000597023	   9.55748	0.00059324	   9.56218	0.000592348	   9.56218	   14.8087	
   9.52326	0.000588122	   9.51364	0.000598553	   9.51184	0.000594899	   9.51625	0.000593858	   9.51625	   14.8465	
   9.47705	0.000589461	   9.46705	0.000599966	   9.46595	0.000596562	   9.47002	0.00059533	   9.47002	   14.8833	
   9.43037	0.00059087	   9.42018	0.000601292	   9.41948	0.000598176	   9.42334	0.000596779	   9.42334	   14.9195	
   9.38331	0.000592371	   9.37298	0.000602607	   9.37321	0.000599664	    9.3765	0.000598214	    9.3765	   14.9554	
   9.33593	0.000593918	    9.3254	0.000603985	   9.32632	0.000601022	   9.32922	0.000599641	   9.32922	    14.991	
   9.28807	0.000595424	   9.27738	0.000605454	   9.28013	0.000602286	   9.28186	0.000601054	   9.28186	   15.0264	
   9.23977	0.000596813	   9.22898	0.000606989	   9.23282	0.000603559	   9.23386	0.000602454	   9.23386	   15.0613	
   9.19123	0.000598064	    9.1804	0.000608522	   9.18603	0.000604948	   9.18589	0.000603845	   9.18589	   15.0961	
   9.14211	0.000599223	   9.13142	0.000609979	   9.13731	0.000606454	   9.13695	0.000605219	   9.13695	   15.1305	
   9.09249	0.000600371	   9.08198	0.000611313	   9.08859	0.000608026	   9.08769	0.00060657	   9.08769	   15.1643	
   9.04261	0.000601582	    9.0323	0.000612529	   9.03863	0.000609534	   9.03784	0.000607882	   9.03784	    15.197	
   8.99225	0.00060288	    8.9823	0.000613693	   8.98849	0.000610879	   8.98768	0.00060915	   8.98768	   15.2288	
   8.94149	0.000604223	   8.93192	0.000614877	   8.93768	0.000612047	   8.93703	0.000610382	   8.93703	   15.2596	
   8.89043	0.000605541	   8.88124	0.000616125	   8.88709	0.000613099	   8.88625	0.000611588	   8.88625	   15.2897	
   8.83892	0.000606765	   8.83024	0.000617433	   8.83615	0.000614165	    8.8351	0.000612788	    8.8351	   15.3197	
     8.787	0.000607875	   8.77867	0.000618752	   8.78543	0.00061534	    8.7837	0.000613989	    8.7837	   15.3497	
   8.73474	0.000608909	   8.72678	0.000620017	   8.73388	0.000616639	    8.7318	0.000615188	    8.7318	   15.3797	
   8.68237	0.000609929	   8.67478	0.000621174	   8.68215	0.000617993	   8.67977	0.000616365	   8.67977	   15.4091	
   8.62951	0.000610996	   8.62252	0.000622211	   8.62966	0.000619289	   8.62723	0.000617499	   8.62723	   15.4375	
   8.57628	0.000612123	   8.56987	0.000623192	   8.57678	0.000620445	   8.57431	0.000618587	   8.57431	   15.4647	
   8.52292	0.000613271	   8.51693	0.000624209	   8.52331	0.000621451	   8.52105	0.000619644	   8.52105	   15.4911	
   8.46927	0.000614377	   8.46352	0.000625338	   8.46992	0.000622366	   8.46757	0.000620693	   8.46757	   15.5173	
   8.41522	0.000615389	   8.40972	0.000626564	   8.41621	0.00062329	   8.41372	0.000621748	   8.41372	   15.5437	
     8.361	0.000616308	   8.35561	0.000627809	    8.3623	0.000624286	   8.35964	0.000622801	   8.35964	     15.57	
    8.3064	0.000617179	   8.30115	0.000628972	   8.30785	0.000625368	   8.30513	0.000623839	   8.30513	    15.596	
   8.25139	0.000618061	   8.24645	0.000629986	   8.25298	0.000626482	   8.25027	0.000624843	   8.25027	   15.6211	
    8.1962	0.000618982	   8.19157	0.000630868	   8.19779	0.000627539	   8.19519	0.000625796	   8.19519	   15.6449	
   8.14091	0.000619918	   8.13631	0.00063171	   8.14223	0.000628476	   8.13981	0.000626701	   8.13981	   15.6675	
   8.08544	0.000620804	   8.08063	0.000632597	   8.08624	0.000629292	   8.08411	0.000627564	   8.08411	   15.6891	
   8.02993	0.000621581	   8.02477	0.000633573	   8.03008	0.000630034	   8.02826	0.000628396	   8.02826	   15.7099	
    7.9744	0.000622248	   7.96872	0.000634602	   7.97351	0.000630775	   7.97221	0.000629208	   7.97221	   15.7302	
   7.91837	0.000622868	   7.91238	0.000635604	   7.91653	0.000631564	   7.91576	0.000630012	   7.91576	   15.7503	
   7.86181	0.000623521	   7.85584	0.000636494	   7.85924	0.000632408	   7.85896	0.000630808	   7.85896	   15.7702	
   7.80457	0.000624272	    7.7988	0.000637247	   7.80186	0.000633268	   7.80175	0.000631596	   7.80175	   15.7899	
   7.74668	0.000625117	   7.74136	0.00063791	   7.74408	0.00063409	   7.74404	0.000632373	   7.74404	   15.8093	
   7.68809	0.000625972	   7.68361	0.000638563	   7.68615	0.000634835	   7.68595	0.000633123	   7.68595	   15.8281	
   7.62893	0.000626734	   7.62565	0.00063927	   7.62773	0.000635486	   7.62744	0.00063383	   7.62744	   15.8458	
   7.56947	0.000627332	    7.5673	0.000640052	   7.56896	0.000636062	   7.56858	0.000634482	   7.56858	    15.862	
   7.50994	0.000627783	   7.50881	0.000640854	   7.50984	0.000636596	   7.50953	0.000635078	   7.50953	   15.8769	
   7.45043	0.000628182	   7.44998	0.000641602	   7.45057	0.000637131	   7.45033	0.000635638	   7.45033	    15.891	
   7.39061	0.000628649	    7.3908	0.000642243	   7.39097	0.000637696	   7.39079	0.000636196	   7.39079	   15.9049	
   7.33072	0.000629252	    7.3315	0.000642775	   7.33129	0.000638302	   7.33117	0.000636776	   7.33117	   15.9194	
    7.2703	0.000629969	   7.27185	0.000643251	   7.27117	0.000638919	   7.27111	0.000637379	   7.27111	   15.9345	
   7.20949	0.00063069	   7.21187	0.00064373	   7.21077	0.000639491	   7.21071	0.00063797	   7.21071	   15.9493	
   7.14839	0.00063129	   7.15167	0.000644255	    7.1499	0.000639989	   7.14999	0.000638511	   7.14999	   15.9628	
   7.08684	0.000631697	    7.0911	0.000644829	   7.08874	0.000640365	   7.08889	0.000638963	   7.08889	   15.9741	
    7.0251	0.000631938	   7.03026	0.00064541	   7.02735	0.000640662	   7.02757	0.000639337	   7.02757	   15.9834	
   6.96328	0.000632127	   6.96911	0.000645944	   6.96584	0.000640945	   6.96608	0.000639672	   6.96608	   15.9918	
   6.90133	0.000632396	   6.90748	0.000646392	    6.9039	0.000641288	   6.90424	0.000640025	   6.90424	   16.0006	
   6.83922	0.000632816	   6.84565	0.00064676	   6.84178	0.000641709	   6.84222	0.000640429	   6.84222	   16.0107	
   6.77706	0.000633367	   6.78374	0.000647079	   6.77951	0.000642176	    6.7801	0.000640874	    6.7801	   16.0219	
   6.71453	0.000633945	    6.7214	0.000647397	   6.71686	0.000642601	    6.7176	0.000641314	    6.7176	   16.0329	
   6.65188	0.000634424	   6.65878	0.000647745	   6.65409	0.000642897	   6.65492	0.000641689	   6.65492	   16.0422	
   6.58866	0.000634735	   6.59557	0.000648132	   6.59094	0.000643031	   6.59172	0.000641966	   6.59172	   16.0491	
   6.52516	0.000634882	   6.53204	0.000648514	   6.52748	0.000643042	   6.52823	0.000642146	   6.52823	   16.0536	
   6.46134	0.000634949	   6.46833	0.000648846	   6.46384	0.000643015	   6.46451	0.00064227	   6.46451	   16.0567	
   6.39707	0.00063504	   6.40413	0.000649108	   6.39999	0.000643045	    6.4004	0.000642398	    6.4004	   16.0599	
   6.33261	0.000635225	   6.33972	0.00064928	   6.33591	0.000643175	   6.33608	0.00064256	   6.33608	    16.064	
    6.2682	0.000635512	   6.27511	0.000649415	   6.27173	0.000643376	   6.27168	0.000642768	   6.27168	   16.0692	
   6.20341	0.000635839	   6.21011	0.000649541	   6.20713	0.000643568	   6.20688	0.000642983	   6.20688	   16.0746	
   6.13848	0.000636123	   6.14498	0.000649696	   6.14237	0.000643665	   6.14194	0.000643161	   6.14194	    16.079	
   6.07334	0.000636299	   6.07963	0.000649872	    6.0772	0.000643629	   6.07672	0.000643266	   6.07672	   16.0817	
   6.00789	0.000636352	   6.01397	0.000650028	   6.01182	0.000643497	   6.01123	0.000643292	   6.01123	   16.0823	
   5.94239	0.000636326	   5.94827	0.000650145	   5.94638	0.000643323	   5.94568	0.000643265	   5.94568	   16.0816	
   5.87655	0.000636295	   5.88249	0.000650186	   5.88071	0.000643184	   5.87992	0.000643221	   5.87992	   16.0805	
   5.81048	0.000636308	   5.81647	0.000650164	    5.8148	0.000643078	   5.81392	0.000643183	   5.81392	   16.0796	
   5.74423	0.000636388	   5.75036	0.000650111	   5.74878	0.000642978	   5.74779	0.000643159	   5.74779	    16.079	
   5.67759	0.000636514	   5.68384	0.000650054	   5.68261	0.000642829	   5.68135	0.000643132	   5.68135	   16.0783	
   5.61084	0.000636607	   5.61717	0.00065002	   5.61628	0.000642584	   5.61476	0.000643071	   5.61476	   16.0768	
   5.54405	0.000636597	   5.55027	0.000649995	   5.54985	0.000642261	   5.54806	0.000642951	   5.54806	   16.0738	
   5.47696	0.000636437	   5.48307	0.000649954	   5.48319	0.000641902	   5.48107	0.000642764	   5.48107	   16.0691	
   5.40984	0.000636163	   5.41582	0.000649873	    5.4163	0.000641571	   5.41399	0.000642536	   5.41399	   16.0634	
   5.34225	0.000635863	   5.34838	0.000649732	    5.3489	0.000641307	   5.34651	 0.0006423	   5.34651	   16.0575	
   5.27448	0.000635623	   5.28072	0.00064954	   5.28128	0.00064109	   5.27883	0.000642084	   5.27883	   16.0521	
   5.20655	0.000635489	   5.21288	0.000649317	   5.21336	0.000640866	   5.21093	0.000641891	   5.21093	   16.0473	
   5.13842	0.000635427	   5.14481	0.000649087	   5.14535	0.000640566	   5.14286	0.000641693	   5.14286	   16.0423	
   5.07021	0.000635333	    5.0765	0.000648867	   5.07722	0.000640162	   5.07464	0.000641454	   5.07464	   16.0363	
   5.00165	0.000635145	     5.008	0.000648649	   5.00888	0.000639669	   5.00618	0.000641154	   5.00618	   16.0289	
   4.93286	0.000634818	   4.93936	0.000648411	   4.94027	0.000639137	    4.9375	0.000640789	    4.9375	   16.0197	
   4.86396	0.000634414	   4.87059	0.000648129	   4.87139	0.000638627	   4.86865	0.00064039	   4.86865	   16.0097	
   4.79468	0.000634022	    4.8014	0.00064779	   4.80208	0.00063817	   4.79939	0.000639994	   4.79939	   15.9998	
   4.72529	 0.0006337	   4.73207	0.000647404	   4.73265	0.000637756	      4.73	0.00063962	      4.73	   15.9905	
   4.65571	0.000633465	   4.66231	0.000646987	   4.66301	0.000637338	   4.66034	0.000639263	   4.66034	   15.9816	
   4.58587	0.000633243	   4.59228	0.00064656	    4.5931	0.000636861	   4.59042	0.000638888	   4.59042	   15.9722	
   4.51605	0.000632957	   4.52227	0.000646136	   4.52304	0.000636292	   4.52045	0.000638462	   4.52045	   15.9615	
   4.44616	0.000632559	   4.45201	0.000645705	    4.4529	0.000635635	   4.45036	0.000637966	   4.45036	   15.9492	
    4.3761	0.00063205	   4.38161	0.000645249	   4.38261	0.000634932	   4.38011	0.000637411	   4.38011	   15.9353	
   4.30589	0.000631487	   4.31106	0.000644748	   4.31215	0.000634237	    4.3097	0.000636824	    4.3097	   15.9206	
   4.23536	0.00063093	   4.24023	0.000644193	   4.24153	0.000633583	   4.23904	0.000636235	   4.23904	   15.9059	
   4.16482	0.000630419	   4.16938	0.000643586	   4.17087	0.000632965	   4.16835	0.000635657	   4.16835	   15.8914	
   4.09393	0.000629948	   4.09832	0.000642943	   4.09997	0.000632347	   4.09741	0.000635079	   4.09741	    15.877	
   4.02289	0.000629467	   4.02711	0.000642277	   4.02889	0.000631672	    4.0263	0.000634472	    4.0263	   15.8618	
   3.95167	0.000628939	   3.95573	0.000641592	    3.9579	0.000630908	    3.9551	0.000633813	    3.9551	   15.8453	
   3.88015	0.00062834	   3.88405	0.000640884	   3.88658	0.000630029	   3.88359	0.000633084	   3.88359	   15.8271	
   3.80862	0.00062766	   3.81237	0.000640152	   3.81519	0.000629089	   3.81206	 0.0006323	   3.81206	   15.8075	
   3.73692	0.000626935	   3.74065	0.000639393	   3.74374	0.00062816	   3.74044	0.000631496	   3.74044	   15.7874	
   3.66505	0.000626206	   3.66876	0.000638615	   3.67209	0.000627303	   3.66863	0.000630708	   3.66863	   15.7677	
   3.59329	0.000625497	   3.59698	0.000637823	    3.6005	0.000626529	   3.59692	0.000629949	   3.59692	   15.7487	
    3.5212	0.000624813	   3.52498	0.000637005	   3.52854	0.000625783	   3.52491	 0.0006292	   3.52491	     15.73	
   3.44908	0.000624117	   3.45278	0.000636142	   3.45638	0.000624983	   3.45275	0.000628414	   3.45275	   15.7103	
   3.37677	0.000623394	    3.3804	0.000635208	   3.38415	0.000624057	   3.38044	0.000627553	   3.38044	   15.6888	
   3.30429	0.000622621	   3.30784	0.000634198	   3.31171	0.000622987	   3.30795	0.000626602	   3.30795	    15.665	
   3.23167	0.000621792	   3.23538	0.000633124	   3.23923	0.000621816	   3.23543	0.000625577	   3.23543	   15.6394	
   3.15889	0.000620923	    3.1626	0.000632019	    3.1664	0.000620627	   3.16263	0.000624523	   3.16263	   15.6131	
   3.08608	0.000620026	   3.08977	0.00063092	   3.09353	0.000619499	   3.08979	0.000623482	   3.08979	    15.587	
   3.01316	0.000619124	   3.01683	0.000629854	   3.02053	0.000618459	   3.01684	0.000622479	   3.01684	    15.562	
   2.94006	0.000618222	   2.94372	0.000628818	   2.94734	0.000617478	   2.94371	0.000621506	   2.94371	   15.5377	
   2.86694	0.000617312	    2.8707	0.000627784	   2.87396	0.000616475	   2.87053	0.000620524	   2.87053	   15.5131	
    2.7935	0.000616393	   2.79736	0.000626704	   2.80041	0.000615378	   2.79709	0.000619492	   2.79709	   15.4873	
   2.72005	0.000615447	   2.72398	0.000625537	   2.72683	0.000614154	   2.72362	0.00061838	   2.72362	   15.4595	
    2.6465	0.000614458	   2.65038	0.000624266	   2.65326	0.000612835	   2.65005	0.000617186	   2.65005	   15.4297	
    2.5728	0.000613415	   2.57662	0.000622916	   2.57951	0.000611491	   2.57631	0.000615941	   2.57631	   15.3985	
   2.49921	0.000612323	   2.50283	0.000621533	   2.50559	0.000610191	   2.50254	0.000614682	   2.50254	   15.3671	
   2.42549	0.000611202	   2.42892	0.000620167	   2.43154	0.000608957	   2.42865	0.000613442	   2.42865	    15.336	
   2.35175	0.00061007	     2.355	0.000618845	   2.35748	0.000607759	   2.35474	0.000612225	   2.35474	   15.3056	
    2.2777	0.000608944	   2.28078	0.000617556	   2.28326	0.00060653	   2.28058	0.00061101	   2.28058	   15.2753	
   2.20351	0.000607816	   2.20642	0.00061626	   2.20888	0.00060521	   2.20627	0.000609762	   2.20627	   15.2441	
   2.12945	0.000606661	   2.13221	0.000614906	   2.13447	0.000603785	   2.13204	0.000608451	   2.13204	   15.2113	
    2.0551	0.000605458	   2.05772	0.000613464	    2.0599	0.000602286	   2.05757	0.000607069	   2.05757	   15.1767	
   1.98075	0.000604191	   1.98323	0.000611944	   1.98533	0.000600776	    1.9831	0.000605637	    1.9831	   15.1409	
   1.90626	0.000602868	   1.90862	0.000610382	   1.91062	0.000599308	    1.9085	0.000604186	    1.9085	   15.1047	
   1.83164	0.000601505	   1.83388	0.000608829	   1.83579	0.000597897	   1.83377	0.000602744	   1.83377	   15.0686	
   1.75694	0.000600126	    1.7593	0.000607311	     1.761	0.00059651	   1.75908	0.000601315	   1.75908	   15.0329	
     1.682	0.000598746	   1.68445	0.000605818	   1.68595	0.000595082	   1.68413	0.000599882	   1.68413	    14.997	
   1.60709	0.00059736	   1.60963	0.000604317	   1.61094	0.000593562	   1.60922	0.000598413	   1.60922	   14.9603	
   1.53214	0.000595953	    1.5346	0.000602763	   1.53573	0.000591947	   1.53416	0.000596888	   1.53416	   14.9222	
    1.4571	0.000594504	   1.45947	0.000601133	   1.46043	0.000590279	     1.459	0.000595305	     1.459	   14.8826	
   1.38224	  0.000593	    1.3844	0.000599433	   1.38505	0.000588635	    1.3839	0.000593689	    1.3839	   14.8422	
   1.30714	0.000591449	   1.30909	0.000597692	   1.30946	0.000587061	   1.30856	0.000592067	   1.30856	   14.8017	
   1.23208	0.000589868	   1.23384	0.00059595	   1.23361	0.000585561	   1.23318	0.00059046	   1.23318	   14.7615	
   1.15699	0.000588297	   1.15859	0.000594231	   1.15746	0.000584069	   1.15768	0.000588866	   1.15768	   14.7216	
   1.08181	0.00058673	   1.08325	0.000592533	    1.0813	0.000582501	   1.08212	0.000587255	   1.08212	   14.6814	
   1.00668	0.000585149	   1.00798	0.00059083	   1.00528	0.000580808	   1.00665	0.000585596	   1.00665	   14.6399	
  0.931314	0.000583502	  0.932657	0.00058911	   0.92946	0.000579031	  0.931144	0.000583881	  0.931144	    14.597	
  0.856013	0.000581759	  0.857396	0.000587341	   0.85386	0.000577239	  0.855757	0.000582113	  0.855757	   14.5528	
  0.780635	0.000579926	   0.78192	0.000585509	  0.777944	0.000575494	  0.780167	0.00058031	  0.780167	   14.5077	
  0.705185	0.00057804	  0.706381	0.000583602	   0.70188	0.00057383	  0.704482	0.000578491	  0.704482	   14.4623	
  0.629941	0.00057616	  0.631058	0.000581646	  0.625748	0.000572185	  0.628916	0.000576664	  0.628916	   14.4166	
  0.554477	0.000574312	  0.555522	0.00057967	  0.549489	0.000570483	  0.553163	0.000574822	  0.553163	   14.3705	
  0.479083	0.000572495	  0.480065	0.000577692	  0.473935	0.000568656	  0.477694	0.000572948	  0.477694	   14.3237	
  0.403482	0.000570679	  0.404681	0.000575749	  0.397936	0.000566746	  0.402033	0.000571058	  0.402033	   14.2765	
  0.327827	0.000568829	  0.329226	0.000573848	  0.322792	0.000564816	  0.326615	0.000569164	  0.326615	   14.2291	
  0.252055	0.000566922	  0.253866	0.000571964	  0.247056	0.00056294	  0.250992	0.000567275	  0.250992	   14.1819	
  0.176109	0.000564957	  0.178295	0.000570049	  0.171845	0.000561163	  0.175416	0.00056539	  0.175416	   14.1347	
  0.100277	0.000562952	  0.102805	0.000568063	 0.0958886	0.000559435	  0.099657	0.000563483	  0.099657	   14.0871	
 0.0243144	0.000560924	 0.0271516	0.000566004	 0.0206823	0.000557671	 0.0240494	0.000561533	 0.0240494	   14.0383	
-0.0516634	0.000558878	 -0.048548	0.000563899	-0.0549274	0.000555786	-0.0517129	0.000559521	-0.0517129	    13.988	
 -0.127651	0.000556806	 -0.124152	0.000561795	 -0.129885	0.000553753	 -0.127229	0.000557451	 -0.127229	   13.9363	
 -0.203785	0.000554705	 -0.199803	0.000559726	   -0.2052	0.000551631	 -0.202929	0.000555354	 -0.202929	   13.8838	
 -0.279777	0.000552582	 -0.275362	0.000557691	 -0.280264	0.000549499	 -0.278468	0.000553257	 -0.278468	   13.8314	
 -0.355819	0.000550437	 -0.351018	0.000555658	  -0.35568	0.000547442	 -0.354172	0.000551179	 -0.354172	   13.7795	
  -0.43186	0.000548274	 -0.426718	0.000553582	   -0.4306	0.000545481	 -0.429726	0.000549112	 -0.429726	   13.7278	
  -0.50776	0.000546103	  -0.50232	0.000551451	 -0.506023	0.000543566	 -0.505368	0.00054704	 -0.505368	    13.676	
 -0.583632	0.000543912	 -0.577932	0.000549266	 -0.580953	0.000541617	 -0.580839	0.000544932	 -0.580839	   13.6233	
 -0.659488	0.000541697	 -0.653454	0.000547061	 -0.656181	0.000539556	 -0.656375	0.000542771	 -0.656375	   13.5693	
  -0.73535	0.000539454	  -0.72889	0.000544861	 -0.731208	0.000537366	 -0.731816	0.00054056	 -0.731816	    13.514	
 -0.811216	0.000537179	 -0.804385	0.000542675	 -0.806322	0.000535107	 -0.807308	0.00053832	 -0.807308	    13.458	
 -0.886812	0.000534887	 -0.879661	0.000540485	 -0.881246	0.00053285	 -0.882573	0.000536074	 -0.882573	   13.4019	
 -0.962455	0.000532598	 -0.955032	0.000538269	 -0.956178	0.000530669	 -0.957888	0.000533845	 -0.957888	   13.3461	
  -1.03798	0.000530327	  -1.03033	0.000536001	  -1.03107	0.000528553	  -1.03313	0.000531627	  -1.03313	   13.2907	
  -1.11381	0.000528076	  -1.10556	0.000533674	  -1.10621	0.000526442	  -1.10853	0.000529397	  -1.10853	   13.2349	
  -1.18965	0.000525808	  -1.18088	0.000531309	  -1.18127	0.000524252	  -1.18393	0.000527123	  -1.18393	   13.1781	
  -1.26533	0.000523491	   -1.2561	0.000528936	  -1.25625	0.000521923	  -1.25923	0.000524783	  -1.25923	   13.1196	
  -1.34101	0.000521105	  -1.33113	0.000526576	  -1.33107	0.00051947	   -1.3344	0.000522384	   -1.3344	   13.0596	
  -1.41644	0.000518679	  -1.40612	0.000524218	  -1.40587	0.000516971	  -1.40948	0.000519956	  -1.40948	   12.9989	
  -1.49132	0.00051623	  -1.48081	0.000521829	  -1.48039	0.000514522	  -1.48417	0.000517527	  -1.48417	   12.9382	
  -1.56629	0.000513811	  -1.55551	0.000519375	  -1.55483	0.000512181	  -1.55888	0.000515122	  -1.55888	   12.8781	
  -1.64119	0.000511418	  -1.63007	0.000516832	  -1.62915	0.000509921	  -1.63347	0.000512724	  -1.63347	   12.8181	
  -1.71618	0.000509033	  -1.70478	0.000514218	  -1.70365	0.000507655	   -1.7082	0.000510302	   -1.7082	   12.7575	
  -1.79059	0.000506601	  -1.77949	0.000511579	  -1.77818	0.000505288	  -1.78275	0.000507823	  -1.78275	   12.6956	
  -1.86496	0.000504084	  -1.85416	0.000508965	  -1.85257	0.000502767	  -1.85723	0.000505272	  -1.85723	   12.6318	
  -1.93932	0.000501493	  -1.92884	0.000506401	    -1.927	0.000500115	  -1.93172	0.00050267	  -1.93172	   12.5667	
  -2.01328	0.000498833	  -2.00339	0.000503868	  -2.00134	0.000497408	  -2.00601	0.000500036	  -2.00601	   12.5009	
  -2.08722	0.000496149	  -2.07773	0.000501318	  -2.07533	0.000494738	   -2.0801	0.000497402	   -2.0801	    12.435	
  -2.16122	0.000493481	  -2.15213	0.000498695	  -2.14941	0.000492155	  -2.15425	0.000494777	  -2.15425	   12.3694	
  -2.23567	0.000490827	  -2.22629	0.000495972	  -2.22344	0.000489637	  -2.22847	0.000492145	  -2.22847	   12.3036	
  -2.30946	0.000488187	  -2.30053	0.000493169	  -2.29756	0.000487123	  -2.30252	0.000489493	  -2.30252	   12.2373	
  -2.38361	0.000485517	   -2.3747	0.000490333	  -2.37164	0.000484535	  -2.37665	0.000486795	  -2.37665	   12.1699	
  -2.45699	0.000482782	  -2.44854	0.000487517	  -2.44555	0.000481831	  -2.45036	0.000484043	  -2.45036	   12.1011	
  -2.53036	0.000479983	  -2.52249	0.000484748	  -2.51958	0.000479014	  -2.52414	0.000481248	  -2.52414	   12.0312	
  -2.60332	0.000477111	  -2.59628	0.00048201	  -2.59358	0.000476136	  -2.59773	0.000478419	  -2.59773	   11.9605	
   -2.6766	0.00047423	  -2.66992	0.000479261	  -2.66744	0.000473281	  -2.67132	0.000475591	  -2.67132	   11.8898	
  -2.74935	0.00047136	  -2.74358	0.000476454	  -2.74131	0.000470488	  -2.74475	0.000472767	  -2.74475	   11.8192	
  -2.82246	0.000468517	  -2.81712	0.000473566	  -2.81491	0.000467761	  -2.81816	0.000469948	  -2.81816	   11.7487	
  -2.89521	0.000465692	  -2.89055	0.000470607	  -2.88855	0.000465037	  -2.89144	0.000467112	  -2.89144	   11.6778	
   -2.9682	0.000462837	   -2.9639	0.000467615	   -2.9621	0.000462257	  -2.96473	0.000464236	  -2.96473	   11.6059	
  -3.04087	0.00045994	  -3.03705	0.000464638	  -3.03543	0.000459376	  -3.03778	0.000461318	  -3.03778	   11.5329	
  -3.11365	0.000456992	  -3.11028	0.000461698	  -3.10885	0.000456393	  -3.11093	0.000458361	  -3.11093	    11.459	
  -3.18629	0.000454011	  -3.18333	0.000458784	  -3.18208	0.000453357	   -3.1839	0.000455384	   -3.1839	   11.3846	
  -3.25907	0.000451025	  -3.25636	0.000455859	  -3.25514	0.00045033	  -3.25685	0.000452405	  -3.25685	   11.3101	
  -3.33185	0.000448041	  -3.32938	0.000452884	  -3.32819	0.000447359	  -3.32981	0.000449428	  -3.32981	   11.2357	
  -3.40465	0.000445063	  -3.40239	0.000449837	  -3.40098	0.000444437	  -3.40267	0.000446446	  -3.40267	   11.1611	
   -3.4772	0.000442083	  -3.47514	0.000446731	  -3.47394	0.000441541	  -3.47542	0.000443452	  -3.47542	   11.0863	
  -3.54967	0.000439075	  -3.54779	0.000443598	  -3.54679	0.000438621	  -3.54808	0.000440431	  -3.54808	   11.0108	
   -3.6218	0.000436046	   -3.6201	0.000440472	  -3.61941	0.000435647	  -3.62044	0.000437388	  -3.62044	   10.9347	
  -3.69405	0.000432981	  -3.69236	0.000437375	  -3.69185	0.000432614	  -3.69275	0.000434323	  -3.69275	   10.8581	
  -3.76614	0.00042989	  -3.76447	0.000434297	  -3.76411	0.000429534	  -3.76491	0.00043124	  -3.76491	    10.781	
   -3.8381	0.000426776	  -3.83644	0.000431213	  -3.83597	0.000426428	  -3.83684	0.000428139	  -3.83684	   10.7035	
  -3.90994	0.000423641	  -3.90831	0.000428092	  -3.90786	0.000423306	   -3.9087	0.000425013	   -3.9087	   10.6253	
  -3.98157	0.000420509	  -3.97995	0.000424913	  -3.97939	0.00042017	   -3.9803	0.000421864	   -3.9803	   10.5466	
  -4.05273	0.000417375	  -4.05126	0.000421684	  -4.05089	0.000417013	  -4.05163	0.000418691	  -4.05163	   10.4673	
  -4.12389	0.000414237	  -4.12256	0.000418434	  -4.12236	0.000413819	  -4.12294	0.000415497	  -4.12294	   10.3874	
   -4.1948	0.000411089	  -4.19359	0.000415191	  -4.19355	0.000410581	  -4.19398	0.000412287	  -4.19398	   10.3072	
  -4.26576	0.000407915	  -4.26439	0.000411974	   -4.2645	0.000407318	  -4.26488	0.000409069	  -4.26488	   10.2267	
  -4.33666	0.000404722	  -4.33499	0.000408767	  -4.33539	0.000404056	  -4.33568	0.000405848	  -4.33568	   10.1462	
  -4.40723	0.00040151	  -4.40531	0.000405548	  -4.40595	0.000400818	  -4.40616	0.000402625	  -4.40616	   10.0656	
   -4.4778	0.000398286	  -4.47536	0.000402283	  -4.47652	0.000397597	  -4.47656	0.000399389	  -4.47656	   9.98472	
  -4.54825	0.000395056	  -4.54535	0.000398961	  -4.54697	0.000394362	  -4.54686	0.000396126	  -4.54686	   9.90315	
  -4.61833	0.000391814	  -4.61515	0.000395587	  -4.61706	0.000391081	  -4.61685	0.000392827	  -4.61685	   9.82068	
  -4.68837	0.000388553	   -4.6848	0.000392185	  -4.68697	0.000387731	  -4.68671	0.00038949	  -4.68671	   9.73725	
  -4.75826	0.000385267	  -4.75433	0.000388791	  -4.75673	0.000384328	  -4.75644	0.000386129	  -4.75644	   9.65323	
  -4.82775	0.000381952	  -4.82365	0.000385419	  -4.82625	0.000380908	  -4.82588	0.000382759	  -4.82588	   9.56899	
  -4.89716	0.000378614	  -4.89278	0.000382062	  -4.89557	0.000377505	  -4.89517	0.000379394	  -4.89517	   9.48485	
  -4.96641	0.000375266	  -4.96177	0.000378685	  -4.96472	0.000374137	   -4.9643	0.000376029	   -4.9643	   9.40073	
  -5.03537	0.000371915	  -5.03038	0.000375243	  -5.03347	0.000370778	  -5.03307	0.000372645	  -5.03307	   9.31613	
  -5.10425	0.000368562	  -5.09894	0.000371728	  -5.10215	0.000367385	  -5.10178	0.000369225	  -5.10178	   9.23063	
  -5.17293	0.000365198	  -5.16735	0.000368168	  -5.17066	0.000363944	  -5.17031	0.00036577	  -5.17031	   9.14425	
  -5.24131	0.000361806	  -5.23536	0.000364611	  -5.23876	0.000360444	  -5.23848	0.000362287	  -5.23848	   9.05717	
  -5.30959	0.000358375	  -5.30305	 0.0003611	  -5.30665	0.000356922	  -5.30643	0.000358799	  -5.30643	   8.96998	
  -5.37767	0.00035491	  -5.37059	0.000357647	  -5.37437	0.000353406	  -5.37421	0.000355321	  -5.37421	   8.88303	
  -5.44531	0.000351423	  -5.43777	0.000354219	   -5.4417	0.000349918	  -5.44159	0.000351853	  -5.44159	   8.79633	
  -5.51285	0.000347932	  -5.50491	0.000350759	  -5.50897	0.000346456	  -5.50891	0.000348383	  -5.50891	   8.70956	
  -5.58019	0.000344449	  -5.57191	0.000347214	  -5.57607	0.000342989	  -5.57606	0.000344884	  -5.57606	    8.6221	
  -5.64725	0.000340973	  -5.63854	0.000343563	  -5.64292	0.000339486	   -5.6429	0.000341341	   -5.6429	   8.53351	
   -5.7142	0.00033749	    -5.705	0.000339828	  -5.70943	0.00033592	  -5.70954	0.000337746	  -5.70954	   8.44365	
  -5.78097	0.00033398	  -5.77133	0.000336067	   -5.7758	0.000332288	  -5.77603	0.000334112	  -5.77603	   8.35279	
  -5.84745	0.00033043	  -5.83731	0.000332337	   -5.8418	0.000328611	  -5.84219	0.000330459	  -5.84219	   8.26149	
  -5.91384	0.000326842	  -5.90314	0.000328668	  -5.90749	0.000324922	  -5.90816	0.000326811	  -5.90816	   8.17028	
  -5.98004	0.00032323	  -5.96886	0.000325054	  -5.97308	0.000321252	    -5.974	0.000323179	    -5.974	   8.07947	
  -6.04584	0.000319614	  -6.03426	0.000321449	  -6.03834	0.000317609	  -6.03948	0.000319558	  -6.03948	   7.98894	
  -6.11144	0.000316006	  -6.09952	0.000317804	  -6.10346	0.000313983	   -6.1048	0.000315931	   -6.1048	   7.89827	
  -6.17688	0.000312406	   -6.1647	0.000314073	   -6.1685	0.00031034	  -6.17003	0.000312273	  -6.17003	   7.80682	
  -6.24195	 0.0003088	  -6.22956	0.000310259	  -6.23323	0.000306653	  -6.23492	0.000308571	  -6.23492	   7.71427	
  -6.30672	0.000305173	  -6.29431	0.000306405	  -6.29758	0.000302909	  -6.29954	0.000304829	  -6.29954	   7.62072	
  -6.37125	0.000301517	  -6.35886	0.000302563	  -6.36189	0.000299122	    -6.364	0.000301068	    -6.364	   7.52669	
  -6.43545	0.000297832	  -6.42313	0.000298777	  -6.42593	0.000295318	  -6.42817	0.000297309	  -6.42817	   7.43272	
  -6.49927	0.000294125	  -6.48692	0.000295028	  -6.48963	0.000291538	  -6.49194	0.000293564	  -6.49194	   7.33909	
  -6.56292	0.00029041	  -6.55056	0.000291294	   -6.5532	0.000287787	  -6.55556	0.00028983	  -6.55556	   7.24576	
  -6.62631	0.000286691	  -6.61399	0.000287521	  -6.61655	0.000284052	  -6.61895	0.000286088	  -6.61895	    7.1522	
  -6.68937	0.00028297	  -6.67714	0.00028368	  -6.67948	0.000280301	    -6.682	0.000282317	    -6.682	   7.05792	
  -6.75219	0.000279245	  -6.73992	0.000279783	  -6.74206	0.000276503	  -6.74472	0.00027851	  -6.74472	   6.96276	
  -6.81482	0.000275504	  -6.80256	0.000275865	  -6.80452	0.000272654	   -6.8073	0.000274674	   -6.8073	   6.86686	
  -6.87705	0.000271739	  -6.86485	0.000271962	  -6.86662	0.000268763	  -6.86951	0.000270821	  -6.86951	   6.77053	
  -6.93883	0.000267946	  -6.92685	0.000268102	  -6.92819	0.000264869	  -6.93129	0.000266972	  -6.93129	   6.67431	
  -7.00053	0.000264124	  -6.98878	0.00026427	  -6.98931	0.000261003	  -6.99287	0.000263132	  -6.99287	   6.57831	
  -7.06192	0.000260283	  -7.05043	0.000260438	  -7.05021	0.000257178	  -7.05419	 0.0002593	  -7.05419	    6.4825	
  -7.12281	0.000256431	  -7.11159	0.000256575	  -7.11083	0.000253376	  -7.11508	0.000255461	  -7.11508	   6.38652	
  -7.18342	0.000252576	  -7.17262	0.000252664	  -7.17124	0.00024956	  -7.17576	 0.0002516	  -7.17576	   6.28999	
  -7.24385	0.00024872	  -7.23346	0.000248717	  -7.23152	0.00024571	  -7.23627	0.000247716	  -7.23627	    6.1929	
  -7.30387	0.000244855	   -7.2939	0.000244747	  -7.29145	0.000241822	  -7.29641	0.000243808	  -7.29641	   6.09519	
  -7.36345	0.00024097	  -7.35402	0.000240784	  -7.35099	0.000237913	  -7.35616	0.000239889	  -7.35616	   5.99722	
  -7.42282	0.000237054	  -7.41405	0.000236847	  -7.41036	0.00023401	  -7.41575	0.00023597	  -7.41575	   5.89926	
  -7.48192	0.000233104	  -7.47378	0.000232931	  -7.46951	0.000230134	  -7.47507	0.000232056	  -7.47507	   5.80141	
  -7.54056	0.000229129	  -7.53302	0.000229024	  -7.52823	0.000226284	  -7.53393	0.000228146	  -7.53393	   5.70364	
  -7.59897	0.000225144	    -7.592	0.000225098	  -7.58676	0.000222447	  -7.59258	0.00022423	  -7.59258	   5.60575	
  -7.65723	0.000221162	  -7.65081	0.000221138	  -7.64504	0.000218601	  -7.65103	 0.0002203	  -7.65103	    5.5075	
  -7.71515	0.000217187	  -7.70925	0.000217146	  -7.70301	0.000214735	  -7.70914	0.000216356	  -7.70914	    5.4089	
  -7.77269	 0.0002132	  -7.76727	0.000213133	   -7.7605	0.000210845	  -7.76682	0.000212393	  -7.76682	   5.30983	
   -7.8298	0.000209182	  -7.82484	0.000209126	  -7.81775	0.00020694	  -7.82413	0.000208416	  -7.82413	    5.2104	
  -7.88672	0.000205131	   -7.8822	0.000205134	  -7.87484	0.000203035	  -7.88125	0.000204433	  -7.88125	   5.11083	
  -7.94327	0.000201058	  -7.93915	0.000201154	  -7.93158	0.00019914	    -7.938	0.000200451	    -7.938	   5.01127	
  -7.99953	0.000196999	  -7.99567	0.000197179	  -7.98779	0.000195258	  -7.99433	0.000196479	  -7.99433	   4.91197	
  -8.05562	0.000192962	  -8.05185	0.000193191	  -8.04373	0.000191379	   -8.0504	0.000192511	   -8.0504	   4.81277	
  -8.11147	0.000188943	  -8.10779	0.000189179	  -8.09949	0.000187485	  -8.10625	0.000188536	  -8.10625	   4.71339	
   -8.1669	0.000184923	  -8.16332	0.000185142	  -8.15488	0.000183571	   -8.1617	0.000184545	   -8.1617	   4.61363	
  -8.22202	0.000180874	  -8.21854	0.00018108	  -8.20973	0.000179633	  -8.21676	0.000180529	  -8.21676	   4.51322	
  -8.27679	0.00017678	  -8.27354	0.000177001	   -8.2643	0.000175678	  -8.27154	0.000176486	  -8.27154	   4.41215	
  -8.33132	0.000172654	  -8.32829	0.000172928	  -8.31868	0.000171725	   -8.3261	0.000172436	   -8.3261	   4.31089	
  -8.38544	0.000168507	  -8.38261	0.000168876	  -8.37271	0.00016779	  -8.38025	0.000168391	  -8.38025	   4.20977	
  -8.43911	0.000164364	  -8.43647	0.000164857	  -8.42648	0.000163877	  -8.43402	0.000164366	  -8.43402	   4.10915	
  -8.49259	0.000160237	  -8.48986	0.000160851	  -8.48009	0.000159963	  -8.48752	0.00016035	  -8.48752	   4.00876	
  -8.54584	0.000156142	  -8.54303	0.00015683	  -8.53337	0.000156013	  -8.54075	0.000156328	  -8.54075	   3.90821	
  -8.59869	0.00015207	  -8.59581	0.000152767	  -8.58629	0.000152013	   -8.5936	0.000152283	   -8.5936	   3.80709	
  -8.65126	0.000148007	  -8.64805	0.000148651	  -8.63868	0.000147972	    -8.646	0.00014821	    -8.646	   3.70525	
  -8.70337	0.000143936	  -8.70013	0.000144501	  -8.69082	0.000143924	  -8.69811	0.00014412	  -8.69811	   3.60301	
  -8.75528	0.000139833	  -8.75204	0.000140351	  -8.74281	0.000139902	  -8.75004	0.000140029	  -8.75004	   3.50072	
  -8.80684	0.000135688	  -8.80358	0.000136227	  -8.79447	0.000135943	  -8.80163	0.000135953	  -8.80163	   3.39882	
  -8.85814	0.000131514	  -8.85462	0.000132133	  -8.84564	0.000132011	   -8.8528	0.000131886	   -8.8528	   3.29715	
  -8.90877	0.000127324	  -8.90554	0.000128044	  -8.89659	0.000128066	  -8.90363	0.000127812	  -8.90363	   3.19529	
  -8.95912	0.000123151	  -8.95631	0.000123922	  -8.94742	0.000124046	  -8.95429	0.000123706	  -8.95429	   3.09266	
  -9.00919	0.000119012	  -9.00677	0.000119755	  -8.99797	0.00011994	  -9.00464	0.000119569	  -9.00464	   2.98923	
  -9.05895	0.00011495	  -9.05675	0.000115544	  -9.04807	0.000115774	  -9.05459	0.000115423	  -9.05459	   2.88557	
  -9.10838	0.000110929	  -9.10626	0.000111327	  -9.09772	0.000111613	  -9.10412	0.00011129	  -9.10412	   2.78224	
  -9.15761	0.000106904	  -9.15555	0.00010713	   -9.1469	0.000107509	  -9.15335	0.000107181	  -9.15335	   2.67953	
  -9.20647	0.000102797	  -9.20461	0.000102963	   -9.1959	0.000103479	  -9.20233	0.00010308	  -9.20233	   2.57699	
  -9.25387	9.85705e-05	  -9.25329	9.88138e-05	  -9.24455	9.95009e-05	  -9.25057	9.89617e-05	  -9.25057	   2.47404	
  -9.30126	9.4239e-05	  -9.30143	9.46578e-05	   -9.2927	9.55266e-05	  -9.29847	9.48078e-05	  -9.29847	   2.37019	
  -9.34724	8.98724e-05	  -9.34932	9.04661e-05	  -9.34037	9.15032e-05	  -9.34564	9.06139e-05	  -9.34564	   2.26535	
  -9.39422	8.55776e-05	  -9.39681	8.62323e-05	  -9.38768	8.74089e-05	  -9.39291	8.64062e-05	  -9.39291	   2.16016	
  -9.44017	8.1434e-05	  -9.44403	8.19708e-05	  -9.43478	8.32533e-05	  -9.43966	8.22194e-05	  -9.43966	   2.05548	
  -9.48706	7.74602e-05	  -9.49084	7.77096e-05	  -9.48151	7.90872e-05	  -9.48647	7.80857e-05	  -9.48647	   1.95214	
  -9.53382	7.35893e-05	   -9.5371	7.34735e-05	  -9.52774	7.4945e-05	  -9.53289	7.40026e-05	  -9.53289	   1.85006	
  -9.58097	6.97129e-05	  -9.58269	6.92674e-05	  -9.57333	7.08685e-05	    -9.579	6.99496e-05	    -9.579	   1.74874	
  -9.62696	6.57247e-05	  -9.62804	6.50766e-05	   -9.6186	6.68205e-05	  -9.62453	6.58739e-05	  -9.62453	   1.64685	
  -9.67279	6.15834e-05	  -9.67316	6.08734e-05	  -9.66367	6.2761e-05	  -9.66987	6.17393e-05	  -9.66987	   1.54348	
  -9.71778	5.73361e-05	  -9.71789	5.6633e-05	  -9.70839	5.86291e-05	  -9.71469	5.75327e-05	  -9.71469	   1.43832	
  -9.76237	5.30842e-05	  -9.76211	5.23529e-05	  -9.75265	5.44013e-05	  -9.75904	5.32795e-05	  -9.75904	   1.33199	
  -9.80604	4.89247e-05	  -9.80571	4.80537e-05	  -9.79672	5.01151e-05	  -9.80282	4.90312e-05	  -9.80282	   1.22578	
  -9.84992	4.4893e-05	  -9.84911	4.37742e-05	  -9.84059	4.58331e-05	  -9.84654	4.48335e-05	  -9.84654	   1.12084	
  -9.89303	4.09614e-05	  -9.89232	3.9541e-05	  -9.88412	4.16297e-05	  -9.88983	4.07107e-05	  -9.88983	   1.01777	
  -9.93623	3.7041e-05	   -9.9352	3.53576e-05	  -9.92733	3.75323e-05	  -9.93292	3.66436e-05	  -9.93292	  0.916091	
   -9.9788	3.30426e-05	  -9.97762	3.11945e-05	  -9.97008	3.35052e-05	   -9.9755	3.25808e-05	   -9.9755	  0.814519	
  -10.0215	2.8926e-05	  -10.0195	2.70078e-05	  -10.0123	2.94784e-05	  -10.0177	2.84707e-05	  -10.0177	  0.711768	
  -10.0634	2.4728e-05	  -10.0609	2.27712e-05	   -10.054	2.53692e-05	  -10.0594	2.42895e-05	  -10.0594	  0.607237	
  -10.1052	2.05379e-05	   -10.102	1.84972e-05	  -10.0954	2.11501e-05	  -10.1009	2.00617e-05	  -10.1009	  0.501543	
  -10.1465	1.64319e-05	  -10.1428	1.42201e-05	  -10.1365	1.6856e-05	  -10.1419	1.5836e-05	  -10.1419	    0.3959	
  -10.1874	1.24382e-05	  -10.1833	9.98459e-06	  -10.1771	1.25664e-05	  -10.1826	1.1663e-05	  -10.1826	  0.291576	
  -10.2279	8.51215e-06	  -10.2233	5.81789e-06	  -10.2174	8.36124e-06	  -10.2228	7.56376e-06	  -10.2228	  0.189094	
  -10.2678	4.55969e-06	  -10.2628	1.69103e-06	  -10.2572	4.27005e-06	  -10.2626	3.50692e-06	  -10.2626	 0.0876731	
  -10.3071	5.04964e-07	   -10.302	-2.4263e-06	  -10.2963	2.57641e-07	  -10.3018	-5.54565e-07	  -10.3018	-0.0138641	
  -10.3462	-3.66642e-06	  -10.3408	-6.57739e-06	   -10.335	-3.75252e-06	  -10.3407	-4.66544e-06	  -10.3407	 -0.116636	
  -10.3849	-7.89693e-06	  -10.3794	-1.07711e-05	  -10.3736	-7.83642e-06	  -10.3793	-8.83483e-06	  -10.3793	 -0.220871	
  -10.4232	-1.2083e-05	  -10.4174	-1.4981e-05	  -10.4119	-1.20134e-05	  -10.4175	-1.30258e-05	  -10.4175	 -0.325645	
  -10.4611	-1.61434e-05	  -10.4551	-1.91713e-05	  -10.4497	-1.62468e-05	  -10.4553	-1.71872e-05	  -10.4553	 -0.429679	
  -10.4984	-2.00616e-05	  -10.4922	-2.33075e-05	   -10.487	-2.04638e-05	  -10.4925	-2.12776e-05	  -10.4925	 -0.531941	
   -10.535	-2.38986e-05	  -10.5288	-2.73892e-05	  -10.5237	-2.45913e-05	  -10.5292	-2.52931e-05	  -10.5292	 -0.632326	
  -10.5715	-2.77574e-05	  -10.5648	-3.1442e-05	  -10.5599	-2.86088e-05	  -10.5654	-2.92694e-05	  -10.5654	 -0.731736	
  -10.6074	-3.17177e-05	  -10.6008	-3.55007e-05	  -10.5955	-3.25537e-05	  -10.6012	-3.32573e-05	  -10.6012	 -0.831433	
   -10.643	-3.58005e-05	  -10.6364	-3.95918e-05	  -10.6308	-3.65075e-05	  -10.6368	-3.72999e-05	  -10.6368	 -0.932498	
  -10.6783	-3.99475e-05	  -10.6717	-4.37145e-05	  -10.6659	-4.05452e-05	   -10.672	-4.14024e-05	   -10.672	  -1.03506	
  -10.7131	-4.40572e-05	  -10.7065	-4.78474e-05	  -10.7005	-4.46859e-05	  -10.7067	-4.55302e-05	  -10.7067	  -1.13825	
  -10.7474	-4.80537e-05	  -10.7409	-5.19571e-05	  -10.7347	-4.88911e-05	   -10.741	-4.9634e-05	   -10.741	  -1.24085	
  -10.7813	-5.19229e-05	  -10.7746	-5.60165e-05	  -10.7685	-5.30757e-05	  -10.7748	-5.36717e-05	  -10.7748	  -1.34179	
  -10.8145	-5.57217e-05	  -10.8078	-6.00285e-05	  -10.8017	-5.7162e-05	   -10.808	-5.76374e-05	   -10.808	  -1.44093	
  -10.8476	-5.95401e-05	  -10.8404	-6.40171e-05	  -10.8344	-6.11228e-05	  -10.8408	-6.156e-05	  -10.8408	    -1.539	
  -10.8803	-6.34442e-05	  -10.8728	-6.80203e-05	  -10.8666	-6.50177e-05	  -10.8733	-6.54941e-05	  -10.8733	  -1.63735	
  -10.9127	-6.74457e-05	  -10.9051	-7.20556e-05	  -10.8987	-6.89308e-05	  -10.9055	-6.94773e-05	  -10.9055	  -1.73693	
  -10.9448	-7.14931e-05	  -10.9369	-7.61165e-05	  -10.9305	-7.29349e-05	  -10.9374	-7.35148e-05	  -10.9374	  -1.83787	
  -10.9764	-7.55046e-05	  -10.9684	-8.01753e-05	  -10.9619	-7.70464e-05	  -10.9689	-7.75754e-05	  -10.9689	  -1.93939	
  -11.0075	-7.94252e-05	  -10.9994	-8.42041e-05	  -10.9928	-8.12118e-05	  -10.9999	-8.16137e-05	  -10.9999	  -2.04034	
  -11.0379	-8.32416e-05	  -11.0299	-8.81906e-05	  -11.0232	-8.53612e-05	  -11.0304	-8.55978e-05	  -11.0304	  -2.13995	
  -11.0679	-8.70044e-05	  -11.0601	-9.21438e-05	  -11.0531	-8.94235e-05	  -11.0604	-8.95239e-05	  -11.0604	   -2.2381	
  -11.0973	-9.07897e-05	  -11.0895	-9.60905e-05	  -11.0825	-9.33787e-05	  -11.0898	-9.34196e-05	  -11.0898	  -2.33549	
  -11.1262	-9.46529e-05	  -11.1186	-0.000100055	  -11.1113	-9.72655e-05	  -11.1187	-9.73246e-05	  -11.1187	  -2.43312	
  -11.1548	-9.85998e-05	  -11.1473	-0.000104048	  -11.1397	-0.000101144	  -11.1473	-0.000101264	  -11.1473	   -2.5316	
  -11.1831	-0.000102583	  -11.1757	-0.000108058	  -11.1679	-0.000105073	  -11.1756	-0.000105238	  -11.1756	  -2.63096	
   -11.211	-0.000106531	  -11.2037	-0.000112066	  -11.1956	-0.000109067	  -11.2034	-0.000109221	  -11.2034	  -2.73052	
  -11.2384	-0.000110397	  -11.2313	-0.000116047	   -11.223	-0.000113099	  -11.2309	-0.000113181	  -11.2309	  -2.82953	
  -11.2655	-0.000114176	  -11.2585	-0.000119998	    -11.25	-0.000117129	   -11.258	-0.000117101	   -11.258	  -2.92753	
   -11.292	-0.000117911	  -11.2852	-0.000123926	  -11.2766	-0.000121111	  -11.2846	-0.000120983	  -11.2846	  -3.02457	
  -11.3179	-0.000121661	  -11.3113	-0.000127855	  -11.3026	-0.000125035	  -11.3106	-0.00012485	  -11.3106	  -3.12126	
  -11.3434	-0.00012547	  -11.3369	-0.000131802	  -11.3281	-0.000128921	  -11.3361	-0.000128731	  -11.3361	  -3.21828	
  -11.3683	-0.000129345	  -11.3618	-0.000135777	   -11.353	-0.000132801	   -11.361	-0.000132641	   -11.361	  -3.31602	
  -11.3926	-0.000133247	  -11.3861	-0.000139764	  -11.3773	-0.000136704	  -11.3853	-0.000136571	  -11.3853	  -3.41428	
  -11.4164	-0.000137119	  -11.4099	-0.000143745	  -11.4011	-0.000140625	  -11.4091	-0.000140497	  -11.4091	  -3.51241	
    -11.44	-0.000140925	  -11.4333	-0.000147701	  -11.4244	-0.000144552	  -11.4325	-0.000144393	  -11.4325	  -3.60982	
  -11.4632	-0.000144666	  -11.4561	-0.000151629	  -11.4474	-0.000148461	  -11.4556	-0.000148252	  -11.4556	   -3.7063	
  -11.4863	-0.000148384	  -11.4787	-0.000155546	    -11.47	-0.000152335	  -11.4783	-0.000152088	  -11.4783	  -3.80221	
  -11.5091	-0.000152138	  -11.5008	-0.000159467	  -11.4924	-0.00015618	  -11.5008	-0.000155929	  -11.5008	  -3.89821	
  -11.5315	-0.00015596	  -11.5224	-0.000163398	  -11.5146	-0.000160006	  -11.5228	-0.000159788	  -11.5228	  -3.99469	
  -11.5535	-0.000159851	  -11.5438	-0.000167328	  -11.5364	-0.000163836	  -11.5446	-0.000163672	  -11.5446	  -4.09179	
  -11.5751	-0.000163769	  -11.5648	-0.00017123	  -11.5579	-0.000167682	   -11.566	-0.00016756	   -11.566	  -4.18901	
  -11.5962	-0.000167645	  -11.5854	-0.000175085	   -11.579	-0.000171543	  -11.5869	-0.000171424	  -11.5869	  -4.28561	
  -11.6168	-0.000171433	  -11.6056	-0.000178894	  -11.5996	-0.000175405	  -11.6074	-0.000175244	  -11.6074	  -4.38109	
   -11.637	-0.000175125	  -11.6253	-0.000182722	  -11.6198	-0.000179251	  -11.6274	-0.000179033	  -11.6274	  -4.47581	
  -11.6566	-0.000178767	  -11.6445	-0.00018663	  -11.6394	-0.000183096	  -11.6468	-0.000182831	  -11.6468	  -4.57078	
  -11.6756	-0.000182427	  -11.6632	-0.000190634	  -11.6584	-0.000186935	  -11.6657	-0.000186665	  -11.6657	  -4.66663	
   -11.694	-0.000186158	  -11.6813	-0.000194668	  -11.6769	-0.000190768	  -11.6841	-0.000190532	  -11.6841	  -4.76329	
  -11.7117	-0.000189985	  -11.6988	-0.000198629	  -11.6948	-0.000194572	  -11.7018	-0.000194395	  -11.7018	  -4.85988	
  -11.7288	-0.000193878	  -11.7157	-0.000202435	  -11.7121	-0.000198346	  -11.7189	-0.00019822	  -11.7189	  -4.95549	
  -11.7452	-0.000197767	  -11.7321	-0.00020607	  -11.7288	-0.000202088	  -11.7354	-0.000201975	  -11.7354	  -5.04937	
   -11.761	-0.000201592	  -11.7478	-0.000209623	  -11.7449	-0.0002058	  -11.7512	-0.000205672	  -11.7512	   -5.1418	
  -11.7761	-0.000205325	  -11.7629	-0.000213232	  -11.7603	-0.000209505	  -11.7664	-0.000209354	  -11.7664	  -5.23385	
  -11.7906	-0.000208987	  -11.7775	-0.000217024	  -11.7751	-0.000213234	  -11.7811	-0.000213082	  -11.7811	  -5.32704	
  -11.8046	-0.000212636	  -11.7915	-0.000221011	  -11.7893	-0.000217008	  -11.7952	-0.000216885	  -11.7952	  -5.42212	
  -11.8185	-0.000216324	  -11.8049	-0.000225103	  -11.8031	-0.000220826	  -11.8088	-0.000220751	  -11.8088	  -5.51877	
  -11.8318	-0.000220082	  -11.8177	-0.000229129	  -11.8163	-0.000224656	  -11.8219	-0.000224622	  -11.8219	  -5.61556	
  -11.8445	-0.000223886	    -11.83	-0.000232962	  -11.8289	-0.000228454	  -11.8345	-0.000228434	  -11.8345	  -5.71085	
  -11.8569	-0.000227681	  -11.8416	-0.000236577	  -11.8412	-0.000232184	  -11.8466	-0.000232147	  -11.8466	  -5.80368	
  -11.8688	-0.000231418	  -11.8528	-0.000240074	   -11.853	-0.000235843	  -11.8582	-0.000235778	  -11.8582	  -5.89446	
    -11.88	-0.000235077	  -11.8637	-0.000243601	  -11.8641	-0.00023946	  -11.8693	-0.000239379	  -11.8693	  -5.98449	
  -11.8908	-0.00023868	  -11.8741	-0.000247285	  -11.8747	-0.000243083	  -11.8799	-0.000243016	  -11.8799	   -6.0754	
  -11.9012	-0.000242279	   -11.884	-0.000251149	  -11.8847	-0.000246742	  -11.8899	-0.000246723	  -11.8899	  -6.16809	
  -11.9111	-0.000245922	  -11.8933	-0.000255103	  -11.8941	-0.000250444	  -11.8995	-0.00025049	  -11.8995	  -6.26224	
  -11.9203	-0.000249622	  -11.9021	-0.000259003	  -11.9031	-0.000254159	  -11.9085	-0.000254261	  -11.9085	  -6.35654	
  -11.9291	-0.000253349	  -11.9105	-0.000262739	  -11.9115	-0.000257849	   -11.917	-0.000257979	   -11.917	  -6.44947	
  -11.9373	-0.000257053	  -11.9185	-0.000266297	  -11.9194	-0.000261479	  -11.9251	-0.00026161	  -11.9251	  -6.54024	
   -11.945	-0.000260697	  -11.9263	-0.000269763	  -11.9267	-0.000265048	  -11.9327	-0.000265169	  -11.9327	  -6.62923	
  -11.9521	-0.000264271	  -11.9338	-0.000273262	  -11.9336	-0.00026858	  -11.9398	-0.000268704	  -11.9398	   -6.7176	
  -11.9588	-0.000267804	  -11.9406	-0.000276891	  -11.9401	-0.00027211	  -11.9465	-0.000272268	  -11.9465	  -6.80671	
  -11.9651	-0.000271344	  -11.9472	-0.00028066	  -11.9462	-0.000275667	  -11.9528	-0.00027589	  -11.9528	  -6.89726	
   -11.971	-0.000274924	  -11.9533	-0.00028449	  -11.9518	-0.000279254	  -11.9587	-0.000279556	  -11.9587	   -6.9889	
  -11.9762	-0.000278549	  -11.9588	-0.000288262	   -11.957	-0.000282852	   -11.964	-0.000283221	   -11.964	  -7.08053	
  -11.9811	-0.000282189	  -11.9637	-0.000291889	  -11.9618	-0.000286427	  -11.9689	-0.000286835	  -11.9689	  -7.17088	
  -11.9854	-0.000285799	  -11.9683	-0.000295336	  -11.9661	-0.000289952	  -11.9733	-0.000290362	  -11.9733	  -7.25906	
  -11.9893	-0.000289346	  -11.9723	-0.000298687	    -11.97	-0.00029342	  -11.9772	-0.000293818	  -11.9772	  -7.34544	
  -11.9926	-0.000292828	  -11.9759	-0.000302062	  -11.9735	-0.000296847	  -11.9807	-0.000297245	  -11.9807	  -7.43114	
  -11.9955	-0.000296272	  -11.9791	-0.000305581	  -11.9766	-0.000300264	  -11.9838	-0.000300705	  -11.9838	  -7.51763	
   -11.998	-0.000299724	   -11.982	-0.000309259	  -11.9793	-0.000303697	  -11.9864	-0.000304227	  -11.9864	  -7.60567	
  -12.0002	-0.000303212	  -11.9844	-0.000313034	  -11.9817	-0.000307158	  -11.9888	-0.000307801	  -11.9888	  -7.69503	
  -12.0019	-0.000306737	  -11.9865	-0.000316783	  -11.9838	-0.000310636	  -11.9907	-0.000311385	  -11.9907	  -7.78464	
  -12.0033	-0.000310268	  -11.9883	-0.000320345	  -11.9855	-0.000314104	  -11.9924	-0.000314906	  -11.9924	  -7.87265	
  -12.0044	-0.000313764	  -11.9899	-0.000323675	   -11.987	-0.000317532	  -11.9938	-0.000318324	  -11.9938	  -7.95809	
  -12.0052	-0.0003172	  -11.9911	-0.000326849	  -11.9882	-0.000320911	  -11.9949	-0.000321653	  -11.9949	  -8.04133	
  -12.0058	-0.000320572	   -11.992	-0.000330059	  -11.9892	-0.00032425	  -11.9957	-0.00032496	  -11.9957	    -8.124	
  -12.0061	-0.000323912	  -11.9923	-0.000333459	    -11.99	-0.000327575	  -11.9961	-0.000328316	  -11.9961	  -8.20789	
  -12.0061	-0.00032726	   -11.991	-0.000337092	  -11.9902	-0.000330907	  -11.9958	-0.000331753	  -11.9958	  -8.29382	
  -12.0058	-0.000330636	  -11.9896	-0.000340877	  -11.9902	-0.000334255	  -11.9952	-0.000335256	  -11.9952	  -8.38141	
  -12.0052	-0.000334045	   -11.987	-0.000344621	  -11.9896	-0.00033761	  -11.9939	-0.000338759	  -11.9939	  -8.46897	
  -12.0043	-0.000337461	  -11.9856	-0.000348143	  -11.9884	-0.000340953	  -11.9928	-0.000342186	  -11.9928	  -8.55464	
  -12.0031	-0.000340851	  -11.9832	-0.000351374	  -11.9869	-0.000344259	   -11.991	-0.000345495	   -11.991	  -8.63737	
  -12.0011	-0.000344186	  -11.9817	-0.000354401	  -11.9847	-0.000347525	  -11.9892	-0.000348704	  -11.9892	   -8.7176	
  -11.9985	-0.000347457	  -11.9797	-0.000357423	  -11.9823	-0.000350763	  -11.9868	-0.000351881	  -11.9868	  -8.79702	
  -11.9954	-0.000350692	  -11.9781	-0.000360622	  -11.9792	-0.000353997	  -11.9842	-0.000355104	  -11.9842	  -8.87759	
  -11.9917	-0.000353929	  -11.9753	-0.000364075	  -11.9756	-0.000357245	  -11.9809	-0.000358416	  -11.9809	  -8.96041	
  -11.9876	-0.000357204	  -11.9723	-0.000367696	  -11.9715	-0.000360508	  -11.9771	-0.000361803	  -11.9771	  -9.04507	
   -11.983	-0.000360528	  -11.9684	-0.000371299	   -11.967	-0.000363771	  -11.9728	-0.000365199	  -11.9728	  -9.12998	
   -11.978	-0.000363888	  -11.9639	-0.00037471	  -11.9621	-0.000367013	   -11.968	-0.000368537	   -11.968	  -9.21343	
  -11.9727	-0.000367242	  -11.9586	-0.000377866	  -11.9569	-0.000370209	  -11.9627	-0.000371773	  -11.9627	  -9.29431	
   -11.967	-0.00037052	  -11.9532	-0.000380849	  -11.9515	-0.000373357	  -11.9572	-0.000374908	  -11.9572	  -9.37271	
   -11.961	-0.000373664	  -11.9472	-0.00038382	  -11.9457	-0.000376476	  -11.9513	-0.000377987	  -11.9513	  -9.44966	
  -11.9547	-0.000376699	  -11.9409	-0.000386933	  -11.9395	-0.000379588	  -11.9451	-0.000381074	  -11.9451	  -9.52684	
  -11.9484	-0.000379723	  -11.9342	-0.000390243	  -11.9329	-0.000382683	  -11.9385	-0.000384216	  -11.9385	  -9.60541	
  -11.9415	-0.000382828	  -11.9272	-0.000393681	  -11.9256	-0.000385753	  -11.9314	-0.000387421	  -11.9314	  -9.68552	
  -11.9343	-0.000386067	  -11.9196	-0.00039711	  -11.9176	-0.00038881	  -11.9238	-0.000390662	  -11.9238	  -9.76656	
   -11.926	-0.000389407	  -11.9114	-0.000400403	  -11.9091	-0.000391903	  -11.9155	-0.000393904	  -11.9155	  -9.84761	
  -11.9174	-0.000392757	  -11.9026	-0.000403515	  -11.8997	-0.00039506	  -11.9066	-0.000397111	  -11.9066	  -9.92777	
  -11.9079	-0.000395957	  -11.8934	-0.000406493	  -11.8887	-0.000398269	  -11.8966	-0.00040024	  -11.8966	   -10.006	
  -11.8979	-0.000398973	  -11.8833	-0.000409445	  -11.8776	-0.000401491	  -11.8863	-0.000403303	  -11.8863	  -10.0826	
  -11.8871	-0.000401833	   -11.873	-0.000412475	  -11.8653	-0.000404646	  -11.8751	-0.000406318	  -11.8751	   -10.158	
  -11.8761	-0.000404673	  -11.8622	-0.000415621	  -11.8542	-0.000407676	  -11.8641	-0.000409323	  -11.8641	  -10.2331	
  -11.8639	-0.000407622	  -11.8508	-0.000418838	  -11.8417	-0.000410564	  -11.8521	-0.000412341	  -11.8521	  -10.3085	
  -11.8515	-0.00041076	  -11.8388	-0.000422035	  -11.8304	-0.000413371	  -11.8402	-0.000415389	  -11.8402	  -10.3847	
   -11.838	-0.000414016	  -11.8264	-0.000425127	  -11.8185	-0.000416195	  -11.8276	-0.000418446	  -11.8276	  -10.4612	
  -11.8246	-0.000417255	  -11.8134	-0.000428098	  -11.8069	-0.000419097	  -11.8149	-0.000421483	  -11.8149	  -10.5371	
  -11.8101	-0.000420332	  -11.7999	-0.000430992	  -11.7943	-0.000422088	  -11.8014	-0.00042447	  -11.8014	  -10.6118	
  -11.7962	-0.000423194	  -11.7861	-0.000433877	  -11.7813	-0.000425104	  -11.7879	-0.000427392	  -11.7879	  -10.6848	
   -11.781	-0.000425926	   -11.772	-0.000436798	  -11.7675	-0.000428089	  -11.7735	-0.000430271	  -11.7735	  -10.7568	
   -11.766	-0.000428663	  -11.7574	-0.000439755	  -11.7532	-0.000430973	  -11.7589	-0.00043313	  -11.7589	  -10.8283	
  -11.7496	-0.000431537	  -11.7426	-0.00044272	   -11.738	-0.000433775	  -11.7434	-0.000436011	  -11.7434	  -10.9003	
  -11.7337	-0.00043457	   -11.727	-0.000445653	  -11.7226	-0.000436529	  -11.7278	-0.000438917	  -11.7278	  -10.9729	
  -11.7167	-0.000437682	  -11.7108	-0.000448542	  -11.7062	-0.000439291	  -11.7113	-0.000441838	  -11.7113	   -11.046	
     -11.7	-0.000440745	   -11.694	-0.000451405	  -11.6898	-0.000442099	  -11.6946	-0.00044475	  -11.6946	  -11.1187	
  -11.6822	-0.00044365	  -11.6766	-0.000454265	  -11.6728	-0.000444947	  -11.6772	-0.000447621	  -11.6772	  -11.1905	
  -11.6647	-0.000446385	  -11.6589	-0.000457137	  -11.6556	-0.000447798	  -11.6597	-0.00045044	  -11.6597	   -11.261	
  -11.6462	-0.000449028	   -11.641	-0.000460002	  -11.6376	-0.000450607	  -11.6416	-0.000453212	  -11.6416	  -11.3303	
  -11.6278	-0.000451703	   -11.623	-0.000462831	  -11.6192	-0.000453356	  -11.6233	-0.000455964	  -11.6233	  -11.3991	
  -11.6085	-0.000454503	  -11.6049	-0.0004656	  -11.6002	-0.000456055	  -11.6046	-0.00045872	  -11.6046	   -11.468	
  -11.5894	-0.000457434	   -11.587	-0.000468313	  -11.5807	-0.000458728	  -11.5857	-0.000461491	  -11.5857	  -11.5373	
  -11.5692	-0.000460409	  -11.5684	-0.000471002	  -11.5607	-0.000461405	  -11.5661	-0.000464272	  -11.5661	  -11.6068	
  -11.5492	-0.000463311	  -11.5493	-0.000473714	  -11.5403	-0.000464099	  -11.5463	-0.000467042	  -11.5463	   -11.676	
  -11.5283	-0.000466058	  -11.5291	-0.00047647	  -11.5196	-0.000466808	  -11.5257	-0.000469779	  -11.5257	  -11.7445	
  -11.5072	-0.000468658	  -11.5081	-0.000479257	  -11.4983	-0.0004695	  -11.5045	-0.000472471	  -11.5045	  -11.8118	
  -11.4852	-0.0004712	  -11.4863	-0.000482031	  -11.4766	-0.00047214	  -11.4827	-0.000475124	  -11.4827	  -11.8781	
  -11.4631	-0.000473799	  -11.4641	-0.000484749	  -11.4543	-0.000474733	  -11.4605	-0.00047776	  -11.4605	   -11.944	
  -11.4404	-0.000476506	  -11.4415	-0.000487387	  -11.4315	-0.000477289	  -11.4378	-0.000480394	  -11.4378	  -12.0098	
  -11.4174	-0.000479319	  -11.4185	-0.000489961	  -11.4085	-0.000479851	  -11.4148	-0.000483044	  -11.4148	  -12.0761	
  -11.3936	-0.000482141	  -11.3952	-0.000492512	  -11.3851	-0.000482445	  -11.3913	-0.000485699	  -11.3913	  -12.1425	
  -11.3698	-0.000484876	  -11.3713	-0.000495083	  -11.3613	-0.00048506	  -11.3675	-0.00048834	  -11.3675	  -12.2085	
  -11.3453	-0.000487468	  -11.3468	-0.000497693	  -11.3369	-0.000487665	   -11.343	-0.000490942	   -11.343	  -12.2736	
  -11.3203	-0.000489938	  -11.3217	-0.00050033	   -11.312	-0.000490205	   -11.318	-0.000493491	   -11.318	  -12.3373	
   -11.295	-0.000492376	  -11.2963	-0.000502952	  -11.2866	-0.000492654	  -11.2926	-0.000495994	  -11.2926	  -12.3999	
  -11.2694	-0.000494864	  -11.2704	-0.000505512	  -11.2607	-0.000495021	  -11.2668	-0.000498466	  -11.2668	  -12.4616	
  -11.2432	-0.00049745	  -11.2439	-0.000507992	  -11.2342	-0.000497351	  -11.2404	-0.000500931	  -11.2404	  -12.5233	
  -11.2165	-0.00050011	  -11.2168	-0.000510407	  -11.2072	-0.000499703	  -11.2135	-0.000503407	  -11.2135	  -12.5852	
  -11.1893	-0.000502764	  -11.1891	-0.000512802	  -11.1797	-0.000502109	   -11.186	-0.000505892	   -11.186	  -12.6473	
  -11.1616	-0.000505332	  -11.1611	-0.000515223	  -11.1517	-0.000504559	  -11.1582	-0.000508371	  -11.1582	  -12.7093	
  -11.1336	-0.000507779	  -11.1328	-0.000517688	  -11.1233	-0.000507011	  -11.1299	-0.000510826	  -11.1299	  -12.7707	
  -11.1052	-0.000510129	  -11.1038	-0.000520188	  -11.0944	-0.000509417	  -11.1011	-0.000513244	  -11.1011	  -12.8311	
  -11.0762	-0.000512454	  -11.0741	-0.000522682	  -11.0649	-0.000511746	  -11.0718	-0.000515627	  -11.0718	  -12.8907	
  -11.0468	-0.000514822	   -11.044	-0.000525127	   -11.035	-0.000514001	  -11.0419	-0.000517983	  -11.0419	  -12.9496	
  -11.0169	-0.00051727	  -11.0136	-0.000527496	  -11.0048	-0.000516212	  -11.0118	-0.000520326	  -11.0118	  -13.0082	
  -10.9869	-0.000519773	  -10.9828	-0.000529794	  -10.9744	-0.000518419	  -10.9814	-0.000522662	  -10.9814	  -13.0666	
  -10.9561	-0.00052226	  -10.9515	-0.000532062	  -10.9434	-0.000520644	  -10.9503	-0.000524988	  -10.9503	  -13.1247	
  -10.9248	-0.000524661	  -10.9197	-0.000534342	  -10.9117	-0.000522898	  -10.9187	-0.0005273	  -10.9187	  -13.1825	
   -10.893	-0.000526944	  -10.8874	-0.000536658	  -10.8797	-0.000525154	  -10.8867	-0.000529585	  -10.8867	  -13.2396	
  -10.8608	-0.000529133	  -10.8549	-0.000539004	  -10.8475	-0.000527386	  -10.8544	-0.000531841	  -10.8544	   -13.296	
   -10.828	-0.000531294	  -10.8222	-0.000541343	  -10.8149	-0.000529566	  -10.8217	-0.000534068	  -10.8217	  -13.3517	
  -10.7946	-0.000533488	  -10.7888	-0.000543639	  -10.7818	-0.000531679	  -10.7884	-0.000536269	  -10.7884	  -13.4067	
  -10.7607	-0.000535742	   -10.755	-0.000545872	  -10.7482	-0.000533741	  -10.7546	-0.000538452	  -10.7546	  -13.4613	
  -10.7264	-0.00053803	  -10.7208	-0.000548047	  -10.7143	-0.000535771	  -10.7205	-0.000540616	  -10.7205	  -13.5154	
  -10.6919	-0.000540292	  -10.6864	-0.000550196	  -10.6802	-0.000537812	  -10.6861	-0.000542766	  -10.6861	  -13.5692	
  -10.6569	-0.000542472	  -10.6512	-0.000552349	  -10.6454	-0.000539871	  -10.6512	-0.000544897	  -10.6512	  -13.6224	
  -10.6214	-0.000544548	  -10.6156	-0.000554522	  -10.6102	-0.000541958	  -10.6157	-0.000547009	  -10.6157	  -13.6752	
  -10.5855	-0.000546542	  -10.5796	-0.000556702	  -10.5746	-0.000544052	  -10.5799	-0.000549098	  -10.5799	  -13.7275	
  -10.5493	-0.000548514	  -10.5433	-0.000558858	  -10.5388	-0.000546118	  -10.5438	-0.000551163	  -10.5438	  -13.7791	
  -10.5125	-0.000550515	  -10.5064	-0.000560961	  -10.5024	-0.000548125	  -10.5071	-0.0005532	  -10.5071	    -13.83	
  -10.4755	-0.000552566	   -10.469	-0.000563002	  -10.4655	-0.00055006	    -10.47	-0.000555209	    -10.47	  -13.8802	
   -10.438	-0.000554647	  -10.4313	-0.000564997	  -10.4283	-0.000551933	  -10.4325	-0.000557193	  -10.4325	  -13.9298	
  -10.4004	-0.000556706	  -10.3933	-0.000566985	  -10.3908	-0.000553783	  -10.3948	-0.000559158	  -10.3948	  -13.9789	
  -10.3622	-0.000558686	  -10.3547	-0.000568993	  -10.3529	-0.000555652	  -10.3566	-0.00056111	  -10.3566	  -14.0278	
  -10.3235	-0.00056057	  -10.3156	-0.000571024	  -10.3144	-0.00055757	  -10.3178	-0.000563055	  -10.3178	  -14.0764	
  -10.2844	-0.000562382	  -10.2761	-0.000573053	  -10.2755	-0.000559542	  -10.2787	-0.000564992	  -10.2787	  -14.1248	
  -10.2451	-0.000564175	  -10.2364	-0.000575033	  -10.2363	-0.000561528	  -10.2393	-0.000566912	  -10.2393	  -14.1728	
  -10.2052	-0.000565995	  -10.1962	-0.00057693	  -10.1966	-0.000563478	  -10.1993	-0.000568801	  -10.1993	    -14.22	
  -10.1648	-0.000567854	  -10.1555	-0.00057877	  -10.1564	-0.000565347	  -10.1589	-0.000570657	  -10.1589	  -14.2664	
  -10.1241	-0.00056973	  -10.1145	-0.000580579	   -10.116	-0.000567121	  -10.1182	-0.000572477	  -10.1182	  -14.3119	
   -10.083	-0.000571572	  -10.0734	-0.000582396	  -10.0753	-0.000568838	  -10.0772	-0.000574269	  -10.0772	  -14.3567	
  -10.0416	-0.000573335	  -10.0316	-0.000584243	   -10.034	-0.000570542	  -10.0357	-0.00057604	  -10.0357	   -14.401	
  -9.99977	-0.000575004	  -9.98943	-0.000586104	  -9.99225	-0.0005723	  -9.99382	-0.000577803	  -9.99382	  -14.4451	
  -9.95766	-0.0005766	    -9.947	-0.000587942	  -9.95005	-0.00057413	  -9.95157	-0.000579558	  -9.95157	  -14.4889	
  -9.91542	-0.000578183	  -9.90437	-0.000589703	  -9.90747	-0.000576022	  -9.90909	-0.000581303	  -9.90909	  -14.5326	
  -9.87266	-0.00057981	  -9.86116	-0.000591364	  -9.86444	-0.000577923	  -9.86609	-0.000583033	  -9.86609	  -14.5758	
  -9.82946	-0.000581496	  -9.81757	-0.000592948	  -9.82114	-0.000579767	  -9.82273	-0.000584737	  -9.82273	  -14.6184	
    -9.786	-0.000583206	   -9.7738	-0.000594529	  -9.77763	-0.000581522	  -9.77915	-0.000586419	  -9.77915	  -14.6605	
  -9.74206	-0.000584874	  -9.72947	-0.000596182	   -9.7338	-0.000583185	  -9.73511	-0.00058808	  -9.73511	   -14.702	
  -9.69769	-0.000586455	  -9.68466	-0.00059791	  -9.68942	-0.000584796	  -9.69059	-0.000589721	  -9.69059	   -14.743	
  -9.65296	-0.000587944	  -9.63957	-0.00059967	  -9.64472	-0.000586391	  -9.64575	-0.000591335	  -9.64575	  -14.7834	
  -9.60779	-0.000589393	  -9.59424	-0.000601372	   -9.5996	-0.000588007	  -9.60054	-0.000592924	  -9.60054	  -14.8231	
  -9.56197	-0.000590844	  -9.54831	-0.000602946	  -9.55412	-0.00058964	   -9.5548	-0.000594477	   -9.5548	  -14.8619	
  -9.51573	-0.00059233	  -9.50202	-0.000604388	  -9.50821	-0.000591279	  -9.50865	-0.000595999	  -9.50865	     -14.9	
  -9.46912	-0.000593822	  -9.45541	-0.000605782	  -9.46194	-0.000592892	  -9.46215	-0.000597499	  -9.46215	  -14.9375	
  -9.42221	-0.000595281	  -9.40827	-0.00060719	  -9.41522	-0.000594456	  -9.41523	-0.000598976	  -9.41523	  -14.9744	
  -9.37479	-0.00059666	  -9.36069	-0.000608679	    -9.368	-0.000595962	  -9.36782	-0.000600434	  -9.36782	  -15.0108	
  -9.32707	-0.000597957	  -9.31286	-0.000610227	  -9.32049	-0.000597424	  -9.32014	-0.000601869	  -9.32014	  -15.0467	
  -9.27898	-0.000599223	  -9.26458	-0.000611788	   -9.2726	-0.000598873	  -9.27206	-0.000603295	  -9.27206	  -15.0824	
  -9.23032	-0.000600509	  -9.21579	-0.000613259	  -9.22442	-0.000600326	  -9.22351	-0.000604698	  -9.22351	  -15.1174	
   -9.1813	-0.000601851	   -9.1667	-0.000614597	  -9.17586	-0.000601787	  -9.17462	-0.000606079	  -9.17462	   -15.152	
  -9.13214	-0.00060323	  -9.11753	-0.000615831	    -9.127	-0.000603244	  -9.12555	-0.000607435	  -9.12555	  -15.1859	
  -9.08247	-0.000604592	  -9.06789	-0.00061703	  -9.07762	-0.000604671	    -9.076	-0.000608764	    -9.076	  -15.2191	
   -9.0324	-0.000605875	  -9.01789	-0.000618278	  -9.02783	-0.000606054	  -9.02604	-0.000610069	  -9.02604	  -15.2517	
  -8.98212	-0.000607052	  -8.96773	-0.000619597	  -8.97768	-0.00060739	  -8.97585	-0.000611346	  -8.97585	  -15.2837	
   -8.9313	-0.000608147	   -8.9172	-0.000620951	  -8.92727	-0.000608685	  -8.92526	-0.000612595	  -8.92526	  -15.3149	
  -8.88003	-0.000609218	  -8.86624	-0.000622273	  -8.87638	-0.00060996	  -8.87422	-0.000613817	  -8.87422	  -15.3454	
  -8.82853	-0.000610326	  -8.81507	-0.000623501	  -8.82525	-0.00061123	  -8.82295	-0.000615019	  -8.82295	  -15.3755	
  -8.77674	-0.000611491	  -8.76376	-0.000624619	  -8.77366	-0.000612497	  -8.77139	-0.000616202	  -8.77139	  -15.4051	
   -8.7246	-0.000612688	  -8.71196	-0.000625663	  -8.72157	-0.000613748	  -8.71938	-0.000617367	  -8.71938	  -15.4342	
  -8.67218	-0.00061386	   -8.6599	-0.0006267	  -8.66922	-0.000614966	   -8.6671	-0.000618509	   -8.6671	  -15.4627	
  -8.61957	-0.000614951	  -8.60764	-0.000627787	  -8.61667	-0.000616135	  -8.61462	-0.000619624	  -8.61462	  -15.4906	
  -8.56642	-0.000615942	    -8.555	-0.000628927	  -8.56358	-0.000617257	  -8.56167	-0.000620709	  -8.56167	  -15.5177	
  -8.51297	-0.000616858	  -8.50205	-0.000630066	   -8.5102	-0.000618345	  -8.50841	-0.000621756	  -8.50841	  -15.5439	
   -8.4593	-0.000617757	  -8.44901	-0.000631136	  -8.45661	-0.000619415	  -8.45498	-0.00062277	  -8.45498	  -15.5692	
   -8.4055	-0.000618691	  -8.39567	-0.000632099	  -8.40261	-0.000620481	  -8.40126	-0.000623757	  -8.40126	  -15.5939	
  -8.35135	-0.000619673	  -8.34185	-0.000632971	  -8.34828	-0.000621537	  -8.34716	-0.000624727	  -8.34716	  -15.6182	
  -8.29695	-0.000620681	  -8.28777	-0.000633817	  -8.29359	-0.000622565	  -8.29277	-0.000625688	  -8.29277	  -15.6422	
   -8.2421	-0.000621656	  -8.23311	-0.000634714	  -8.23849	-0.000623548	   -8.2379	-0.000626639	   -8.2379	   -15.666	
  -8.18691	-0.000622552	  -8.17812	-0.000635659	  -8.18308	-0.000624478	   -8.1827	-0.000627563	   -8.1827	  -15.6891	
   -8.1312	-0.000623354	  -8.12288	-0.000636623	  -8.12745	-0.000625365	  -8.12718	-0.000628447	  -8.12718	  -15.7112	
  -8.07521	-0.000624086	  -8.06762	-0.000637519	  -8.07141	-0.000626229	  -8.07141	-0.000629278	  -8.07141	   -15.732	
  -8.01889	-0.000624804	  -8.01268	-0.000638318	  -8.01505	-0.000627093	  -8.01554	-0.000630072	  -8.01554	  -15.7518	
  -7.96234	-0.000625555	  -7.95755	-0.000639026	  -7.95849	-0.000627968	  -7.95946	-0.000630849	  -7.95946	  -15.7712	
  -7.90524	-0.000626351	   -7.9023	-0.000639712	  -7.90138	-0.00062884	  -7.90297	-0.000631634	  -7.90297	  -15.7909	
  -7.84784	-0.000627165	  -7.84619	-0.000640433	  -7.84398	-0.000629684	    -7.846	-0.000632427	    -7.846	  -15.8107	
  -7.79037	-0.000627946	  -7.78963	-0.000641209	  -7.78653	-0.000630474	  -7.78884	-0.00063321	  -7.78884	  -15.8302	
  -7.73251	-0.000628655	  -7.73273	-0.000642003	   -7.7287	-0.000631203	  -7.73131	-0.000633954	  -7.73131	  -15.8488	
  -7.67435	-0.000629279	  -7.67558	-0.000642757	  -7.67058	-0.000631888	   -7.6735	-0.000634641	   -7.6735	   -15.866	
  -7.61614	-0.000629847	  -7.61801	-0.000643435	  -7.61227	-0.000632555	  -7.61547	-0.000635279	  -7.61547	   -15.882	
  -7.55754	-0.000630417	  -7.56039	-0.000644034	  -7.55346	-0.000633227	  -7.55713	-0.000635893	  -7.55713	  -15.8973	
  -7.49867	-0.000631017	  -7.50158	-0.0006446	  -7.49441	-0.000633912	  -7.49822	-0.00063651	  -7.49822	  -15.9127	
  -7.43961	-0.000631642	  -7.44298	-0.00064517	  -7.43507	-0.000634594	  -7.43922	-0.000637135	  -7.43922	  -15.9284	
   -7.3802	-0.000632243	  -7.38301	-0.000645773	  -7.37541	-0.000635247	  -7.37954	-0.000637754	  -7.37954	  -15.9439	
  -7.32054	-0.000632776	  -7.32404	-0.000646378	   -7.3154	-0.000635849	  -7.31999	-0.000638334	  -7.31999	  -15.9584	
  -7.26087	-0.000633228	  -7.26363	-0.000646957	  -7.25528	-0.000636398	  -7.25993	-0.000638861	  -7.25993	  -15.9715	
  -7.20072	-0.000633625	  -7.20428	-0.000647487	  -7.19475	-0.00063691	  -7.19992	-0.000639341	  -7.19992	  -15.9835	
  -7.14036	-0.000634021	   -7.1434	-0.000647954	  -7.13405	-0.000637415	  -7.13927	-0.000639797	  -7.13927	  -15.9949	
  -7.07959	-0.000634468	  -7.08311	-0.000648371	  -7.07313	-0.000637927	  -7.07861	-0.000640256	  -7.07861	  -16.0064	
  -7.01842	-0.000634966	  -7.02126	-0.000648758	  -7.01185	-0.000638444	  -7.01717	-0.000640723	  -7.01717	  -16.0181	
  -6.95695	-0.000635484	  -6.96038	-0.000649131	  -6.95029	-0.000638949	  -6.95588	-0.000641188	  -6.95588	  -16.0297	
  -6.89517	-0.000635955	  -6.89817	-0.000649489	  -6.88832	-0.000639418	  -6.89389	-0.000641621	  -6.89389	  -16.0405	
  -6.83318	-0.000636338	  -6.83645	-0.000649824	  -6.82631	-0.000639837	  -6.83198	 -0.000642	  -6.83198	    -16.05	
  -6.77096	-0.00063662	  -6.77378	-0.000650142	  -6.76396	-0.000640207	  -6.76957	-0.000642323	  -6.76957	  -16.0581	
  -6.70834	-0.000636849	  -6.71155	-0.000650433	  -6.70166	-0.000640561	  -6.70718	-0.000642614	  -6.70718	  -16.0654	
  -6.64544	-0.000637086	  -6.64831	-0.000650688	  -6.63907	-0.000640931	  -6.64427	-0.000642901	  -6.64427	  -16.0725	
  -6.58225	-0.000637375	  -6.58547	-0.00065092	  -6.57632	-0.000641302	  -6.58135	-0.000643199	  -6.58135	    -16.08	
  -6.51874	-0.000637724	  -6.52186	-0.000651114	  -6.51337	-0.000641642	  -6.51799	-0.000643493	  -6.51799	  -16.0873	
  -6.45504	-0.000638089	  -6.45845	-0.000651282	  -6.45032	-0.000641903	   -6.4546	-0.000643758	   -6.4546	  -16.0939	
  -6.39139	-0.000638417	   -6.3945	-0.000651433	  -6.38756	-0.000642084	  -6.39115	-0.000643978	  -6.39115	  -16.0995	
  -6.32733	-0.000638662	  -6.33057	-0.00065159	  -6.32446	-0.000642215	  -6.32745	-0.000644156	  -6.32745	  -16.1039	
  -6.26313	-0.000638821	  -6.26592	-0.000651754	  -6.26115	-0.000642342	   -6.2634	-0.000644306	   -6.2634	  -16.1076	
  -6.19877	-0.000638929	  -6.20127	-0.000651903	  -6.19679	-0.000642512	  -6.19894	-0.000644448	  -6.19894	  -16.1112	
  -6.13407	-0.000639031	  -6.13602	-0.000652033	   -6.1325	-0.000642689	   -6.1342	-0.000644584	   -6.1342	  -16.1146	
  -6.06918	-0.000639165	  -6.07088	-0.000652128	  -6.06771	-0.000642887	  -6.06925	-0.000644727	  -6.06925	  -16.1182	
  -6.00392	-0.000639333	  -6.00525	-0.000652175	  -6.00282	-0.000643088	    -6.004	-0.000644865	    -6.004	  -16.1216	
  -5.93843	-0.000639511	  -5.93968	-0.000652168	  -5.93768	-0.000643289	  -5.93859	-0.000644989	  -5.93859	  -16.1247	
  -5.87283	-0.000639658	  -5.87386	-0.000652094	  -5.87212	-0.000643452	  -5.87293	-0.000645068	  -5.87293	  -16.1267	
  -5.80695	-0.000639732	  -5.80818	-0.000651977	  -5.80628	-0.000643526	  -5.80714	-0.000645078	  -5.80714	   -16.127	
  -5.74093	-0.000639707	  -5.74233	-0.000651858	  -5.73974	-0.00064351	    -5.741	-0.000645025	    -5.741	  -16.1256	
   -5.6746	-0.000639605	  -5.67642	-0.000651783	  -5.67349	-0.000643409	  -5.67483	-0.000644932	  -5.67483	  -16.1233	
  -5.60795	-0.0006395	     -5.61	-0.000651765	  -5.60664	-0.00064325	   -5.6082	-0.000644838	   -5.6082	   -16.121	
  -5.54099	-0.00063945	  -5.54324	-0.000651742	  -5.54018	-0.000643099	  -5.54147	-0.000644764	  -5.54147	  -16.1191	
   -5.4737	-0.000639464	  -5.47572	-0.000651667	  -5.47308	-0.00064303	  -5.47417	-0.00064472	  -5.47417	   -16.118	
  -5.40623	-0.000639501	  -5.40842	-0.000651487	   -5.4066	-0.000643072	  -5.40708	-0.000644687	  -5.40708	  -16.1172	
   -5.3387	-0.000639478	  -5.34063	-0.000651216	  -5.33859	-0.000643179	  -5.33931	-0.000644624	  -5.33931	  -16.1156	
   -5.2708	-0.000639313	  -5.27289	-0.000650924	  -5.27122	-0.000643252	  -5.27164	-0.000644496	  -5.27164	  -16.1124	
  -5.20282	-0.000638992	  -5.20477	-0.000650648	   -5.2029	-0.000643206	   -5.2035	-0.000644282	   -5.2035	  -16.1071	
  -5.13447	-0.000638579	  -5.13627	-0.000650425	  -5.13505	-0.000643014	  -5.13526	-0.000644006	  -5.13526	  -16.1001	
  -5.06588	-0.000638188	  -5.06781	-0.000650204	   -5.0665	-0.000642722	  -5.06673	-0.000643705	  -5.06673	  -16.0926	
  -4.99719	-0.000637913	  -4.99841	-0.000649942	  -4.99839	-0.000642422	    -4.998	-0.000643426	    -4.998	  -16.0856	
  -4.92838	-0.000637775	  -4.92948	-0.000649596	  -4.92943	-0.000642192	   -4.9291	-0.000643188	   -4.9291	  -16.0797	
  -4.85944	-0.000637698	  -4.85988	-0.00064916	  -4.86061	-0.000642043	  -4.85998	-0.000642967	  -4.85998	  -16.0742	
  -4.79035	-0.000637558	  -4.79086	-0.00064869	  -4.79109	-0.000641928	  -4.79077	-0.000642725	  -4.79077	  -16.0681	
  -4.72097	-0.000637246	  -4.72113	-0.000648223	  -4.72185	-0.000641762	  -4.72132	-0.00064241	  -4.72132	  -16.0603	
  -4.65158	-0.000636739	  -4.65154	-0.000647776	   -4.6519	-0.000641478	  -4.65167	-0.000641998	  -4.65167	  -16.0499	
  -4.58175	-0.000636116	  -4.58125	-0.000647335	  -4.58209	-0.000641081	   -4.5817	-0.000641511	   -4.5817	  -16.0378	
  -4.51176	-0.000635498	  -4.51111	-0.000646873	  -4.51171	-0.000640626	  -4.51153	-0.000640999	  -4.51153	   -16.025	
  -4.44161	-0.000634995	  -4.44054	-0.000646383	  -4.44134	-0.000640206	  -4.44116	-0.000640528	  -4.44116	  -16.0132	
  -4.37116	-0.000634625	  -4.37025	-0.000645868	  -4.37054	-0.000639871	  -4.37065	-0.000640121	  -4.37065	   -16.003	
  -4.30068	-0.000634314	  -4.29951	-0.000645343	  -4.29988	-0.000639596	  -4.30003	-0.000639751	  -4.30003	  -15.9938	
  -4.23016	-0.000633941	  -4.22889	-0.000644823	  -4.22893	-0.00063931	  -4.22933	-0.000639358	  -4.22933	  -15.9839	
  -4.15946	-0.000633411	  -4.15768	-0.000644294	  -4.15796	-0.000638913	  -4.15837	-0.000638873	  -4.15837	  -15.9718	
   -4.0887	-0.000632706	  -4.08645	-0.000643738	  -4.08669	-0.00063836	  -4.08728	-0.000638268	  -4.08728	  -15.9567	
   -4.0176	-0.000631901	  -4.01493	-0.000643119	   -4.0154	-0.000637676	  -4.01598	-0.000637565	  -4.01598	  -15.9391	
  -3.94645	-0.000631108	  -3.94339	-0.000642427	  -3.94381	-0.000636934	  -3.94455	-0.000636823	  -3.94455	  -15.9206	
  -3.87496	-0.000630424	  -3.87143	-0.000641682	  -3.87206	-0.000636235	  -3.87282	-0.000636114	  -3.87282	  -15.9028	
  -3.80329	-0.000629862	  -3.79932	-0.000640922	  -3.80016	-0.000635633	  -3.80092	-0.000635472	  -3.80092	  -15.8868	
  -3.73143	-0.000629346	  -3.72721	-0.000640183	  -3.72837	-0.00063511	    -3.729	-0.00063488	    -3.729	   -15.872	
  -3.65939	-0.000628769	  -3.65495	-0.000639473	   -3.6564	-0.00063459	  -3.65692	-0.000634277	  -3.65692	  -15.8569	
  -3.58717	-0.000628043	  -3.58268	-0.000638764	   -3.5844	-0.00063398	  -3.58475	-0.000633595	  -3.58475	  -15.8399	
  -3.51492	-0.000627153	  -3.51052	-0.000638016	   -3.5122	-0.000633226	  -3.51255	-0.000632799	  -3.51255	    -15.82	
  -3.44248	-0.000626167	  -3.43818	-0.000637194	  -3.43983	-0.000632339	  -3.44016	-0.0006319	  -3.44016	  -15.7975	
  -3.36999	-0.000625183	   -3.3658	-0.000636297	  -3.36755	-0.000631386	  -3.36778	-0.000630955	  -3.36778	  -15.7739	
  -3.29732	-0.000624287	  -3.29323	-0.000635355	  -3.29508	-0.000630453	  -3.29521	-0.000630032	  -3.29521	  -15.7508	
  -3.22461	-0.000623489	  -3.22062	-0.000634401	  -3.22255	-0.000629607	  -3.22259	-0.000629166	  -3.22259	  -15.7291	
  -3.15185	-0.000622731	  -3.14769	-0.000633455	  -3.14969	-0.000628849	  -3.14974	-0.000628345	  -3.14974	  -15.7086	
   -3.0789	-0.000621917	   -3.0746	-0.000632504	  -3.07665	-0.000628119	  -3.07672	-0.000627513	  -3.07672	  -15.6878	
  -3.00604	-0.000620971	  -3.00134	-0.000631517	  -3.00345	-0.000627327	  -3.00361	-0.000626605	  -3.00361	  -15.6651	
  -2.93285	-0.000619879	  -2.92806	-0.000630472	  -2.93008	-0.000626397	  -2.93033	-0.000625583	  -2.93033	  -15.6396	
  -2.85961	-0.0006187	  -2.85476	-0.000629369	  -2.85668	-0.00062532	  -2.85702	-0.000624463	  -2.85702	  -15.6116	
  -2.78618	-0.000617523	  -2.78128	-0.000628237	  -2.78326	-0.00062416	  -2.78358	-0.000623307	  -2.78358	  -15.5827	
  -2.71258	-0.000616422	  -2.70765	-0.000627106	  -2.70967	-0.000623004	  -2.70997	-0.000622177	  -2.70997	  -15.5544	
  -2.63894	-0.000615407	  -2.63414	-0.000625998	   -2.6362	-0.000621937	  -2.63642	-0.000621114	  -2.63642	  -15.5279	
  -2.56527	-0.000614419	  -2.56045	-0.000624903	  -2.56254	-0.00062096	  -2.56275	-0.000620094	  -2.56275	  -15.5024	
  -2.49156	-0.00061338	  -2.48675	-0.000623784	  -2.48886	-0.000620017	  -2.48905	-0.00061906	  -2.48905	  -15.4765	
  -2.41767	-0.00061222	  -2.41301	-0.000622601	    -2.415	 -0.000619	  -2.41523	-0.00061794	  -2.41523	  -15.4485	
  -2.34362	-0.000610937	   -2.3391	-0.000621335	  -2.34098	-0.000617836	  -2.34123	-0.000616703	  -2.34123	  -15.4176	
  -2.26954	-0.000609585	  -2.26531	-0.000620002	  -2.26694	-0.000616533	  -2.26726	-0.000615374	  -2.26726	  -15.3843	
  -2.19516	-0.00060824	  -2.19121	-0.000618644	   -2.1926	-0.000615147	  -2.19299	-0.00061401	  -2.19299	  -15.3503	
  -2.12078	-0.000606961	  -2.11708	-0.000617303	  -2.11827	-0.000613813	  -2.11871	-0.000612692	  -2.11871	  -15.3173	
  -2.04626	-0.000605749	  -2.04294	-0.000615991	  -2.04393	-0.000612573	  -2.04438	-0.000611437	  -2.04438	  -15.2859	
   -1.9716	-0.000604464	  -1.96863	-0.000614577	  -1.96944	-0.000611374	  -1.96989	-0.000610139	  -1.96989	  -15.2535	
  -1.89708	-0.000603133	  -1.89431	-0.000613146	  -1.89482	-0.00061009	  -1.89541	-0.00060879	  -1.89541	  -15.2197	
  -1.82243	-0.000601712	   -1.8197	-0.000611709	  -1.81994	-0.000608631	  -1.82069	-0.000607351	  -1.82069	  -15.1838	
  -1.74778	-0.000600209	  -1.74509	-0.000610268	  -1.74509	-0.000606988	  -1.74599	-0.000605822	  -1.74599	  -15.1455	
