# User: ACHyster
# File name: C:/ACHYSTER/ACHyster SENS/SHAMS/CoFe2O4-1gl-water-45 Glycerol-Sens-07-03-2023/CoFe2O4-1gl-water-45 Glycerol- 10_100F- 12 kAm -Sens-07-03-20230000#1.txt
# Saved at: ma. mar. 7 16:39:52 2023
# Hyster Loop (3 iterations). Intensity: 12.0 kA/m; Tuned frequency: 9.4 kHz
# Units x axis: (kA/m)
# Units y axis: "Repeats y" & "Average y" (10^(-3)Am^2); "Mass avg y" (Am^2/kg)
# Magnetic mass: 4e-05 g
# Parameter      	Repeat   1	Repeat   2	Repeat   3	Average   	Sigma     
# H_C (kA/m)     	       9.5	       9.5	       9.4	       9.5	       0.0
# M_R (Am^2/kg)  	      41.3	      42.3	      42.0	      41.9	       0.4
# M_max (Am^2/kg)	      34.0	      34.5	      34.5	      34.3	       0.2
# Area (mJ/kg)   	    1935.1	    1975.7	    1956.7	    1955.8	      16.6
# SAR (W/g)      	      18.2	      18.6	      18.4	      18.4	       0.2
#Repeat 1 x	Repeat 1 y	Repeat 2 x	Repeat 2 y	Repeat 3 x	Repeat 3 y	Average x 	Average y 	Mass avg x 	Mass avg y 
  -1.67523	-0.00180511	  -1.67746	-0.00182371	  -1.67019	-0.00182194	   -1.6743	-0.00181692	   -1.6743	   -45.423	
  -1.60063	-0.00179924	  -1.60262	-0.00181807	  -1.59552	-0.00181633	  -1.59959	-0.00181121	  -1.59959	  -45.2804	
  -1.52601	-0.00179333	  -1.52791	-0.00181236	  -1.52088	-0.0018107	  -1.52493	-0.00180547	  -1.52493	  -45.1367	
  -1.45122	-0.00178735	  -1.45301	-0.00180655	  -1.44612	 -0.001805	  -1.45012	-0.00179963	  -1.45012	  -44.9908	
  -1.37644	-0.00178131	  -1.37812	-0.00180073	   -1.3714	-0.0017992	  -1.37532	-0.00179375	  -1.37532	  -44.8437	
  -1.30147	-0.00177524	  -1.30313	-0.00179487	  -1.29657	-0.00179331	  -1.30039	-0.00178781	  -1.30039	  -44.6951	
  -1.22642	-0.0017691	  -1.22806	-0.00178885	  -1.22145	-0.00178743	  -1.22531	-0.00178179	  -1.22531	  -44.5448	
  -1.15155	-0.00176293	  -1.15301	-0.00178285	  -1.14661	-0.00178136	  -1.15039	-0.00177571	  -1.15039	  -44.3929	
  -1.07651	-0.00175672	  -1.07777	-0.00177681	  -1.07162	-0.00177529	   -1.0753	-0.00176961	   -1.0753	  -44.2402	
  -1.00139	-0.00175041	   -1.0026	-0.00177064	 -0.996692	-0.00176924	  -1.00023	-0.00176343	  -1.00023	  -44.0857	
 -0.926155	-0.00174409	 -0.927292	-0.00176443	  -0.92163	-0.00176303	 -0.925026	-0.00175718	 -0.925026	  -43.9296	
 -0.850848	-0.00173778	 -0.851957	-0.00175815	 -0.846539	-0.00175672	 -0.849781	-0.00175088	 -0.849781	  -43.7721	
 -0.775529	-0.00173133	 -0.776623	-0.00175186	 -0.771495	-0.00175042	 -0.774549	-0.00174453	 -0.774549	  -43.6133	
 -0.700079	-0.00172483	 -0.701147	-0.00174549	 -0.696327	-0.00174403	 -0.699184	-0.00173812	 -0.699184	  -43.4529	
 -0.624706	-0.00171835	 -0.625739	-0.00173905	 -0.621218	-0.00173747	 -0.623888	-0.00173163	 -0.623888	  -43.2907	
  -0.54942	-0.00171175	  -0.55018	-0.00173257	 -0.545896	-0.00173095	 -0.548499	-0.00172509	 -0.548499	  -43.1272	
  -0.47408	-0.0017051	 -0.474651	-0.00172601	 -0.470599	-0.00172438	  -0.47311	-0.0017185	  -0.47311	  -42.9624	
 -0.398791	-0.00169846	 -0.399058	-0.00171937	 -0.395231	-0.00171761	 -0.397693	-0.00171181	 -0.397693	  -42.7954	
 -0.323403	-0.0016917	 -0.323383	-0.00171268	 -0.319775	-0.0017108	 -0.322187	-0.00170506	 -0.322187	  -42.6264	
 -0.248075	-0.00168484	 -0.247783	-0.0017059	 -0.244365	-0.00170398	 -0.246741	-0.00169824	 -0.246741	   -42.456	
 -0.172639	-0.00167797	 -0.172092	-0.00169904	 -0.168883	-0.00169701	 -0.171204	-0.00169134	 -0.171204	  -42.2835	
-0.0972724	-0.00167097	-0.0964849	-0.00169211	-0.0934791	-0.00169002	-0.0957455	-0.00168437	-0.0957455	  -42.1092	
-0.0218358	-0.00166395	-0.0207971	-0.00168511	-0.0181401	-0.00168289	-0.0202577	-0.00167732	-0.0202577	   -41.933	
 0.0536479	-0.00165683	 0.0549213	-0.00167805	 0.0572735	-0.00167563	 0.0552809	-0.00167017	 0.0552809	  -41.7542	
   0.12905	-0.00164964	  0.130542	-0.0016709	  0.132656	-0.00166839	  0.130749	-0.00166298	  0.130749	  -41.5744	
  0.204568	-0.00164243	  0.206237	-0.00166368	  0.208102	-0.00166099	  0.206302	-0.0016557	  0.206302	  -41.3925	
  0.279971	-0.00163512	  0.281854	-0.00165638	  0.283605	-0.00165347	   0.28181	-0.00164832	   0.28181	  -41.2081	
  0.355453	-0.0016277	  0.357584	 -0.001649	  0.359049	-0.00164595	  0.357362	-0.00164088	  0.357362	  -41.0221	
   0.43094	-0.00162028	  0.433299	-0.00164157	  0.434447	-0.0016383	  0.432896	-0.00163338	  0.432896	  -40.8346	
  0.506452	-0.00161275	  0.508947	-0.00163405	  0.509679	-0.00163054	  0.508359	-0.00162578	  0.508359	  -40.6445	
   0.58208	-0.00160509	  0.584674	-0.00162644	  0.584972	-0.00162281	  0.583909	-0.00161811	  0.583909	  -40.4528	
  0.657566	-0.00159743	  0.660276	-0.00161871	  0.660346	-0.00161502	  0.659396	-0.00161039	  0.659396	  -40.2597	
  0.733034	-0.00158967	  0.735974	-0.00161095	  0.735736	-0.00160711	  0.734915	-0.00160258	  0.734915	  -40.0645	
  0.808467	-0.00158182	  0.811615	-0.0016031	  0.811046	-0.00159915	  0.810376	-0.00159469	  0.810376	  -39.8673	
  0.883842	-0.00157392	  0.887152	-0.00159509	  0.886332	-0.00159116	  0.885775	-0.00158672	  0.885775	  -39.6681	
  0.959281	-0.00156596	  0.962735	-0.00158707	  0.961715	-0.00158307	  0.961244	-0.0015787	  0.961244	  -39.4675	
   1.03453	-0.00155789	   1.03853	-0.00157913	   1.03694	-0.0015749	   1.03667	-0.00157064	   1.03667	   -39.266	
   1.10988	-0.00154976	   1.11391	-0.00157092	   1.11218	-0.00156668	   1.11199	-0.00156245	   1.11199	  -39.0614	
   1.18516	-0.0015416	   1.18936	-0.00156261	   1.18738	-0.00155836	    1.1873	-0.00155419	    1.1873	  -38.8547	
   1.26031	-0.00153337	   1.26483	-0.00155438	   1.26254	-0.00154994	   1.26256	-0.0015459	   1.26256	  -38.6474	
   1.33548	-0.00152503	   1.34033	-0.00154591	   1.33775	-0.00154145	   1.33786	-0.00153747	   1.33786	  -38.4366	
   1.41045	-0.00151661	   1.41562	-0.00153736	   1.41276	-0.00153287	   1.41295	-0.00152895	   1.41295	  -38.2237	
   1.48548	-0.00150819	    1.4909	-0.00152884	   1.48772	-0.00152424	   1.48804	-0.00152043	   1.48804	  -38.0106	
   1.56043	-0.00149963	   1.56609	-0.00152012	    1.5626	-0.00151553	   1.56304	-0.00151176	   1.56304	   -37.794	
   1.63533	-0.00149102	    1.6411	-0.00151133	   1.63725	-0.00150671	   1.63789	-0.00150302	   1.63789	  -37.5755	
   1.71026	-0.00148238	   1.71616	-0.00150254	   1.71199	-0.00149781	    1.7128	-0.00149424	    1.7128	  -37.3561	
   1.78501	-0.00147364	   1.79101	-0.0014936	   1.78659	-0.00148889	   1.78753	-0.00148538	   1.78753	  -37.1344	
   1.85977	-0.00146487	   1.86583	-0.0014846	   1.86117	-0.00147994	   1.86226	-0.00147647	   1.86226	  -36.9117	
   1.93446	-0.00145604	   1.94055	-0.0014756	   1.93568	-0.00147089	    1.9369	-0.00146751	    1.9369	  -36.6877	
   2.00894	-0.00144709	   2.01512	-0.00146648	   2.01001	-0.00146178	   2.01136	-0.00145845	   2.01136	  -36.4614	
   2.08347	-0.00143814	   2.08975	-0.00145725	   2.08444	-0.00145263	   2.08588	-0.00144934	   2.08588	  -36.2335	
   2.15814	-0.00142912	   2.16417	-0.00144806	   2.15868	-0.00144338	   2.16033	-0.00144019	   2.16033	  -36.0047	
   2.23247	-0.00142004	   2.23852	-0.00143873	   2.23289	-0.00143408	   2.23463	-0.00143095	   2.23463	  -35.7738	
   2.30673	-0.00141096	    2.3128	-0.00142933	   2.30706	-0.00142474	   2.30886	-0.00142168	   2.30886	  -35.5419	
   2.38093	-0.00140174	   2.38695	-0.00141989	   2.38102	-0.00141527	   2.38297	-0.0014123	   2.38297	  -35.3075	
   2.45508	-0.00139254	   2.46113	-0.00141039	   2.45502	-0.00140575	   2.45707	-0.00140289	   2.45707	  -35.0723	
   2.52904	-0.00138327	   2.53516	-0.00140086	   2.52885	-0.00139621	   2.53102	-0.00139345	   2.53102	  -34.8361	
   2.60288	-0.0013739	   2.60912	-0.00139119	   2.60257	-0.00138657	   2.60485	-0.00138389	   2.60485	  -34.5972	
   2.67665	-0.00136453	   2.68302	-0.00138144	   2.67625	-0.00137686	   2.67864	-0.00137428	   2.67864	   -34.357	
   2.75014	-0.00135514	   2.75673	-0.00137165	   2.74966	-0.00136712	   2.75218	-0.00136464	   2.75218	  -34.1159	
    2.8236	-0.00134561	   2.83015	-0.00136179	   2.82302	-0.00135734	   2.82559	-0.00135492	   2.82559	  -33.8729	
   2.89692	-0.00133601	   2.90354	-0.00135189	   2.89626	-0.00134747	   2.89891	-0.00134512	   2.89891	   -33.628	
   2.97006	-0.00132646	   2.97683	-0.00134194	   2.96925	-0.00133758	   2.97205	-0.00133533	   2.97205	  -33.3831	
   3.04318	-0.0013168	   3.04994	-0.0013319	   3.04228	-0.00132764	   3.04513	-0.00132545	   3.04513	  -33.1362	
    3.1161	-0.00130705	   3.12297	-0.00132174	   3.11508	-0.00131762	   3.11805	-0.00131547	   3.11805	  -32.8868	
   3.18898	-0.00129731	   3.19588	-0.00131155	   3.18771	-0.00130754	   3.19085	-0.00130547	   3.19085	  -32.6367	
   3.26177	-0.00128742	   3.26868	-0.00130134	   3.26028	-0.00129741	   3.26358	-0.00129539	   3.26358	  -32.3847	
   3.33431	-0.00127749	   3.34133	-0.00129101	   3.33258	-0.00128719	   3.33607	-0.00128523	   3.33607	  -32.1307	
   3.40682	-0.0012676	   3.41397	-0.00128065	   3.40486	-0.0012769	   3.40855	-0.00127505	   3.40855	  -31.8763	
   3.47917	-0.00125759	   3.48641	-0.00127025	   3.47699	-0.00126654	   3.48086	-0.00126479	   3.48086	  -31.6198	
   3.55136	-0.00124748	   3.55871	-0.00125975	   3.54884	-0.00125611	   3.55297	-0.00125445	   3.55297	  -31.3612	
   3.62354	-0.00123737	   3.63093	-0.00124922	   3.62067	-0.00124563	   3.62505	-0.00124407	   3.62505	  -31.1019	
   3.69546	-0.00122713	   3.70291	-0.00123864	   3.69229	-0.00123507	   3.69689	-0.00123361	   3.69689	  -30.8403	
   3.76724	-0.0012168	   3.77476	-0.00122796	   3.76376	-0.00122446	   3.76859	-0.00122307	   3.76859	  -30.5769	
   3.83892	-0.00120645	   3.84648	-0.0012172	   3.83517	-0.00121378	   3.84019	-0.00121248	   3.84019	  -30.3119	
   3.91031	-0.00119597	   3.91792	-0.0012065	   3.90628	-0.00120303	   3.91151	-0.00120183	   3.91151	  -30.0458	
   3.98159	-0.0011854	   3.98935	-0.0011957	   3.97731	-0.00119222	   3.98275	-0.00119111	   3.98275	  -29.7777	
   4.05259	-0.00117487	    4.0606	-0.00118479	   4.04822	-0.00118133	    4.0538	-0.00118033	    4.0538	  -29.5083	
   4.12344	-0.00116418	   4.13167	-0.00117396	   4.11887	-0.00117038	   4.12466	-0.00116951	   4.12466	  -29.2377	
   4.19433	-0.00115334	   4.20257	-0.00116302	   4.18946	-0.00115935	   4.19545	-0.00115857	   4.19545	  -28.9642	
   4.26487	-0.00114255	   4.27329	 -0.001152	   4.25987	-0.00114826	   4.26601	-0.0011476	   4.26601	    -28.69	
   4.33524	-0.00113167	   4.34387	-0.00114098	   4.33001	-0.00113709	   4.33638	-0.00113658	   4.33638	  -28.4145	
    4.4055	-0.00112067	   4.41413	-0.00112992	   4.40013	-0.00112586	   4.40659	-0.00112548	   4.40659	  -28.1371	
   4.47548	-0.00110969	    4.4842	-0.00111877	   4.47001	-0.00111456	   4.47656	-0.00111434	   4.47656	  -27.8585	
   4.54533	-0.00109862	   4.55414	-0.00110757	   4.53972	-0.00110322	    4.5464	-0.00110314	    4.5464	  -27.5785	
   4.61508	-0.00108742	   4.62396	-0.00109639	   4.60933	-0.00109181	   4.61612	-0.00109187	   4.61612	  -27.2968	
   4.68463	-0.0010762	   4.69348	-0.0010851	   4.67868	-0.0010803	    4.6856	-0.00108053	    4.6856	  -27.0133	
   4.75411	-0.00106493	   4.76293	-0.0010737	   4.74783	-0.00106874	   4.75496	-0.00106912	   4.75496	  -26.7281	
   4.82347	-0.00105357	    4.8322	-0.00106234	    4.8169	-0.00105715	   4.82419	-0.00105768	   4.82419	  -26.4421	
   4.89252	-0.00104212	   4.90115	-0.00105077	   4.88568	-0.00104548	   4.89312	-0.00104612	   4.89312	   -26.153	
   4.96149	-0.00103065	   4.97005	-0.00103916	   4.95435	-0.00103374	   4.96196	-0.00103452	   4.96196	   -25.863	
   5.03026	-0.0010191	   5.03875	-0.00102756	   5.02288	-0.00102198	   5.03063	-0.00102288	   5.03063	  -25.5719	
   5.09872	-0.00100746	   5.10716	-0.00101578	   5.09113	-0.00101019	     5.099	-0.00101114	     5.099	  -25.2786	
   5.16716	-0.000995801	   5.17548	-0.00100395	   5.15927	-0.000998256	    5.1673	-0.000999337	    5.1673	  -24.9834	
   5.23537	-0.000984083	   5.24357	-0.000992105	   5.22724	-0.000986326	   5.23539	-0.000987505	   5.23539	  -24.6876	
   5.30322	-0.000972245	   5.31148	-0.000980118	   5.29491	-0.000974358	    5.3032	-0.000975574	    5.3032	  -24.3893	
   5.37096	-0.000960439	   5.37931	-0.000968056	   5.36253	-0.000962266	   5.37093	-0.000963587	   5.37093	  -24.0897	
   5.43846	-0.000948572	   5.44686	-0.000955965	   5.42995	-0.000950166	   5.43842	-0.000951568	   5.43842	  -23.7892	
   5.50564	-0.000936578	   5.51406	-0.000943786	   5.49707	-0.000938023	   5.50559	-0.000939462	   5.50559	  -23.4866	
   5.57274	-0.000924587	   5.58097	-0.000931542	   5.56406	-0.00092578	   5.57259	-0.000927303	   5.57259	  -23.1826	
   5.63959	-0.000912617	   5.64771	-0.000919223	   5.63085	-0.000913523	   5.63938	-0.000915121	   5.63938	   -22.878	
   5.70606	-0.000900415	   5.71423	-0.000906828	    5.6973	-0.000901223	   5.70586	-0.000902822	   5.70586	  -22.5706	
   5.77242	-0.000888248	   5.78045	-0.000894348	   5.76352	-0.000888838	   5.77213	-0.000890478	   5.77213	   -22.262	
   5.83854	-0.0008761	   5.84645	-0.000881806	   5.82954	-0.000876413	   5.83818	-0.000878106	   5.83818	  -21.9527	
   5.90431	-0.000863766	   5.91217	-0.000869224	   5.89521	-0.000863945	    5.9039	-0.000865645	    5.9039	  -21.6411	
   5.97002	-0.000851426	   5.97777	-0.000856561	   5.96073	-0.000851395	    5.9695	-0.000853127	    5.9695	  -21.3282	
   6.03547	-0.000839075	    6.0431	-0.000843849	   6.02605	-0.000838794	   6.03487	-0.000840572	   6.03487	  -21.0143	
   6.10056	-0.000826578	   6.10823	-0.000831067	   6.09101	-0.00082611	   6.09993	-0.000827918	   6.09993	   -20.698	
   6.16559	-0.000814057	   6.17324	-0.000818202	   6.15579	-0.000813389	   6.16487	-0.000815216	   6.16487	  -20.3804	
   6.23039	-0.000801516	   6.23801	-0.000805331	   6.22041	-0.00080065	    6.2296	-0.000802499	    6.2296	  -20.0625	
    6.2948	-0.000788852	   6.30249	-0.00079237	   6.28468	-0.00078783	   6.29399	-0.000789684	   6.29399	  -19.7421	
   6.35911	-0.000776161	   6.36675	-0.000779408	   6.34878	-0.000774933	   6.35821	-0.000776834	   6.35821	  -19.4208	
    6.4232	-0.000763477	   6.43074	-0.000766373	   6.41272	-0.00076205	   6.42222	-0.000763967	   6.42222	  -19.0992	
   6.48689	-0.000750652	   6.49436	-0.000753258	   6.47631	-0.0007491	   6.48585	-0.000751003	   6.48585	  -18.7751	
   6.55036	-0.000737818	   6.55778	-0.000740146	   6.53963	-0.000736042	   6.54926	-0.000738002	   6.54926	    -18.45	
   6.61367	-0.000724943	   6.62102	-0.00072701	   6.60285	-0.00072296	   6.61251	-0.000724971	   6.61251	  -18.1243	
    6.6766	-0.000711967	   6.68389	-0.000713789	   6.66573	-0.000709854	   6.67541	-0.00071187	   6.67541	  -17.7967	
   6.73916	-0.000698974	   6.74643	-0.000700499	   6.72827	-0.0006966	   6.73795	-0.000698691	   6.73795	  -17.4673	
   6.80161	-0.000685934	   6.80885	-0.000687139	   6.79069	-0.000683308	   6.80038	-0.00068546	   6.80038	  -17.1365	
   6.86374	-0.000672791	   6.87092	-0.000673745	   6.85283	-0.000669993	   6.86249	-0.000672176	   6.86249	  -16.8044	
   6.92545	-0.000659623	   6.93257	-0.000660303	   6.91462	-0.000656567	   6.92421	-0.000658831	   6.92421	  -16.4708	
   6.98709	-0.000646428	   6.99411	-0.000646819	   6.97619	-0.000643116	    6.9858	-0.000645454	    6.9858	  -16.1364	
   7.04846	-0.000633102	   7.05537	-0.0006333	   7.03754	-0.000629741	   7.04713	-0.000632048	   7.04713	  -15.8012	
   7.10944	-0.000619735	   7.11623	-0.000619762	   7.09849	-0.000616152	   7.10805	-0.00061855	   7.10805	  -15.4637	
   7.17025	-0.000606311	   7.17704	-0.000606218	    7.1591	-0.000602552	    7.1688	-0.000605027	    7.1688	  -15.1257	
   7.23073	-0.000592913	   7.23764	-0.000592601	   7.21954	-0.000589046	    7.2293	-0.00059152	    7.2293	   -14.788	
   7.29086	-0.000579469	   7.29782	-0.000578946	   7.27964	-0.000575375	   7.28944	-0.00057793	   7.28944	  -14.4482	
    7.3506	-0.000565894	    7.3578	-0.000565252	   7.33949	-0.000561685	    7.3493	-0.000564277	    7.3493	  -14.1069	
   7.41025	-0.000552325	   7.41765	-0.000551528	   7.39917	-0.000548051	   7.40902	-0.000550635	   7.40902	  -13.7659	
    7.4696	-0.00053871	   7.47716	-0.000537701	   7.45858	-0.00053429	   7.46845	-0.0005369	   7.46845	  -13.4225	
   7.52853	-0.000524965	   7.53622	-0.00052385	   7.51758	-0.0005205	   7.52744	-0.000523105	   7.52744	  -13.0776	
   7.58738	-0.000511226	   7.59512	-0.000509968	   7.57617	-0.000506778	   7.58622	-0.000509324	   7.58622	  -12.7331	
   7.64601	-0.000497466	   7.65377	-0.000496043	   7.63455	-0.000492969	   7.64478	-0.000495493	   7.64478	  -12.3873	
   7.70423	-0.00048361	   7.71207	-0.000482103	    7.6926	-0.000479097	   7.70297	-0.000481603	   7.70297	  -12.0401	
   7.76205	-0.000469756	   7.76999	-0.000468122	   7.75018	-0.000465257	   7.76074	-0.000467712	   7.76074	  -11.6928	
   7.81975	-0.000455895	   7.82773	-0.000454084	   7.80752	-0.000451352	   7.81833	-0.000453777	   7.81833	  -11.3444	
   7.87716	-0.000441963	   7.88516	-0.000440084	   7.86482	-0.000437387	   7.87571	-0.000439811	   7.87571	  -10.9953	
   7.93409	-0.000428048	   7.94216	-0.000426106	   7.92184	-0.000423476	    7.9327	-0.000425877	    7.9327	  -10.6469	
   7.99073	-0.000414093	   7.99891	-0.000412015	   7.97828	-0.000409585	   7.98931	-0.000411897	   7.98931	  -10.2974	
    8.0472	-0.00040004	   8.05545	-0.000397971	   8.03443	-0.000395509	    8.0457	-0.00039784	    8.0457	  -9.94601	
   8.10333	-0.000386036	   8.11161	-0.00038392	   8.09027	-0.000381584	   8.10174	-0.000383847	   8.10174	  -9.59616	
   8.15894	-0.000371964	   8.16731	-0.00036976	   8.14569	-0.000367621	   8.15731	-0.000369782	   8.15731	  -9.24454	
   8.21424	-0.000357832	   8.22278	-0.000355627	   8.20081	-0.000353477	   8.21261	-0.000355646	   8.21261	  -8.89114	
   8.26933	-0.000343751	   8.27803	-0.000341468	   8.25578	-0.000339423	   8.26771	-0.000341547	   8.26771	  -8.53869	
   8.32405	-0.0003296	    8.3329	-0.000327242	   8.31045	-0.000325335	   8.32247	-0.000327392	   8.32247	   -8.1848	
    8.3783	-0.000315412	   8.38734	-0.000313044	   8.36467	-0.000311101	   8.37677	-0.000313185	   8.37677	  -7.82963	
    8.4324	-0.000301267	   8.44151	-0.000298839	   8.41849	-0.000296893	    8.4308	 -0.000299	    8.4308	  -7.47499	
   8.48623	-0.000287066	   8.49543	-0.000284598	   8.47215	-0.000282689	    8.4846	-0.000284784	    8.4846	  -7.11961	
    8.5397	-0.00027284	   8.54894	-0.000270347	   8.52551	-0.000268406	   8.53805	-0.000270531	   8.53805	  -6.76327	
   8.59272	-0.000258662	   8.60194	-0.000256072	   8.57838	-0.000254149	   8.59101	-0.000256294	   8.59101	  -6.40736	
   8.64534	-0.00024441	   8.65461	-0.000241777	    8.6309	-0.000239853	   8.64362	-0.000242013	   8.64362	  -6.05034	
   8.69763	-0.000230115	   8.70703	-0.000227479	   8.68324	-0.000225514	   8.69597	-0.000227703	   8.69597	  -5.69257	
   8.74959	-0.000215852	   8.75909	-0.000213163	   8.73528	-0.000211198	   8.74799	-0.000213404	   8.74799	  -5.33511	
    8.8013	-0.000201557	   8.81064	-0.000198848	   8.78686	-0.000196851	    8.7996	-0.000199085	    8.7996	  -4.97713	
   8.85269	-0.000187213	   8.86189	-0.000184482	   8.83799	-0.000182474	   8.85086	-0.000184723	   8.85086	  -4.61808	
   8.90378	-0.00017287	   8.91294	-0.000170105	    8.8889	-0.000168093	   8.90187	-0.000170356	   8.90187	   -4.2589	
   8.95453	-0.000158507	   8.96364	-0.000155755	   8.93953	-0.000153655	   8.95257	-0.000155972	   8.95257	  -3.89931	
    9.0048	-0.000144116	   9.01388	-0.000141377	   8.98975	-0.000139246	   9.00281	-0.00014158	   9.00281	  -3.53949	
   9.05463	-0.000129729	   9.06376	-0.000126966	    9.0395	-0.000124824	   9.05263	-0.000127173	   9.05263	  -3.17932	
   9.10419	-0.000115329	   9.11339	-0.000112539	   9.08895	-0.000110403	   9.10218	-0.000112757	   9.10218	  -2.81892	
   9.15344	-0.000100908	   9.16271	-9.81854e-05	    9.1379	-9.59454e-05	   9.15135	-9.83461e-05	   9.15135	  -2.45865	
   9.20227	-8.64896e-05	   9.21157	-8.37631e-05	   9.18651	-8.14929e-05	   9.20012	-8.39152e-05	   9.20012	  -2.09788	
   9.25062	-7.20652e-05	   9.25997	-6.93468e-05	   9.23492	-6.6942e-05	   9.24851	-6.94514e-05	   9.24851	  -1.73628	
   9.29855	-5.76196e-05	   9.30808	  -5.5e-05	   9.28288	-5.24952e-05	    9.2965	-5.50383e-05	    9.2965	  -1.37596	
   9.34629	-4.3165e-05	   9.35596	-4.0622e-05	   9.33051	-3.80521e-05	   9.34425	-4.0613e-05	   9.34425	  -1.01533	
    9.3937	-2.87268e-05	   9.40347	-2.62387e-05	   9.37774	-2.34663e-05	   9.39163	-2.6144e-05	   9.39163	 -0.653599	
   9.44064	-1.43142e-05	    9.4505	-1.19265e-05	   9.42456	-8.94924e-06	   9.43856	-1.173e-05	   9.43856	 -0.293249	
   9.48708	1.61645e-07	   9.49699	2.46225e-06	   9.47098	5.54511e-06	   9.48502	 2.723e-06	   9.48502	  0.068075	
   9.53321	1.46629e-05	   9.54321	1.68221e-05	     9.517	2.01288e-05	   9.53114	1.72046e-05	   9.53114	  0.430115	
   9.57911	2.91562e-05	   9.58914	3.10516e-05	   9.56272	3.46503e-05	   9.57699	3.16194e-05	   9.57699	  0.790484	
   9.62466	4.36416e-05	    9.6347	4.53775e-05	   9.60818	4.91361e-05	   9.62251	4.60518e-05	   9.62251	   1.15129	
   9.66973	5.81173e-05	   9.67977	5.96757e-05	   9.65323	6.36854e-05	   9.66758	6.04928e-05	   9.66758	   1.51232	
   9.71427	7.26346e-05	   9.72435	7.38771e-05	   9.69778	7.81854e-05	   9.71213	7.4899e-05	   9.71213	   1.87248	
   9.75847	8.71652e-05	   9.76859	8.8111e-05	   9.74192	9.26661e-05	   9.75633	8.93141e-05	   9.75633	   2.23285	
   9.80243	0.000101688	   9.81273	0.000102404	   9.78583	0.00010717	   9.80033	0.000103754	   9.80033	   2.59385	
   9.84606	0.000116253	   9.85618	0.000116674	   9.82946	0.000121617	    9.8439	0.000118182	    9.8439	   2.95454	
   9.88924	0.000130797	   9.89947	0.000130832	    9.8727	0.000136062	   9.88714	0.000132564	   9.88714	    3.3141	
    9.9319	0.000145341	   9.94236	0.000145111	   9.91544	0.000150532	    9.9299	0.000146995	    9.9299	   3.67486	
   9.97417	0.000159913	   9.98501	0.000159322	    9.9577	0.000164961	   9.97229	0.000161398	   9.97229	   4.03496	
   10.0161	0.000174427	   10.0273	0.000173435	   9.99953	0.000179334	   10.0143	0.000175732	   10.0143	    4.3933	
   10.0578	0.000188963	   10.0693	0.000187647	   10.0411	0.000193787	   10.0561	0.000190132	   10.0561	   4.75331	
   10.0991	0.000203496	   10.1108	0.000201823	   10.0823	0.000208161	   10.0974	0.000204493	   10.0974	   5.11233	
   10.1398	0.000217982	   10.1518	0.000215887	   10.1231	0.000222514	   10.1382	0.000218795	   10.1382	   5.46986	
   10.1801	0.000232467	   10.1923	0.000230021	   10.1634	0.00023695	   10.1786	0.000233146	   10.1786	   5.82866	
   10.2199	0.000247025	   10.2323	0.000244139	   10.2031	0.000251303	   10.2185	0.000247489	   10.2185	   6.18723	
   10.2595	0.000261414	    10.272	0.000258184	   10.2427	0.00026564	   10.2581	0.000261746	   10.2581	   6.54364	
   10.2988	0.000275851	   10.3114	0.000272302	   10.2819	0.000280003	   10.2974	0.000276052	   10.2974	    6.9013	
   10.3377	0.000290351	   10.3503	0.000286405	   10.3207	0.00029426	   10.3363	0.000290339	   10.3363	   7.25847	
   10.3761	0.000304745	   10.3887	0.000300423	   10.3592	0.000308574	   10.3747	0.000304581	   10.3747	   7.61452	
    10.414	0.000319147	   10.4265	0.000314503	   10.3971	0.000322951	   10.4125	0.000318867	   10.4125	   7.97167	
   10.4514	0.000333597	   10.4638	0.000328589	   10.4344	0.000337205	   10.4499	0.000333131	   10.4499	   8.32826	
   10.4884	0.000347973	   10.5009	0.000342671	   10.4712	0.000351471	   10.4869	0.000347372	   10.4869	    8.6843	
   10.5252	0.000362363	   10.5377	0.000356744	   10.5077	0.000365808	   10.5235	0.000361638	   10.5235	   9.04096	
   10.5616	0.000376745	   10.5741	0.000370793	   10.5439	0.000380065	   10.5599	0.000375867	   10.5599	   9.39669	
   10.5976	0.000391098	     10.61	0.00038485	   10.5797	0.000394313	   10.5958	0.000390087	   10.5958	   9.75218	
   10.6331	0.000405449	   10.6454	0.000398952	    10.615	0.000408603	   10.6312	0.000404335	   10.6312	   10.1084	
    10.668	0.000419763	   10.6803	0.000412997	   10.6499	0.000422829	    10.666	0.000418529	    10.666	   10.4632	
   10.7025	0.000434021	   10.7147	0.000427033	   10.6842	0.000437016	   10.7005	0.00043269	   10.7005	   10.8173	
    10.737	0.000448291	   10.7487	0.000441123	    10.718	0.000451247	   10.7346	0.000446887	   10.7346	   11.1722	
   10.7707	0.000462618	   10.7823	0.000455194	   10.7516	0.000465464	   10.7682	0.000461092	   10.7682	   11.5273	
    10.804	0.000476756	   10.8154	0.000469186	   10.7849	 0.0004796	   10.8014	0.000475181	   10.8014	   11.8795	
   10.8368	0.000490928	   10.8483	0.000483186	   10.8179	0.000493779	   10.8343	0.000489298	   10.8343	   12.2324	
   10.8692	0.000505161	   10.8806	0.000497134	   10.8505	0.000507895	   10.8668	0.000503397	   10.8668	   12.5849	
   10.9011	0.000519274	   10.9124	0.00051102	   10.8826	0.000521977	   10.8987	0.000517424	   10.8987	   12.9356	
   10.9324	0.000533342	   10.9439	0.000524971	   10.9141	0.000536109	   10.9301	0.000531474	   10.9301	   13.2868	
   10.9631	0.000547455	   10.9749	0.000538868	    10.945	0.000550171	    10.961	0.000545498	    10.961	   13.6374	
   10.9933	0.000561486	   11.0056	0.000552745	   10.9754	0.000564193	   10.9914	0.000559475	   10.9914	   13.9869	
   11.0231	0.000575511	   11.0359	0.000566636	   11.0054	0.000578233	   11.0214	0.00057346	   11.0214	   14.3365	
   11.0526	0.000589509	   11.0658	0.000580459	   11.0351	0.000592226	   11.0512	0.000587398	   11.0512	    14.685	
   11.0819	0.000603467	   11.0954	0.000594288	   11.0645	0.000606188	   11.0806	0.000601314	   11.0806	   15.0329	
   11.1107	0.000617408	   11.1246	0.000608062	   11.0935	0.000620149	   11.1096	0.000615207	   11.1096	   15.3802	
   11.1391	0.000631262	   11.1532	0.000621827	   11.1222	0.000634058	   11.1382	0.000629049	   11.1382	   15.7262	
    11.167	0.000645053	   11.1812	0.000635522	   11.1504	0.000647924	   11.1662	0.000642833	   11.1662	   16.0708	
   11.1943	0.000658852	   11.2086	0.000649183	    11.178	0.000661772	   11.1937	0.000656602	   11.1937	   16.4151	
    11.221	0.00067259	   11.2355	0.000662811	   11.2051	0.00067557	   11.2206	0.000670324	   11.2206	   16.7581	
   11.2472	0.000686258	    11.262	0.000676385	   11.2316	0.000689318	   11.2469	0.000683987	   11.2469	   17.0997	
    11.273	0.000699903	   11.2881	0.000689933	   11.2574	0.000703038	   11.2728	0.000697625	   11.2728	   17.4406	
   11.2984	0.000713483	   11.3139	0.000703455	   11.2828	0.000716711	   11.2984	0.000711216	   11.2984	   17.7804	
   11.3235	0.000726972	   11.3394	0.000716916	   11.3078	0.000730335	   11.3236	0.000724741	   11.3236	   18.1185	
   11.3482	0.000740451	   11.3646	0.000730369	   11.3325	0.000743927	   11.3484	0.000738249	   11.3484	   18.4562	
   11.3726	0.000753902	   11.3894	0.000743816	   11.3568	0.000757475	   11.3729	0.000751731	   11.3729	   18.7933	
   11.3967	0.000767273	   11.4137	0.000757136	   11.3807	0.000770973	    11.397	0.000765127	    11.397	   19.1282	
   11.4203	0.000780543	   11.4375	0.00077048	   11.4043	0.000784385	   11.4207	0.000778469	   11.4207	   19.4617	
   11.4434	0.000793837	   11.4608	0.000783813	   11.4275	0.000797838	   11.4439	0.000791829	   11.4439	   19.7957	
   11.4659	0.00080705	   11.4839	0.000796944	   11.4503	0.000811236	   11.4667	0.000805076	   11.4667	   20.1269	
    11.488	0.000820135	   11.5061	0.00081021	   11.4726	0.000824538	   11.4889	0.000818294	   11.4889	   20.4574	
   11.5097	0.000833255	   11.5279	0.000823372	   11.4943	0.000837885	   11.5106	0.000831504	   11.5106	   20.7876	
   11.5309	0.000846338	   11.5491	0.000836377	   11.5155	0.000851109	   11.5318	0.000844608	   11.5318	   21.1152	
   11.5516	0.000859334	   11.5698	0.00084948	   11.5361	0.000864291	   11.5525	0.000857701	   11.5525	   21.4425	
    11.572	0.000872292	   11.5901	0.000862484	   11.5561	0.000877471	   11.5727	0.000870749	   11.5727	   21.7687	
   11.5918	0.00088522	     11.61	0.000875395	   11.5755	0.000890548	   11.5924	0.000883721	   11.5924	    22.093	
   11.6112	0.000898078	   11.6295	0.000888371	   11.5944	0.000903571	   11.6117	0.000896673	   11.6117	   22.4168	
   11.6304	0.000910888	   11.6488	0.000901269	   11.6128	0.000916563	   11.6306	0.000909573	   11.6306	   22.7393	
   11.6491	0.000923654	   11.6676	0.000914071	   11.6306	0.000929474	   11.6491	 0.0009224	   11.6491	     23.06	
   11.6675	0.000936325	   11.6862	0.000926917	   11.6479	0.000942327	   11.6672	0.00093519	   11.6672	   23.3797	
   11.6855	0.000948996	   11.7043	0.000939652	   11.6649	0.000955129	   11.6849	0.000947926	   11.6849	   23.6981	
   11.7033	0.000961624	   11.7222	0.000952374	   11.6814	0.000967856	   11.7023	0.000960618	   11.7023	   24.0155	
   11.7207	0.000974187	   11.7396	0.000964997	   11.6976	0.000980527	   11.7193	0.000973237	   11.7193	   24.3309	
   11.7377	0.000986616	   11.7566	0.000977587	   11.7135	0.000993139	   11.7359	0.000985781	   11.7359	   24.6445	
   11.7543	0.000999044	   11.7732	 0.0009901	   11.7291	0.00100567	   11.7522	0.000998271	   11.7522	   24.9568	
   11.7704	0.00101142	   11.7893	0.00100251	   11.7444	0.00101815	    11.768	0.00101069	    11.768	   25.2674	
   11.7861	0.00102366	   11.8049	0.00101488	   11.7594	0.00103056	   11.7835	0.00102303	   11.7835	   25.5758	
   11.8014	0.00103587	     11.82	0.00102713	   11.7741	 0.0010429	   11.7985	 0.0010353	   11.7985	   25.8825	
   11.8162	0.00104802	   11.8346	 0.0010393	   11.7884	0.00105522	   11.8131	0.00104751	   11.8131	   26.1878	
   11.8305	0.00106007	   11.8486	0.00105144	   11.8024	0.00106744	   11.8272	0.00105965	   11.8272	   26.4913	
   11.8444	0.00107201	   11.8622	0.00106346	    11.816	0.00107961	   11.8409	0.00107169	   11.8409	   26.7923	
   11.8577	0.00108392	   11.8752	0.00107541	   11.8293	0.00109169	    11.854	0.00108367	    11.854	   27.0919	
   11.8705	0.00109575	   11.8877	0.00108729	   11.8421	0.00110367	   11.8667	0.00109557	   11.8667	   27.3892	
   11.8828	0.00110746	   11.8996	0.00109904	   11.8545	0.00111561	    11.879	0.00110737	    11.879	   27.6843	
   11.8946	0.00111912	    11.911	0.00111079	   11.8665	 0.0011275	   11.8907	0.00111914	   11.8907	   27.9784	
   11.9059	 0.0011307	   11.9219	0.00112243	    11.878	0.00113928	   11.9019	 0.0011308	   11.9019	     28.27	
   11.9167	0.00114216	   11.9325	0.00113389	   11.8891	0.00115101	   11.9128	0.00114235	   11.9128	   28.5588	
   11.9269	0.00115358	   11.9425	0.00114533	   11.8998	0.00116271	   11.9231	0.00115387	   11.9231	   28.8469	
   11.9367	0.00116492	    11.952	 0.0011567	     11.91	0.00117433	   11.9329	0.00116532	   11.9329	   29.1329	
    11.946	0.00117616	   11.9609	0.00116793	   11.9198	0.00118587	   11.9422	0.00117665	   11.9422	   29.4163	
   11.9548	0.00118733	   11.9694	0.00117915	    11.929	0.00119737	    11.951	0.00118795	    11.951	   29.6988	
   11.9631	0.00119842	   11.9773	0.00119029	   11.9377	0.00120872	   11.9594	0.00119915	   11.9594	   29.9786	
    11.971	0.00120943	   11.9848	0.00120132	   11.9458	0.00122009	   11.9672	0.00121028	   11.9672	    30.257	
   11.9784	0.00122033	   11.9919	0.00121226	   11.9533	0.00123138	   11.9745	0.00122132	   11.9745	   30.5331	
   11.9854	0.00123118	   11.9985	 0.0012232	   11.9602	0.00124251	   11.9814	 0.0012323	   11.9814	   30.8074	
   11.9919	0.00124194	   12.0046	0.00123404	   11.9667	0.00125368	   11.9877	0.00124322	   11.9877	   31.0805	
    11.998	0.00125257	   12.0103	0.00124481	   11.9726	0.00126476	   11.9936	0.00125405	   11.9936	   31.3512	
   12.0035	 0.0012632	   12.0155	0.00125551	   11.9781	0.00127571	    11.999	0.00126481	    11.999	   31.6201	
   12.0084	0.00127367	   12.0203	0.00126613	    11.983	0.00128666	   12.0039	0.00127549	   12.0039	   31.8872	
   12.0128	0.00128399	   12.0247	0.00127671	   11.9875	0.00129755	   12.0083	0.00128608	   12.0083	    32.152	
   12.0168	0.00129433	   12.0286	0.00128723	   11.9913	0.00130832	   12.0122	0.00129663	   12.0122	   32.4157	
   12.0203	0.00130461	   12.0322	0.00129759	   11.9945	0.00131909	   12.0157	 0.0013071	   12.0157	   32.6774	
   12.0231	0.00131469	   12.0353	 0.0013079	   11.9971	0.00132977	   12.0185	0.00131745	   12.0185	   32.9363	
   12.0254	0.00132478	    12.038	0.00131817	   11.9993	0.00134033	   12.0209	0.00132776	   12.0209	   33.1939	
    12.027	0.00133487	   12.0401	0.00132827	   12.0007	0.00135093	   12.0226	0.00133803	   12.0226	   33.4506	
   12.0281	0.00134481	   12.0417	0.00133831	   12.0018	0.00136136	   12.0239	0.00134816	   12.0239	    33.704	
   12.0285	0.00135472	   12.0427	0.00134834	   12.0023	0.00137168	   12.0245	0.00135824	   12.0245	   33.9561	
   12.0283	0.00136459	   12.0431	0.00135821	   12.0022	0.00138199	   12.0245	0.00136826	   12.0245	   34.2066	
   12.0274	0.00137436	   12.0428	0.00136804	   12.0016	0.00139211	   12.0239	0.00137817	   12.0239	   34.4543	
    12.026	0.00138407	   12.0419	0.00137788	   12.0004	0.00140214	   12.0228	0.00138803	   12.0228	   34.7008	
   12.0241	0.00139375	   12.0404	0.00138752	   11.9992	0.00141211	   12.0212	0.00139779	   12.0212	   34.9448	
   12.0217	0.00140335	   12.0383	0.00139712	   11.9971	0.00142206	    12.019	0.00140751	    12.019	   35.1877	
   12.0189	0.00141291	   12.0357	 0.0014067	   11.9948	0.00143179	   12.0165	0.00141714	   12.0165	   35.4284	
   12.0157	0.00142243	   12.0327	0.00141612	    11.992	0.00144149	   12.0135	0.00142668	   12.0135	   35.6669	
   12.0121	0.00143188	   12.0292	0.00142545	   11.9889	0.00145112	   12.0101	0.00143615	   12.0101	   35.9038	
   12.0082	0.00144128	   12.0254	0.00143481	   11.9855	0.00146058	   12.0064	0.00144556	   12.0064	    36.139	
    12.004	0.00145062	   12.0211	0.00144401	   11.9816	0.00146996	   12.0023	0.00145487	   12.0023	   36.3717	
   11.9994	 0.0014599	   12.0166	0.00145315	   11.9772	0.00147924	   11.9977	 0.0014641	   11.9977	   36.6024	
   11.9943	0.00146918	   12.0115	0.00146227	   11.9721	0.00148843	   11.9926	 0.0014733	   11.9926	   36.8324	
   11.9887	0.00147834	   12.0059	0.00147123	   11.9664	0.00149759	    11.987	0.00148239	    11.987	   37.0598	
   11.9826	0.00148737	   11.9997	0.00148011	   11.9601	0.00150664	   11.9808	0.00149137	   11.9808	   37.2843	
   11.9759	0.00149644	   11.9928	0.00148899	   11.9533	0.00151553	    11.974	0.00150032	    11.974	    37.508	
   11.9688	0.00150544	   11.9854	0.00149776	    11.946	0.00152443	   11.9667	0.00150921	   11.9667	   37.7302	
   11.9613	0.00151427	   11.9775	0.00150644	   11.9384	0.00153318	    11.959	0.00151797	    11.959	   37.9492	
   11.9532	0.00152314	   11.9691	 0.0015151	   11.9304	0.00154182	   11.9509	0.00152669	   11.9509	   38.1672	
   11.9447	0.00153194	   11.9604	0.00152369	    11.922	0.00155045	   11.9424	0.00153536	   11.9424	    38.384	
   11.9357	0.00154057	   11.9514	 0.0015322	   11.9131	0.00155897	   11.9334	0.00154391	   11.9334	   38.5978	
   11.9264	 0.0015492	    11.942	0.00154068	   11.9037	0.00156739	   11.9241	0.00155242	   11.9241	   38.8106	
   11.9167	0.00155786	   11.9323	0.00154909	    11.894	0.00157583	   11.9143	0.00156093	   11.9143	   39.0231	
   11.9064	0.00156638	    11.922	0.00155745	   11.8838	0.00158421	    11.904	0.00156935	    11.904	   39.2336	
   11.8956	0.00157484	   11.9109	0.00156575	    11.873	0.00159235	   11.8932	0.00157765	   11.8932	   39.4412	
   11.8845	0.00158329	   11.8994	0.00157398	   11.8618	0.00160065	   11.8819	0.00158597	   11.8819	   39.6493	
   11.8728	0.00159159	   11.8873	0.00158217	   11.8503	0.00160882	   11.8701	0.00159419	   11.8701	   39.8548	
   11.8607	 0.0015998	   11.8747	0.00159031	   11.8383	0.00161678	   11.8579	 0.0016023	   11.8579	   40.0574	
   11.8483	0.00160802	   11.8619	0.00159836	    11.826	0.00162483	   11.8454	0.00161041	   11.8454	   40.2602	
   11.8355	0.00161608	   11.8487	0.00160642	    11.813	0.00163279	   11.8324	0.00161843	   11.8324	   40.4607	
   11.8223	0.00162403	   11.8352	0.00161436	   11.7996	0.00164054	    11.819	0.00162631	    11.819	   40.6578	
   11.8085	0.00163198	   11.8213	 0.0016223	   11.7856	0.00164833	   11.8052	0.00163421	   11.8052	   40.8552	
   11.7942	0.00163981	   11.8068	0.00163024	   11.7713	0.00165609	   11.7908	0.00164205	   11.7908	   41.0512	
   11.7793	0.00164755	   11.7917	0.00163803	   11.7566	 0.0016637	   11.7759	0.00164976	   11.7759	    41.244	
   11.7639	0.00165526	   11.7761	0.00164581	   11.7413	0.00167125	   11.7605	0.00165744	   11.7605	    41.436	
   11.7482	0.00166285	   11.7602	0.00165356	   11.7257	0.00167882	   11.7447	0.00166508	   11.7447	   41.6269	
   11.7322	0.00167037	   11.7439	0.00166117	   11.7096	0.00168621	   11.7285	0.00167258	   11.7285	   41.8146	
   11.7158	0.00167784	   11.7273	0.00166875	    11.693	0.00169355	    11.712	0.00168005	    11.712	   42.0011	
    11.699	0.00168517	   11.7102	0.00167633	   11.6759	 0.0017009	    11.695	0.00168746	    11.695	   42.1866	
   11.6816	0.00169245	   11.6925	0.00168374	   11.6582	0.00170811	   11.6774	0.00169477	   11.6774	   42.3691	
   11.6636	0.00169967	   11.6742	0.00169114	   11.6401	0.00171524	   11.6593	0.00170201	   11.6593	   42.5504	
   11.6451	0.00170675	   11.6554	 0.0016985	   11.6216	0.00172239	   11.6407	0.00170921	   11.6407	   42.7303	
   11.6263	0.00171376	   11.6367	 0.0017057	   11.6029	0.00172938	    11.622	0.00171628	    11.622	    42.907	
   11.6072	0.00172069	    11.617	  0.001713	   11.5838	0.00173633	   11.6027	0.00172334	   11.6027	   43.0834	
   11.5875	0.00172752	    11.597	0.00172014	   11.5641	0.00174323	   11.5829	 0.0017303	   11.5829	   43.2574	
   11.5674	0.00173429	   11.5765	0.00172715	   11.5438	0.00175004	   11.5626	0.00173716	   11.5626	   43.4291	
   11.5467	0.00174094	   11.5555	0.00173432	    11.523	 0.0017568	   11.5418	0.00174402	   11.5418	   43.6005	
   11.5256	0.00174755	   11.5341	0.00174129	   11.5019	0.00176348	   11.5205	0.00175077	   11.5205	   43.7693	
   11.5041	0.00175408	   11.5123	0.00174818	   11.4804	0.00177008	   11.4989	0.00175745	   11.4989	   43.9362	
   11.4822	0.00176051	   11.4902	0.00175514	   11.4585	0.00177658	    11.477	0.00176408	    11.477	   44.1019	
   11.4599	0.00176688	   11.4676	0.00176196	    11.436	0.00178298	   11.4545	0.00177061	   11.4545	   44.2652	
    11.437	0.00177322	   11.4444	0.00176868	   11.4129	0.00178935	   11.4314	0.00177709	   11.4314	   44.4272	
   11.4135	0.00177942	   11.4207	0.00177545	   11.3894	0.00179566	   11.4079	0.00178351	   11.4079	   44.5878	
   11.3896	0.00178557	   11.3965	0.00178213	   11.3656	0.00180188	   11.3839	0.00178986	   11.3839	   44.7465	
   11.3653	0.00179171	   11.3721	0.00178864	   11.3414	0.00180805	   11.3596	0.00179613	   11.3596	   44.9033	
   11.3406	 0.0017977	   11.3473	0.00179517	   11.3165	0.00181414	   11.3348	0.00180234	   11.3348	   45.0584	
   11.3152	0.00180364	   11.3219	0.00180157	   11.2911	0.00182014	   11.3094	0.00180845	   11.3094	   45.2113	
   11.2894	0.00180963	   11.2959	0.00180792	   11.2653	0.00182612	   11.2835	0.00181455	   11.2835	   45.3639	
   11.2631	0.00181536	   11.2696	0.00181423	   11.2391	  0.001832	   11.2572	0.00182053	   11.2572	   45.5133	
   11.2365	0.00182113	   11.2429	0.00182045	   11.2125	0.00183783	   11.2306	0.00182647	   11.2306	   45.6617	
   11.2095	0.00182688	    11.216	 0.0018266	   11.1855	0.00184359	   11.2037	0.00183236	   11.2037	    45.809	
    11.182	0.00183244	   11.1885	0.00183273	   11.1579	0.00184929	   11.1761	0.00183815	   11.1761	   45.9537	
   11.1539	0.00183802	   11.1605	0.00183872	   11.1298	0.00185493	   11.1481	0.00184389	   11.1481	   46.0973	
   11.1254	0.00184348	    11.132	0.00184468	   11.1015	 0.0018605	   11.1196	0.00184955	   11.1196	   46.2388	
   11.0966	0.00184881	   11.1033	0.00185058	   11.0729	0.00186596	   11.0909	0.00185512	   11.0909	   46.3779	
   11.0673	0.00185412	   11.0741	 0.0018564	   11.0437	0.00187134	   11.0617	0.00186062	   11.0617	   46.5155	
   11.0375	0.00185934	   11.0443	0.00186216	    11.014	0.00187672	   11.0319	0.00186607	   11.0319	   46.6517	
   11.0071	0.00186444	   11.0142	0.00186783	   10.9838	0.00188197	   11.0017	0.00187141	   11.0017	   46.7853	
   10.9765	0.00186953	   10.9836	0.00187346	   10.9534	0.00188717	   10.9712	0.00187672	   10.9712	    46.918	
   10.9455	0.00187455	   10.9526	  0.001879	   10.9226	0.00189232	   10.9402	0.00188196	   10.9402	    47.049	
    10.914	0.00187942	   10.9213	0.00188444	   10.8912	0.00189738	   10.9089	0.00188708	   10.9089	    47.177	
    10.882	0.00188428	   10.8896	0.00188977	   10.8594	0.00190238	    10.877	0.00189214	    10.877	   47.3035	
   10.8496	0.00188908	   10.8574	0.00189501	   10.8272	0.00190733	   10.8447	0.00189714	   10.8447	   47.4285	
   10.8168	0.00189376	    10.825	 0.0019002	   10.7947	 0.0019122	   10.8122	0.00190206	   10.8122	   47.5514	
    10.784	0.00189842	   10.7921	0.00190529	   10.7618	0.00191699	   10.7793	 0.0019069	   10.7793	   47.6724	
   10.7503	 0.0019031	   10.7587	0.00191028	   10.7283	 0.0019217	   10.7457	 0.0019117	   10.7457	   47.7924	
   10.7163	0.00190755	   10.7248	0.00191521	   10.6944	0.00192633	   10.7118	0.00191636	   10.7118	    47.909	
   10.6819	  0.001912	   10.6905	0.00192009	   10.6603	0.00193084	   10.6776	0.00192098	   10.6776	   48.0244	
   10.6472	0.00191637	    10.656	0.00192476	   10.6257	0.00193528	    10.643	0.00192547	    10.643	   48.1367	
    10.612	0.00192057	    10.621	0.00192946	   10.5906	0.00193962	   10.6079	0.00192988	   10.6079	   48.2471	
   10.5764	0.00192478	   10.5854	0.00193411	   10.5551	0.00194387	   10.5723	0.00193425	   10.5723	   48.3563	
   10.5404	0.00192889	   10.5495	 0.0019385	   10.5193	0.00194803	   10.5364	0.00193848	   10.5364	   48.4619	
   10.5041	0.00193289	   10.5132	0.00194288	   10.4831	 0.0019521	   10.5001	0.00194262	   10.5001	   48.5656	
   10.4673	0.00193687	   10.4765	0.00194722	   10.4464	0.00195612	   10.4634	0.00194674	   10.4634	   48.6684	
     10.43	0.00194069	   10.4392	0.00195139	   10.4092	0.00195998	   10.4261	0.00195069	   10.4261	   48.7672	
   10.3924	0.00194443	   10.4016	 0.0019555	   10.3718	0.00196376	   10.3886	0.00195456	   10.3886	   48.8641	
   10.3545	0.00194822	   10.3637	0.00195958	    10.334	0.00196748	   10.3507	0.00195843	   10.3507	   48.9607	
    10.316	0.00195186	   10.3252	0.00196352	   10.2956	0.00197105	   10.3123	0.00196214	   10.3123	   49.0536	
    10.277	0.00195541	   10.2863	0.00196736	   10.2569	0.00197456	   10.2734	0.00196578	   10.2734	   49.1444	
   10.2378	0.00195902	   10.2471	0.00197115	   10.2179	0.00197793	   10.2342	0.00196937	   10.2342	   49.2342	
   10.1981	0.00196251	   10.2074	0.00197482	   10.1784	0.00198125	   10.1947	0.00197286	   10.1947	   49.3215	
   10.1579	0.00196592	   10.1673	 0.0019784	   10.1385	0.00198452	   10.1546	0.00197628	   10.1546	    49.407	
   10.1174	0.00196935	   10.1268	0.00198192	   10.0982	0.00198765	   10.1141	0.00197964	   10.1141	    49.491	
   10.0766	0.00197267	    10.086	0.00198534	   10.0576	0.00199071	   10.0734	 0.0019829	   10.0734	   49.5726	
   10.0353	0.00197594	   10.0448	0.00198865	   10.0166	0.00199371	   10.0322	 0.0019861	   10.0322	   49.6525	
   9.99353	0.00197914	   10.0034	0.00199193	   9.97511	0.00199661	   9.99069	0.00198923	   9.99069	   49.7307	
   9.95143	0.00198228	   9.96135	0.00199516	   9.93331	0.00199943	    9.9487	0.00199229	    9.9487	   49.8073	
   9.90915	0.00198537	     9.919	 0.0019982	   9.89109	 0.0020022	   9.90641	0.00199526	   9.90641	   49.8814	
   9.86638	0.00198839	   9.87608	0.00200124	    9.8483	0.00200486	   9.86359	0.00199816	   9.86359	   49.9541	
   9.82314	0.00199134	   9.83271	0.00200423	   9.80514	0.00200745	   9.82033	0.00200101	   9.82033	   50.0252	
   9.77937	 0.0019942	   9.78907	0.00200704	   9.76171	   0.00201	   9.77672	0.00200375	   9.77672	   50.0937	
   9.73533	0.00199697	   9.74517	0.00200981	    9.7179	0.00201244	    9.7328	0.00200641	    9.7328	   50.1602	
   9.69092	0.00199971	   9.70075	0.00201257	    9.6736	0.00201482	   9.68842	0.00200903	   9.68842	   50.2259	
   9.64626	 0.0020024	   9.65598	 0.0020152	   9.62904	0.00201716	   9.64376	0.00201159	   9.64376	   50.2897	
   9.60106	0.00200501	   9.61083	0.00201771	   9.58414	0.00201941	   9.59868	0.00201404	   9.59868	    50.351	
   9.55556	0.00200745	   9.56535	0.00202023	   9.53872	0.00202164	   9.55321	0.00201644	   9.55321	   50.4111	
   9.50969	0.00200995	   9.51946	0.00202262	   9.49298	0.00202375	   9.50738	0.00201877	   9.50738	   50.4693	
   9.46358	0.00201234	   9.47312	0.00202491	     9.447	 0.0020258	   9.46123	0.00202101	   9.46123	   50.5253	
   9.41702	0.00201461	    9.4264	0.00202726	   9.40047	0.00202784	   9.41463	0.00202324	   9.41463	   50.5809	
   9.37001	0.00201684	   9.37922	0.00202946	   9.35351	0.00202977	   9.36758	0.00202536	   9.36758	    50.634	
   9.32268	0.00201905	   9.33174	0.00203157	   9.30631	0.00203163	   9.32024	0.00202742	   9.32024	   50.6854	
    9.2751	0.00202115	   9.28402	0.00203369	   9.25874	0.00203347	   9.27262	0.00202944	   9.27262	   50.7359	
   9.22703	0.00202319	   9.23582	0.00203576	    9.2107	 0.0020352	   9.22452	0.00203138	   9.22452	   50.7846	
   9.17861	0.00202518	   9.18727	0.00203771	   9.16236	0.00203685	   9.17608	0.00203325	   9.17608	   50.8312	
    9.1299	0.00202708	   9.13848	 0.0020396	   9.11371	 0.0020385	   9.12737	0.00203506	   9.12737	   50.8765	
   9.08063	0.00202891	   9.08919	0.00204148	   9.06456	0.00204004	   9.07812	0.00203681	   9.07812	   50.9203	
   9.03098	0.00203069	   9.03951	0.00204324	    9.0151	0.00204146	   9.02853	0.00203846	   9.02853	   50.9616	
   8.98109	0.00203239	   8.98961	0.00204494	   8.96531	 0.0020429	   8.97867	0.00204008	   8.97867	   51.0019	
   8.93071	  0.002034	   8.93928	0.00204664	   8.91502	0.00204425	   8.92834	0.00204163	   8.92834	   51.0407	
   8.87994	0.00203558	   8.88853	0.00204823	    8.8644	0.00204551	   8.87762	0.00204311	   8.87762	   51.0777	
   8.82894	0.00203709	   8.83745	 0.0020498	   8.81358	0.00204678	   8.82666	0.00204456	   8.82666	   51.1139	
   8.77753	0.00203851	   8.78609	 0.0020514	   8.76228	0.00204795	    8.7753	0.00204596	    8.7753	   51.1489	
   8.72571	0.00203985	   8.73445	0.00205282	   8.71059	0.00204901	   8.72358	0.00204723	   8.72358	   51.1807	
    8.6737	0.00204112	    8.6825	0.00205427	   8.65867	0.00205017	   8.67162	0.00204852	   8.67162	   51.2129	
   8.62119	0.00204234	   8.63012	 0.0020557	   8.60635	0.00205117	   8.61922	0.00204974	   8.61922	   51.2435	
   8.56827	0.00204345	   8.57734	0.00205698	   8.55369	0.00205211	   8.56643	0.00205085	   8.56643	   51.2712	
   8.51513	 0.0020445	   8.52434	0.00205821	   8.50071	0.00205307	   8.51339	0.00205193	   8.51339	   51.2982	
   8.46161	0.00204548	   8.47099	0.00205943	   8.44724	 0.0020539	   8.45995	0.00205294	   8.45995	   51.3234	
   8.40769	0.00204638	   8.41719	0.00206056	   8.39352	0.00205469	   8.40613	0.00205388	   8.40613	   51.3469	
   8.35352	0.00204722	   8.36315	0.00206166	   8.33928	0.00205548	   8.35198	0.00205478	   8.35198	   51.3696	
   8.29887	0.00204792	   8.30876	0.00206272	   8.28484	0.00205604	   8.29749	0.00205556	   8.29749	    51.389	
   8.24383	0.00204857	   8.25396	 0.0020637	   8.23002	0.00205668	   8.24261	0.00205632	   8.24261	    51.408	
   8.18861	0.00204917	   8.19895	0.00206467	   8.17501	0.00205723	   8.18752	0.00205703	   8.18752	   51.4257	
   8.13304	 0.0020497	   8.14356	0.00206563	   8.11955	 0.0020576	   8.13205	0.00205764	   8.13205	    51.441	
   8.07713	0.00205006	   8.08774	0.00206646	   8.06376	0.00205801	   8.07621	0.00205818	   8.07621	   51.4544	
   8.02099	0.00205041	   8.03172	0.00206727	   8.00775	0.00205835	   8.02015	0.00205867	   8.02015	   51.4669	
   7.96455	0.00205069	   7.97534	0.00206808	   7.95132	0.00205854	   7.96374	 0.0020591	   7.96374	   51.4775	
   7.90799	0.00205077	   7.91857	0.00206882	   7.89459	0.00205875	   7.90705	0.00205945	   7.90705	   51.4862	
    7.8509	0.00205097	   7.86165	0.00206952	   7.83768	 0.0020589	   7.85007	 0.0020598	   7.85007	   51.4949	
   7.79365	0.00205097	    7.8044	0.00207014	   7.78032	0.00205892	   7.79279	0.00206001	   7.79279	   51.5003	
   7.73607	0.00205086	   7.74679	0.00207068	   7.72271	0.00205895	   7.73519	0.00206016	   7.73519	    51.504	
   7.67827	0.00205083	   7.68901	0.00207121	   7.66484	0.00205891	   7.67737	0.00206032	   7.67737	    51.508	
   7.62004	0.00205064	   7.63077	0.00207167	   7.60655	0.00205871	   7.61912	0.00206034	   7.61912	   51.5085	
   7.56153	0.00205028	   7.57222	0.00207204	   7.54827	0.00205861	   7.56067	0.00206031	   7.56067	   51.5078	
    7.5028	   0.00205	   7.51349	0.00207239	   7.48933	0.00205838	   7.50188	0.00206026	   7.50188	   51.5064	
   7.44367	0.00204957	   7.45431	0.00207266	   7.43015	0.00205802	   7.44271	0.00206008	   7.44271	    51.502	
   7.38431	0.00204897	   7.39487	0.00207288	   7.37072	0.00205777	    7.3833	0.00205987	    7.3833	   51.4969	
    7.3247	 0.0020484	    7.3352	0.00207307	   7.31093	0.00205732	   7.32361	0.00205959	   7.32361	   51.4899	
   7.26469	0.00204766	    7.2751	0.00207316	   7.25082	0.00205674	   7.26353	0.00205918	   7.26353	   51.4796	
   7.20448	0.00204682	    7.2148	0.00207317	   7.19056	0.00205625	   7.20328	0.00205875	   7.20328	   51.4686	
   7.14391	0.00204596	   7.15421	 0.0020732	   7.12989	0.00205561	   7.14267	0.00205826	   7.14267	   51.4564	
   7.08301	0.00204498	   7.09328	0.00207309	   7.06891	0.00205484	   7.08173	0.00205764	   7.08173	    51.441	
   7.02199	0.00204394	   7.03221	0.00207294	   7.00752	0.00205416	   7.02057	0.00205702	   7.02057	   51.4254	
    6.9606	0.00204279	   6.97079	0.00207277	   6.94594	0.00205335	   6.95911	 0.0020563	   6.95911	   51.4076	
   6.89894	0.00204158	   6.90907	0.00207251	   6.88413	 0.0020524	   6.89738	 0.0020555	   6.89738	   51.3874	
   6.83712	0.00204034	    6.8471	0.00207215	   6.82209	0.00205154	   6.83544	0.00205468	   6.83544	    51.367	
   6.77494	0.00203901	    6.7847	0.00207172	   6.75976	0.00205063	   6.77313	0.00205379	   6.77313	   51.3447	
   6.71255	0.00203763	   6.72208	0.00207125	   6.69729	 0.0020496	   6.71064	0.00205282	   6.71064	   51.3206	
   6.64994	0.00203627	    6.6592	 0.0020707	   6.63449	0.00204863	   6.64787	0.00205187	   6.64787	   51.2966	
   6.58697	 0.0020348	   6.59597	0.00207006	   6.57139	0.00204756	   6.58478	0.00205081	   6.58478	   51.2701	
   6.52386	0.00203324	   6.53257	0.00206939	   6.50813	0.00204636	   6.52152	0.00204966	   6.52152	   51.2415	
   6.46034	0.00203162	   6.46878	0.00206865	   6.44453	0.00204521	   6.45788	0.00204849	   6.45788	   51.2123	
   6.39652	0.00202997	   6.40471	0.00206781	   6.38073	0.00204398	   6.39399	0.00204725	   6.39399	   51.1813	
   6.33255	0.00202818	   6.34043	 0.0020669	   6.31675	0.00204261	   6.32991	 0.0020459	   6.32991	   51.1474	
   6.26839	0.00202627	   6.27575	0.00206603	   6.25243	0.00204125	   6.26552	0.00204451	   6.26552	   51.1129	
   6.20402	0.00202435	    6.2109	0.00206496	   6.18797	0.00203985	   6.20096	0.00204305	   6.20096	   51.0763	
   6.13932	0.00202235	   6.14579	0.00206385	   6.12321	0.00203833	   6.13611	0.00204151	   6.13611	   51.0377	
    6.0743	 0.0020203	   6.08036	0.00206272	   6.05826	 0.0020369	   6.07097	0.00203997	   6.07097	   50.9993	
    6.0091	0.00201822	   6.01481	0.00206142	    5.9929	0.00203535	    6.0056	0.00203833	    6.0056	   50.9582	
   5.94354	0.00201607	   5.94893	0.00206009	   5.92745	0.00203363	   5.93997	 0.0020366	   5.93997	   50.9149	
   5.87776	0.00201385	   5.88284	0.00205874	   5.86191	  0.002032	   5.87417	0.00203487	   5.87417	   50.8717	
   5.81175	 0.0020116	   5.81659	0.00205726	   5.79604	0.00203031	   5.80813	0.00203306	   5.80813	   50.8264	
    5.7454	 0.0020093	   5.75004	0.00205575	   5.72993	 0.0020285	   5.74179	0.00203118	   5.74179	   50.7795	
   5.67895	0.00200691	   5.68337	0.00205421	   5.66358	 0.0020267	    5.6753	0.00202927	    5.6753	   50.7319	
   5.61224	0.00200447	   5.61642	0.00205256	   5.59691	0.00202484	   5.60853	0.00202729	   5.60853	   50.6822	
   5.54528	  0.002002	   5.54924	0.00205087	   5.53007	0.00202287	   5.54153	0.00202525	   5.54153	   50.6311	
   5.47821	0.00199948	   5.48192	0.00204912	   5.46309	0.00202093	   5.47441	0.00202317	   5.47441	   50.5794	
   5.41082	0.00199687	   5.41423	 0.0020473	   5.39579	0.00201882	   5.40695	  0.002021	   5.40695	   50.5249	
   5.34331	0.00199423	   5.34642	0.00204545	   5.32843	0.00201676	   5.33939	0.00201881	   5.33939	   50.4703	
   5.27559	0.00199156	   5.27833	0.00204346	   5.26078	0.00201461	   5.27157	0.00201655	   5.27157	   50.4137	
    5.2076	0.00198881	      5.21	0.00204142	   5.19293	0.00201232	   5.20351	0.00201418	   5.20351	   50.3546	
   5.13952	0.00198599	   5.14174	0.00203936	    5.1249	0.00201005	   5.13538	 0.0020118	   5.13538	    50.295	
    5.0711	0.00198315	   5.07304	0.00203718	   5.05652	0.00200767	   5.06688	0.00200934	   5.06688	   50.2334	
   5.00254	 0.0019802	   5.00423	0.00203486	   4.98807	0.00200514	   4.99828	0.00200673	   4.99828	   50.1684	
   4.93378	0.00197722	   4.93516	0.00203258	   4.91933	0.00200264	   4.92942	0.00200415	   4.92942	   50.1036	
   4.86475	0.00197423	   4.86587	0.00203017	   4.85039	0.00200005	   4.86034	0.00200149	   4.86034	   50.0371	
   4.79565	 0.0019711	   4.79646	0.00202764	   4.78135	 0.0019973	   4.79115	0.00199868	   4.79115	    49.967	
   4.72626	0.00196794	   4.72673	0.00202516	   4.71197	0.00199457	   4.72165	0.00199589	   4.72165	   49.8973	
   4.65675	0.00196478	   4.65685	0.00202261	   4.64246	0.00199173	   4.65202	0.00199304	   4.65202	    49.826	
   4.58704	0.00196139	   4.58689	0.00201997	   4.57282	0.00198877	   4.58225	0.00199004	   4.58225	   49.7511	
   4.51707	0.00195807	    4.5167	0.00201724	   4.50297	0.00198581	   4.51225	0.00198704	   4.51225	    49.676	
   4.44699	 0.0019547	   4.44643	0.00201448	   4.43306	 0.0019828	   4.44216	0.00198399	   4.44216	   49.5998	
   4.37658	0.00195116	    4.3759	 0.0020116	   4.36292	0.00197965	    4.3718	 0.0019808	    4.3718	   49.5201	
   4.30606	0.00194765	   4.30527	0.00200862	   4.29271	0.00197646	   4.30135	0.00197757	   4.30135	   49.4393	
   4.23537	 0.0019441	   4.23451	0.00200559	   4.22231	 0.0019732	   4.23073	 0.0019743	   4.23073	   49.3575	
   4.16448	0.00194044	   4.16354	0.00200244	    4.1517	0.00196987	   4.15991	0.00197091	   4.15991	   49.2729	
   4.09353	0.00193678	   4.09248	0.00199922	   4.08108	0.00196646	   4.08903	0.00196749	   4.08903	   49.1871	
   4.02229	0.00193306	   4.02118	0.00199596	   4.01014	  0.001963	   4.01787	0.00196401	   4.01787	   49.1002	
   3.95098	0.00192927	   3.94982	0.00199257	   3.93913	0.00195947	   3.94664	0.00196044	   3.94664	   49.0109	
   3.87952	0.00192546	   3.87834	0.00198914	   3.86792	0.00195587	   3.87526	0.00195682	   3.87526	   48.9205	
   3.80786	0.00192157	   3.80667	0.00198561	   3.79655	0.00195224	   3.80369	0.00195314	   3.80369	   48.8286	
   3.73608	0.00191771	   3.73496	0.00198203	    3.7251	0.00194857	   3.73205	0.00194943	   3.73205	   48.7359	
   3.66405	 0.0019137	   3.66302	0.00197833	    3.6534	0.00194478	   3.66015	 0.0019456	   3.66015	     48.64	
   3.59196	 0.0019096	   3.59101	0.00197454	   3.58165	0.00194081	   3.58821	0.00194165	   3.58821	   48.5413	
   3.51964	0.00190551	   3.51885	0.00197071	   3.50972	0.00193692	   3.51607	0.00193771	   3.51607	   48.4428	
   3.44716	 0.0019013	   3.44654	0.00196679	   3.43764	0.00193296	   3.44378	0.00193368	   3.44378	   48.3421	
   3.37464	0.00189702	   3.37398	0.00196282	   3.36548	0.00192888	   3.37136	0.00192957	   3.37136	   48.2393	
   3.30183	0.00189273	   3.30128	0.00195876	    3.2931	0.00192483	   3.29874	0.00192544	   3.29874	   48.1359	
   3.22904	0.00188835	    3.2285	0.00195455	   3.22069	0.00192073	   3.22608	0.00192121	   3.22608	   48.0302	
   3.15609	 0.0018839	   3.15577	0.00195027	   3.14802	0.00191654	   3.15329	 0.0019169	   3.15329	   47.9225	
   3.08303	0.00187945	   3.08282	0.00194597	   3.07526	0.00191232	   3.08037	0.00191258	   3.08037	   47.8145	
   3.00989	0.00187491	   3.00972	0.00194157	   3.00243	0.00190804	   3.00735	0.00190817	   3.00735	   47.7043	
   2.93652	0.00187026	   2.93641	0.00193703	    2.9294	0.00190368	   2.93411	0.00190366	   2.93411	   47.5915	
   2.86321	0.00186561	    2.8631	0.00193246	   2.85639	0.00189925	    2.8609	 0.0018991	    2.8609	   47.4776	
   2.78962	0.00186088	   2.78957	0.00192785	   2.78314	0.00189481	   2.78744	0.00189452	   2.78744	   47.3629	
   2.71598	 0.0018561	   2.71599	0.00192308	   2.70984	0.00189027	   2.71394	0.00188982	   2.71394	   47.2454	
   2.64226	 0.0018513	   2.64236	 0.0019183	   2.63638	0.00188563	   2.64033	0.00188507	   2.64033	   47.1269	
   2.56836	0.00184642	   2.56855	0.00191343	   2.56276	0.00188099	   2.56656	0.00188028	   2.56656	    47.007	
   2.49447	0.00184145	   2.49475	0.00190841	   2.48908	0.00187626	   2.49277	0.00187537	   2.49277	   46.8843	
   2.42032	0.00183645	   2.42076	0.00190334	   2.41523	0.00187143	   2.41877	 0.0018704	   2.41877	   46.7601	
   2.34617	 0.0018314	   2.34677	0.00189822	   2.34138	0.00186659	   2.34477	 0.0018654	   2.34477	    46.635	
   2.27193	0.00182629	   2.27264	0.00189296	   2.26747	0.00186165	   2.27068	 0.0018603	   2.27068	   46.5075	
   2.19787	0.00182104	   2.19838	0.00188763	   2.19344	0.00185663	   2.19656	 0.0018551	   2.19656	   46.3775	
   2.12348	0.00181583	   2.12409	0.00188226	   2.11932	0.00185156	    2.1223	0.00184988	    2.1223	   46.2471	
   2.04911	0.00181061	   2.04957	0.00187675	   2.04505	0.00184644	   2.04791	 0.0018446	   2.04791	    46.115	
    1.9747	0.00180525	   1.97505	0.00187121	   1.97078	 0.0018412	   1.97351	0.00183922	   1.97351	   45.9805	
    1.9001	0.00179998	   1.90037	0.00186559	    1.8963	0.00183595	   1.89892	0.00183384	   1.89892	   45.8459	
   1.82543	0.00179462	   1.82564	0.00185988	   1.82177	0.00183062	   1.82428	0.00182837	   1.82428	   45.7093	
   1.75072	0.00178908	   1.75079	0.00185413	   1.74723	0.00182515	   1.74958	0.00182279	   1.74958	   45.5697	
   1.67583	0.00178356	   1.67579	0.00184826	   1.67252	0.00181967	   1.67472	0.00181716	   1.67472	   45.4291	
   1.60096	0.00177803	   1.60088	0.00184239	   1.59788	0.00181416	   1.59991	0.00181153	   1.59991	   45.2882	
   1.52601	0.00177236	   1.52581	0.00183645	   1.52307	0.00180853	   1.52496	0.00180578	   1.52496	   45.1445	
   1.45103	0.00176672	   1.45075	0.00183041	    1.4482	0.00180286	   1.44999	    0.0018	   1.44999	   44.9999	
   1.37597	0.00176103	   1.37561	0.00182434	   1.37325	0.00179716	   1.37495	0.00179418	   1.37495	   44.8545	
    1.3008	0.00175523	   1.30037	0.00181818	   1.29822	0.00179134	    1.2998	0.00178825	    1.2998	   44.7062	
   1.22567	0.00174941	   1.22521	0.00181198	   1.22326	0.00178547	   1.22471	0.00178229	   1.22471	   44.5572	
   1.15036	0.00174353	   1.14994	0.00180569	   1.14818	0.00177959	   1.14949	0.00177627	   1.14949	   44.4068	
   1.07509	0.00173758	   1.07473	0.00179935	    1.0731	0.00177357	   1.07431	0.00177016	   1.07431	   44.2541	
  0.999749	0.00173159	  0.999314	0.00179297	  0.997932	0.00176749	  0.998998	0.00176401	  0.998998	   44.1004	
   0.92435	 0.0017255	  0.923906	0.00178648	  0.922709	0.00176139	  0.923655	0.00175779	  0.923655	   43.9448	
  0.848976	0.00171938	  0.848362	0.00178001	  0.847462	0.00175513	  0.848267	0.00175151	  0.848267	   43.7877	
  0.773483	0.00171319	  0.772724	0.00177343	  0.772101	0.00174886	  0.772769	0.00174516	  0.772769	    43.629	
  0.698078	0.00170694	  0.697148	0.00176669	  0.696781	0.00174254	  0.697336	0.00173872	  0.697336	   43.4681	
  0.622488	0.00170053	  0.621462	0.00175998	  0.621382	0.00173608	  0.621778	0.00173219	  0.621778	   43.3048	
  0.546901	0.00169416	    0.5458	0.00175318	  0.545983	0.00172958	  0.546228	0.00172564	  0.546228	    43.141	
  0.471393	0.00168767	  0.470212	0.00174624	  0.470587	0.00172301	  0.470731	0.00171898	  0.470731	   42.9744	
  0.395816	0.00168105	  0.394523	0.00173932	  0.395075	0.00171631	  0.395138	0.00171222	  0.395138	   42.8056	
  0.320179	0.00167442	  0.318942	0.00173233	  0.319702	0.00170957	  0.319608	0.00170544	  0.319608	   42.6359	
  0.244319	0.00166773	  0.243244	0.00172519	  0.244194	0.00170274	  0.243919	0.00169855	  0.243919	   42.4639	
  0.168577	0.00166086	  0.167611	0.00171804	  0.168732	0.00169574	  0.168307	0.00169155	  0.168307	   42.2886	
 0.0927994	0.00165394	 0.0919457	0.00171084	 0.0932691	0.00168869	 0.0926714	0.00168449	 0.0926714	   42.1123	
 0.0171717	0.00164694	 0.0162295	0.00170355	 0.0177345	0.00168159	 0.0170452	0.00167736	 0.0170452	    41.934	
-0.0584673	0.00163984	-0.0593815	 0.0016962	-0.0577146	0.00167435	-0.0585211	0.00167013	-0.0585211	   41.7532	
 -0.134114	0.00163264	 -0.135063	0.00168877	  -0.13323	0.00166707	 -0.134135	0.00166283	 -0.134135	   41.5707	
 -0.209691	0.00162539	 -0.210637	0.00168128	 -0.208657	0.00165973	 -0.209662	0.00165547	 -0.209662	   41.3866	
 -0.285348	0.00161802	 -0.286205	0.00167374	 -0.284145	0.00165228	 -0.285233	0.00164801	 -0.285233	   41.2003	
 -0.361002	0.00161059	 -0.361791	0.00166613	 -0.359664	0.00164477	 -0.360819	 0.0016405	 -0.360819	   41.0124	
 -0.436503	0.00160305	 -0.437316	0.00165842	  -0.43511	0.00163721	  -0.43631	0.00163289	  -0.43631	   40.8223	
 -0.512081	0.00159541	 -0.512928	0.00165069	 -0.510606	 0.0016295	 -0.511872	 0.0016252	 -0.511872	     40.63	
 -0.587554	 0.0015877	 -0.588399	0.00164275	 -0.586002	0.00162184	 -0.587318	0.00161743	 -0.587318	   40.4358	
 -0.663074	0.00157994	 -0.663856	0.00163487	 -0.661203	0.00161404	 -0.662711	0.00160961	 -0.662711	   40.2404	
 -0.738586	0.00157209	 -0.739298	0.00162692	 -0.736597	0.00160628	  -0.73816	0.00160176	  -0.73816	    40.044	
 -0.813965	0.00156416	 -0.814847	0.00161883	 -0.811817	0.00159842	 -0.813543	 0.0015938	 -0.813543	   39.8451	
 -0.889464	0.00155616	 -0.890236	0.00161072	 -0.887118	0.00159046	 -0.888939	0.00158578	 -0.888939	   39.6445	
 -0.964825	 0.0015481	 -0.965436	0.00160253	 -0.962322	0.00158255	 -0.964194	0.00157773	 -0.964194	   39.4431	
  -1.04018	0.00153995	  -1.04066	 0.0015942	  -1.03756	0.00157452	  -1.03946	0.00156956	  -1.03946	   39.2389	
  -1.11548	 0.0015317	  -1.11587	0.00158591	  -1.11277	 0.0015664	  -1.11471	0.00156134	  -1.11471	   39.0334	
  -1.19069	0.00152344	  -1.19105	0.00157755	  -1.18784	0.00155829	  -1.18986	0.00155309	  -1.18986	   38.8273	
  -1.26593	0.00151501	   -1.2662	0.00156908	  -1.26297	0.00155007	  -1.26503	0.00154472	  -1.26503	    38.618	
  -1.34112	0.00150647	  -1.34121	0.00156059	  -1.33794	0.00154179	  -1.34009	0.00153628	  -1.34009	   38.4071	
  -1.41625	0.00149792	  -1.41628	0.00155202	  -1.41287	0.00153351	  -1.41514	0.00152782	  -1.41514	   38.1954	
  -1.49134	0.00148924	   -1.4913	0.00154335	   -1.4878	0.00152509	  -1.49015	0.00151923	  -1.49015	   37.9806	
  -1.56628	0.00148051	  -1.56621	0.00153462	   -1.5626	0.00151666	  -1.56503	0.00151059	  -1.56503	   37.7648	
  -1.64123	0.00147167	  -1.64119	0.00152582	  -1.63735	0.00150818	  -1.63992	0.00150189	  -1.63992	   37.5472	
  -1.71604	0.00146275	  -1.71604	0.00151695	  -1.71199	0.00149954	  -1.71469	0.00149308	  -1.71469	   37.3271	
  -1.79093	0.00145371	  -1.79088	0.00150799	   -1.7866	0.00149091	  -1.78947	 0.0014842	  -1.78947	    37.105	
  -1.86576	0.00144464	  -1.86565	0.00149898	  -1.86118	0.00148222	   -1.8642	0.00147528	   -1.8642	   36.8821	
  -1.94042	0.00143549	  -1.94033	 0.0014899	  -1.93554	0.00147335	  -1.93876	0.00146625	  -1.93876	   36.6562	
  -2.01485	0.00142629	  -2.01505	0.00148075	  -2.00992	0.00146449	  -2.01327	0.00145718	  -2.01327	   36.4294	
  -2.08949	0.00141706	   -2.0896	0.00147154	  -2.08414	0.00145559	  -2.08774	0.00144806	  -2.08774	   36.2015	
  -2.16385	0.00140766	  -2.16408	0.00146227	  -2.15831	0.00144652	  -2.16208	0.00143882	  -2.16208	   35.9704	
  -2.23817	0.00139834	  -2.23851	0.00145292	  -2.23248	0.00143748	  -2.23639	0.00142958	  -2.23639	   35.7395	
  -2.31227	0.00138892	  -2.31277	0.00144348	  -2.30623	0.00142839	  -2.31042	0.00142026	  -2.31042	   35.5066	
  -2.38642	0.00137938	  -2.38702	0.00143399	  -2.38049	 0.0014192	  -2.38464	0.00141086	  -2.38464	   35.2714	
  -2.46042	0.00136991	   -2.4611	0.00142439	  -2.45435	0.00140985	  -2.45862	0.00140138	  -2.45862	   35.0346	
  -2.53432	0.00136035	  -2.53515	0.00141471	  -2.52816	0.00140063	  -2.53254	 0.0013919	  -2.53254	   34.7974	
  -2.60815	0.00135061	  -2.60917	  0.001405	  -2.60188	0.00139128	   -2.6064	0.00138229	   -2.6064	   34.5574	
  -2.68177	0.00134095	  -2.68298	0.00139519	  -2.67547	0.00138176	  -2.68007	0.00137263	  -2.68007	   34.3158	
   -2.7553	 0.0013312	  -2.75678	 0.0013853	  -2.74899	0.00137231	  -2.75369	0.00136294	  -2.75369	   34.0734	
  -2.82872	 0.0013213	  -2.83043	0.00137533	  -2.82241	0.00136274	  -2.82719	0.00135313	  -2.82719	   33.8282	
  -2.90201	0.00131146	  -2.90384	0.00136528	   -2.8957	0.00135307	  -2.90052	0.00134327	  -2.90052	   33.5817	
  -2.97516	0.00130154	  -2.97724	0.00135517	  -2.96898	0.00134346	  -2.97379	0.00133339	  -2.97379	   33.3348	
  -3.04811	 0.0012915	  -3.05042	0.00134501	  -3.04205	0.00133373	  -3.04686	0.00132341	  -3.04686	   33.0853	
  -3.12109	0.00128145	  -3.12352	0.00133478	  -3.11494	0.00132389	  -3.11985	0.00131337	  -3.11985	   32.8343	
  -3.19397	0.00127135	  -3.19653	0.00132451	  -3.18778	 0.0013141	  -3.19276	0.00130332	  -3.19276	    32.583	
  -3.26665	 0.0012612	  -3.26929	0.00131417	  -3.26048	0.00130421	  -3.26548	0.00129319	  -3.26548	   32.3298	
  -3.33936	0.00125102	  -3.34202	0.00130378	  -3.33309	0.00129417	  -3.33816	0.00128299	  -3.33816	   32.0747	
  -3.41191	0.00124081	  -3.41456	0.00129323	  -3.40567	0.00128416	  -3.41072	0.00127273	  -3.41072	   31.8183	
  -3.48433	0.00123055	  -3.48695	0.00128277	  -3.47807	0.00127407	  -3.48312	0.00126247	  -3.48312	   31.5616	
  -3.55669	0.00122025	  -3.55931	0.00127227	  -3.55036	0.00126385	  -3.55545	0.00125212	  -3.55545	    31.303	
  -3.62881	0.00120985	  -3.63144	0.00126159	  -3.62243	0.00125362	  -3.62756	0.00124169	  -3.62756	   31.0422	
  -3.70084	0.00119947	  -3.70356	0.00125097	  -3.69434	0.00124329	  -3.69958	0.00123124	  -3.69958	   30.7811	
  -3.77277	0.00118901	  -3.77555	 0.0012403	  -3.76616	0.00123289	  -3.77149	0.00122074	  -3.77149	   30.5184	
  -3.84463	0.00117851	  -3.84728	0.00122951	   -3.8377	0.00122249	   -3.8432	0.00121017	   -3.8432	   30.2542	
  -3.91621	 0.0011679	  -3.91896	0.00121875	  -3.90916	0.00121198	  -3.91477	0.00119954	  -3.91477	   29.9886	
  -3.98759	0.00115718	  -3.99044	0.00120796	  -3.98046	0.00120138	  -3.98617	0.00118884	  -3.98617	    29.721	
  -4.05879	0.00114646	  -4.06164	0.00119705	  -4.05161	 0.0011908	  -4.05735	 0.0011781	  -4.05735	   29.4526	
  -4.12992	0.00113567	   -4.1328	0.00118616	  -4.12268	0.00118008	  -4.12847	0.00116731	  -4.12847	   29.1826	
  -4.20091	0.00112477	  -4.20369	0.00117522	  -4.19351	0.00116928	  -4.19937	0.00115642	  -4.19937	   28.9106	
  -4.27178	0.00111389	  -4.27451	0.00116417	  -4.26427	0.00115847	  -4.27019	0.00114551	  -4.27019	   28.6377	
  -4.34258	0.00110288	  -4.34524	0.00115314	  -4.33473	0.00114754	  -4.34085	0.00113452	  -4.34085	    28.363	
   -4.4131	0.00109181	  -4.41568	0.00114206	  -4.40491	0.00113652	  -4.41123	0.00112346	  -4.41123	   28.0866	
  -4.48347	0.00108073	    -4.486	0.00113087	  -4.47491	0.00112554	  -4.48146	0.00111238	  -4.48146	   27.8095	
  -4.55367	0.00106954	  -4.55618	0.00111964	  -4.54478	 0.0011144	  -4.55154	0.00110119	  -4.55154	   27.5299	
  -4.62355	0.00105829	  -4.62601	 0.0011084	  -4.61438	0.00110321	  -4.62131	0.00108997	  -4.62131	   27.2492	
   -4.6934	0.00104705	  -4.69585	0.00109705	  -4.68378	0.00109204	  -4.69101	0.00107871	  -4.69101	   26.9679	
  -4.76306	0.00103574	  -4.76549	0.00108562	  -4.75304	0.00108071	  -4.76053	0.00106736	  -4.76053	   26.6839	
   -4.8324	 0.0010244	  -4.83481	0.00107419	  -4.82201	0.00106925	  -4.82974	0.00105595	  -4.82974	   26.3987	
  -4.90168	0.00101302	  -4.90408	0.00106265	  -4.89091	0.00105779	  -4.89889	0.00104449	  -4.89889	   26.1122	
  -4.97074	0.00100159	  -4.97312	0.00105101	  -4.95964	0.00104616	  -4.96783	0.00103292	  -4.96783	    25.823	
  -5.03954	0.000990129	  -5.04161	0.00103936	   -5.0281	0.00103445	  -5.03642	0.00102131	  -5.03642	   25.5328	
  -5.10822	0.000978625	   -5.1103	0.00102763	   -5.0965	0.00102279	  -5.10501	0.00100968	  -5.10501	    25.242	
  -5.17667	0.00096707	  -5.17857	0.00101572	   -5.1647	0.00101093	  -5.17332	0.000997909	  -5.17332	   24.9477	
  -5.24484	0.000955484	  -5.24667	0.00100389	  -5.23257	0.000998973	  -5.24136	0.000986117	  -5.24136	   24.6529	
  -5.31278	0.000943859	   -5.3146	0.000991931	  -5.30038	0.00098706	  -5.30926	0.000974283	  -5.30926	   24.3571	
  -5.38045	0.000932171	  -5.38227	0.000979811	  -5.36796	0.000974978	   -5.3769	0.00096232	   -5.3769	    24.058	
  -5.44785	0.000920413	  -5.44968	0.000967738	  -5.43524	0.000962783	  -5.44426	0.000950311	  -5.44426	   23.7578	
  -5.51512	0.000908624	  -5.51699	0.00095558	  -5.50241	0.000950609	  -5.51151	0.000938271	  -5.51151	   23.4568	
   -5.5821	0.000896789	  -5.58402	0.000943286	  -5.56934	0.000938298	  -5.57849	0.000926124	  -5.57849	   23.1531	
  -5.64878	0.00088488	  -5.65088	0.000930994	  -5.63597	0.000925858	  -5.64521	0.000913911	  -5.64521	   22.8478	
  -5.71532	0.000872977	  -5.71762	0.000918654	  -5.70249	0.00091343	  -5.71181	0.000901687	  -5.71181	   22.5422	
  -5.78159	0.000860907	  -5.78406	0.000906166	  -5.76877	0.000900875	  -5.77814	0.000889316	  -5.77814	   22.2329	
  -5.84764	0.000848851	  -5.85027	0.000893601	  -5.83475	0.000888165	  -5.84422	0.000876872	  -5.84422	   21.9218	
  -5.91359	0.000836728	  -5.91636	0.000881083	  -5.90059	0.000875495	  -5.91018	0.000864435	  -5.91018	   21.6109	
  -5.97929	0.000824526	  -5.98214	0.000868399	  -5.96621	0.000862756	  -5.97588	0.000851894	  -5.97588	   21.2973	
  -6.04472	0.000812284	  -6.04764	0.000855665	   -6.0314	0.000849859	  -6.04125	0.000839269	  -6.04125	   20.9817	
  -6.11002	0.000799965	  -6.11298	0.000842962	  -6.09644	0.000836979	  -6.10648	0.000826635	  -6.10648	   20.6659	
  -6.17504	0.000787618	  -6.17803	0.000830085	  -6.16127	0.000824063	  -6.17144	0.000813922	  -6.17144	   20.3481	
  -6.23969	0.000775218	  -6.24268	0.000817205	   -6.2257	0.00081098	  -6.23603	0.000801134	  -6.23603	   20.0284	
  -6.30421	0.000762752	  -6.30723	0.000804352	  -6.29005	0.00079783	   -6.3005	0.000788311	   -6.3005	   19.7078	
  -6.36845	0.000750237	  -6.37151	0.000791316	  -6.35419	0.000784666	  -6.36472	0.000775406	  -6.36472	   19.3852	
   -6.4323	0.000737687	  -6.43542	0.000778221	  -6.41797	0.000771421	  -6.42857	0.000762443	  -6.42857	   19.0611	
  -6.49596	0.000725083	  -6.49929	0.000765142	  -6.48156	0.000758062	  -6.49227	0.000749429	  -6.49227	   18.7357	
   -6.5594	0.000712442	  -6.56293	0.000751916	  -6.54498	0.000744701	  -6.55577	0.000736353	  -6.55577	   18.4088	
  -6.62243	0.000699706	  -6.62632	0.000738616	  -6.60805	0.000731255	  -6.61894	0.000723192	  -6.61894	   18.0798	
  -6.68527	0.000686946	  -6.68951	0.000725379	  -6.67085	0.000717721	  -6.68188	0.000710015	  -6.68188	   17.7504	
  -6.74796	0.000674233	  -6.75236	0.000711977	  -6.73351	0.000704154	  -6.74461	0.000696788	  -6.74461	   17.4197	
  -6.81026	0.000661364	  -6.81506	0.000698495	  -6.79586	0.000690454	  -6.80706	0.000683438	  -6.80706	   17.0859	
  -6.87223	0.000648503	  -6.87749	0.00068504	  -6.85783	0.000676732	  -6.86919	0.000670092	  -6.86919	   16.7523	
  -6.93405	0.00063566	  -6.93953	0.000671467	  -6.91965	0.000662995	  -6.93108	0.000656707	  -6.93108	   16.4177	
  -6.99557	0.000622691	  -7.00131	0.000657841	  -6.98119	0.00064917	  -6.99269	0.000643234	  -6.99269	   16.0808	
  -7.05668	0.000609709	  -7.06275	0.000644194	  -7.04239	0.000635328	  -7.05394	0.000629743	  -7.05394	   15.7436	
  -7.11761	0.000596736	  -7.12406	0.000630487	  -7.10341	0.00062147	  -7.11503	0.000616231	  -7.11503	   15.4058	
   -7.1783	0.000583648	  -7.18508	0.000616731	  -7.16423	0.000607539	  -7.17587	0.000602639	  -7.17587	    15.066	
  -7.23863	0.000570517	  -7.24565	0.000602968	  -7.22467	0.000593575	  -7.23631	0.00058902	  -7.23631	   14.7255	
  -7.29863	 0.0005574	  -7.30599	0.000589119	  -7.28479	 0.0005796	  -7.29647	0.000575373	  -7.29647	   14.3843	
  -7.35849	0.000544198	  -7.36604	0.00057519	  -7.34476	0.000565543	  -7.35643	0.000561644	  -7.35643	   14.0411	
  -7.41801	0.000530921	  -7.42579	0.000561249	  -7.40444	0.000551446	  -7.41608	0.000547872	  -7.41608	   13.6968	
  -7.47725	0.000517617	  -7.48514	0.000547228	  -7.46367	0.000537353	  -7.47535	0.000534066	  -7.47535	   13.3516	
  -7.53631	0.000504262	  -7.54431	0.000533157	  -7.52263	0.000523144	  -7.53442	0.000520188	  -7.53442	   13.0047	
  -7.59511	0.000490854	  -7.60316	0.000519111	  -7.58134	0.000508974	   -7.5932	0.000506313	   -7.5932	   12.6578	
   -7.6535	0.000477392	  -7.66158	0.000504988	  -7.63965	 0.0004948	  -7.65158	0.000492393	  -7.65158	   12.3098	
  -7.71146	0.000463865	  -7.71971	0.000490851	   -7.6976	0.000480547	  -7.70959	0.000478421	  -7.70959	   11.9605	
  -7.76927	0.000450315	  -7.77764	0.000476736	  -7.75527	0.000466314	  -7.76739	0.000464455	  -7.76739	   11.6114	
  -7.82674	0.000436734	  -7.83519	0.00046254	  -7.81265	0.000452058	  -7.82486	0.000450444	  -7.82486	   11.2611	
  -7.88379	0.000423106	  -7.89239	0.000448303	  -7.86959	0.000437738	  -7.88192	0.000436382	  -7.88192	   10.9096	
  -7.94066	0.000409458	  -7.94946	0.000434037	  -7.92625	0.000423439	  -7.93879	0.000422311	  -7.93879	   10.5578	
  -7.99731	0.000395748	  -8.00625	0.000419762	  -7.98262	0.000409148	   -7.9954	0.000408219	   -7.9954	   10.2055	
  -8.05359	0.00038204	  -8.06264	0.000405381	  -8.03866	0.000394759	  -8.05163	0.00039406	  -8.05163	    9.8515	
  -8.10934	0.000368246	  -8.11867	0.000391003	  -8.09434	0.000380338	  -8.10745	0.000379862	  -8.10745	   9.49655	
  -8.16506	0.000354466	  -8.17451	0.000376561	  -8.14981	0.00036594	  -8.16313	0.000365656	  -8.16313	   9.14139	
  -8.22032	0.000340669	  -8.23003	0.00036207	  -8.20504	0.000351482	  -8.21846	0.000351407	  -8.21846	   8.78518	
  -8.27526	0.000326878	  -8.28506	0.000347577	  -8.25988	0.000336997	   -8.2734	0.000337151	   -8.2734	   8.42877	
  -8.32981	0.000313103	  -8.33975	0.000333055	  -8.31435	0.000322548	  -8.32797	0.000322902	  -8.32797	   8.07255	
  -8.38421	0.000299263	  -8.39429	0.000318495	  -8.36854	0.000308011	  -8.38235	0.00030859	  -8.38235	   7.71474	
  -8.43832	0.000285425	  -8.44848	0.000303929	  -8.42247	0.000293507	  -8.43642	0.000294287	  -8.43642	   7.35717	
    -8.492	0.000271595	  -8.50222	0.00028936	    -8.476	0.000279004	  -8.49007	0.000279987	  -8.49007	   6.99966	
   -8.5453	0.000257719	  -8.55559	0.000274746	  -8.52906	0.000264435	  -8.54332	0.000265633	  -8.54332	   6.64084	
  -8.59838	0.000243844	  -8.60868	0.000260081	  -8.58178	0.000249882	  -8.59628	0.000251269	  -8.59628	   6.28172	
  -8.65118	0.000229925	  -8.66114	0.000245454	  -8.63429	0.000235323	  -8.64887	0.000236901	  -8.64887	   5.92252	
  -8.70352	0.000216108	  -8.71361	0.000230834	  -8.68643	0.00022072	  -8.70119	0.000222554	  -8.70119	   5.56385	
  -8.75544	0.000202157	  -8.76562	0.000216068	  -8.73806	0.00020615	  -8.75304	0.000208125	  -8.75304	   5.20312	
   -8.8071	0.000188211	  -8.81728	0.000201382	   -8.7894	0.000191556	  -8.80459	0.000193716	  -8.80459	   4.84291	
  -8.85849	0.000174408	  -8.86859	0.000186699	  -8.84053	0.000176914	  -8.85587	0.00017934	  -8.85587	   4.48351	
  -8.90948	0.000160498	  -8.91949	0.000171939	  -8.89132	0.00016233	  -8.90676	0.000164922	  -8.90676	   4.12306	
  -8.95992	0.000146572	  -8.96993	0.000157212	  -8.94169	0.000147745	  -8.95718	0.00015051	  -8.95718	   3.76275	
   -9.0101	0.000132765	  -9.02012	0.000142509	  -8.99168	0.000133122	   -9.0073	0.000136132	   -9.0073	    3.4033	
  -9.06008	0.00011888	  -9.07006	0.000127747	  -9.04153	0.000118541	  -9.05722	0.000121722	  -9.05722	   3.04306	
  -9.10969	0.000104969	  -9.11959	0.000113013	  -9.09107	0.000103964	  -9.10678	0.000107315	  -9.10678	   2.68288	
  -9.15884	9.11456e-05	  -9.16863	9.82925e-05	  -9.14017	8.93523e-05	  -9.15588	9.29301e-05	  -9.15588	   2.32325	
  -9.20749	7.72604e-05	   -9.2173	8.34768e-05	  -9.18883	7.47633e-05	  -9.20454	7.85002e-05	  -9.20454	    1.9625	
  -9.25592	6.33494e-05	  -9.26574	6.86877e-05	  -9.23718	6.01857e-05	  -9.25295	6.40743e-05	  -9.25295	   1.60186	
  -9.30407	4.94929e-05	  -9.31383	 5.392e-05	  -9.28506	4.55327e-05	  -9.30099	4.96485e-05	  -9.30099	   1.24121	
   -9.3518	3.55959e-05	  -9.36145	3.90721e-05	  -9.33276	3.09767e-05	  -9.34867	3.52149e-05	  -9.34867	  0.880372	
  -9.39913	2.16709e-05	  -9.40862	2.42986e-05	  -9.38001	1.63723e-05	  -9.39592	2.07806e-05	  -9.39592	  0.519515	
  -9.44631	7.80847e-06	  -9.45546	9.49786e-06	  -9.42698	1.74942e-06	  -9.44292	6.35192e-06	  -9.44292	  0.158798	
  -9.49301	-6.14523e-06	  -9.50206	-5.35447e-06	  -9.47363	-1.28512e-05	  -9.48957	-8.11695e-06	  -9.48957	 -0.202924	
  -9.53925	-2.01215e-05	  -9.54833	-2.01258e-05	     -9.52	-2.74978e-05	  -9.53586	-2.25817e-05	  -9.53586	 -0.564543	
  -9.58508	-3.40224e-05	  -9.59412	-3.48562e-05	  -9.56595	-4.21321e-05	  -9.58172	-3.70036e-05	  -9.58172	  -0.92509	
   -9.6307	-4.79469e-05	  -9.63951	-4.96514e-05	   -9.6114	-5.67179e-05	   -9.6272	-5.14387e-05	   -9.6272	  -1.28597	
  -9.67591	-6.18899e-05	  -9.68463	-6.4342e-05	  -9.65644	-7.13308e-05	  -9.67233	-6.58542e-05	  -9.67233	  -1.64636	
  -9.72085	-7.57849e-05	  -9.72952	-7.9033e-05	  -9.70116	-8.59658e-05	  -9.71718	-8.02612e-05	  -9.71718	  -2.00653	
  -9.76546	-8.97273e-05	  -9.77403	-9.3809e-05	  -9.74563	-0.000100553	   -9.7617	-9.46965e-05	   -9.7617	  -2.36741	
  -9.80959	-0.000103628	  -9.81805	-0.000108479	  -9.78969	-0.000115168	  -9.80578	-0.000109092	  -9.80578	   -2.7273	
  -9.85321	-0.000117531	   -9.8618	-0.000123049	  -9.83324	-0.000129793	  -9.84942	-0.000123458	  -9.84942	  -3.08644	
   -9.8964	-0.00013141	  -9.90507	-0.000137855	  -9.87628	-0.00014437	  -9.89258	-0.000137878	  -9.89258	  -3.44695	
  -9.93935	-0.000145295	  -9.94786	-0.000152506	  -9.91896	-0.000158957	  -9.93539	-0.000152253	  -9.93539	  -3.80632	
  -9.98198	-0.000159234	  -9.99025	-0.000167063	  -9.96138	-0.000173537	  -9.97787	-0.000166611	  -9.97787	  -4.16528	
  -10.0242	-0.000173156	  -10.0323	-0.000181746	  -10.0035	-0.000188079	    -10.02	-0.000180993	    -10.02	  -4.52484	
  -10.0659	-0.000187072	  -10.0739	-0.00019634	  -10.0451	-0.00020261	  -10.0616	-0.000195341	  -10.0616	  -4.88351	
  -10.1069	-0.000201007	  -10.1151	-0.000210857	  -10.0862	-0.000217135	  -10.1027	-0.000209666	  -10.1027	  -5.24166	
  -10.1477	-0.000214931	  -10.1559	-0.000225453	  -10.1268	-0.000231604	  -10.1435	-0.000223996	  -10.1435	   -5.5999	
  -10.1882	-0.000228863	  -10.1965	-0.000239987	  -10.1672	-0.000246082	   -10.184	-0.000238311	   -10.184	  -5.95776	
  -10.2284	-0.000242786	  -10.2367	-0.000254438	  -10.2072	-0.000260584	  -10.2241	-0.000252603	  -10.2241	  -6.31508	
  -10.2681	-0.000256752	  -10.2764	-0.000268952	  -10.2469	-0.000274969	  -10.2638	-0.000266891	  -10.2638	  -6.67228	
  -10.3073	-0.000270678	  -10.3156	-0.00028343	  -10.2861	-0.000289339	   -10.303	-0.000281149	   -10.303	  -7.02872	
   -10.346	-0.000284593	  -10.3542	-0.000297854	  -10.3249	-0.000303777	  -10.3417	-0.000295408	  -10.3417	  -7.38521	
  -10.3843	-0.000298539	  -10.3926	-0.000312304	  -10.3631	-0.000318181	    -10.38	-0.000309675	    -10.38	  -7.74187	
  -10.4223	-0.000312447	  -10.4307	-0.000326732	   -10.401	-0.000332512	   -10.418	-0.000323897	   -10.418	  -8.09742	
  -10.4598	-0.000326328	  -10.4685	-0.000341167	  -10.4384	-0.000346882	  -10.4556	-0.000338125	  -10.4556	  -8.45314	
  -10.4972	-0.000340191	  -10.5059	-0.000355551	  -10.4754	-0.000361181	  -10.4929	-0.000352308	  -10.4929	  -8.80769	
  -10.5341	-0.000354114	  -10.5427	-0.000369954	  -10.5117	-0.000375504	  -10.5295	-0.000366524	  -10.5295	   -9.1631	
  -10.5705	-0.000368002	   -10.579	-0.000384345	  -10.5479	-0.000389774	  -10.5658	-0.000380707	  -10.5658	  -9.51767	
  -10.6063	-0.000381795	  -10.6148	-0.000398678	  -10.5836	-0.000403964	  -10.6016	-0.000394812	  -10.6016	  -9.87031	
  -10.6416	-0.000395666	  -10.6503	-0.000413023	  -10.6189	-0.000418211	  -10.6369	-0.000408967	  -10.6369	  -10.2242	
  -10.6766	-0.000409505	  -10.6854	-0.00042735	  -10.6537	-0.000432356	  -10.6719	-0.00042307	  -10.6719	  -10.5768	
  -10.7112	-0.000423251	  -10.7202	-0.000441634	  -10.6881	-0.000446453	  -10.7065	-0.000437113	  -10.7065	  -10.9278	
  -10.7454	-0.000437073	  -10.7545	-0.000455912	  -10.7223	-0.00046061	  -10.7407	-0.000451198	  -10.7407	    -11.28	
  -10.7791	-0.000450786	  -10.7883	-0.000470161	   -10.756	-0.000474669	  -10.7745	-0.000465205	  -10.7745	  -11.6301	
  -10.8123	-0.000464449	  -10.8216	-0.000484357	  -10.7892	-0.000488692	  -10.8077	-0.000479166	  -10.8077	  -11.9791	
  -10.8448	-0.000478165	  -10.8542	-0.000498576	  -10.8219	-0.000502747	  -10.8403	-0.000493163	  -10.8403	  -12.3291	
  -10.8768	-0.000491782	  -10.8866	-0.000512794	  -10.8541	-0.000516765	  -10.8725	-0.000507114	  -10.8725	  -12.6778	
  -10.9084	-0.000505352	  -10.9186	-0.000526802	  -10.8859	-0.00053068	  -10.9043	-0.000520945	  -10.9043	  -13.0236	
  -10.9397	-0.000518974	  -10.9503	-0.000540877	  -10.9174	-0.000544633	  -10.9358	-0.000534828	  -10.9358	  -13.3707	
  -10.9708	-0.000532514	  -10.9818	-0.000554953	  -10.9487	-0.000558538	  -10.9671	-0.000548668	  -10.9671	  -13.7167	
  -11.0015	-0.000546046	  -11.0127	-0.000568857	  -10.9796	-0.000572354	  -10.9979	-0.000562419	  -10.9979	  -14.0605	
  -11.0318	-0.000559544	  -11.0432	-0.000582799	  -11.0101	-0.00058622	  -11.0284	-0.000576188	  -11.0284	  -14.4047	
  -11.0616	-0.000572966	  -11.0731	-0.000596743	  -11.0401	-0.000600022	  -11.0583	-0.00058991	  -11.0583	  -14.7478	
  -11.0908	-0.0005864	  -11.1024	-0.000610535	  -11.0697	-0.000613673	  -11.0876	-0.000603536	  -11.0876	  -15.0884	
  -11.1194	-0.000599777	  -11.1312	-0.000624356	  -11.0986	-0.000627446	  -11.1164	-0.000617193	  -11.1164	  -15.4298	
  -11.1475	-0.00061309	  -11.1597	-0.000638194	  -11.1269	-0.00064118	  -11.1447	-0.000630822	  -11.1447	  -15.7705	
  -11.1752	-0.000626382	  -11.1878	-0.000651902	  -11.1546	-0.000654768	  -11.1725	-0.000644351	  -11.1725	  -16.1088	
  -11.2026	-0.000639608	  -11.2157	-0.000665622	  -11.1818	-0.00066841	     -11.2	-0.00065788	     -11.2	   -16.447	
  -11.2297	-0.000652848	  -11.2432	-0.000679337	  -11.2087	-0.000682038	  -11.2272	-0.000671407	  -11.2272	  -16.7852	
  -11.2564	-0.000666015	  -11.2703	-0.000692982	  -11.2352	-0.000695577	   -11.254	-0.000684858	   -11.254	  -17.1214	
  -11.2827	-0.000679195	   -11.297	-0.000706586	  -11.2616	-0.000709106	  -11.2804	-0.000698296	  -11.2804	  -17.4574	
  -11.3083	-0.000692352	  -11.3232	-0.000720144	  -11.2874	-0.000722618	  -11.3063	-0.000711705	  -11.3063	  -17.7926	
  -11.3337	-0.0007054	  -11.3488	-0.000733663	  -11.3126	-0.000736032	  -11.3317	-0.000725031	  -11.3317	  -18.1258	
  -11.3586	-0.000718468	  -11.3738	-0.000747132	  -11.3374	-0.000749403	  -11.3566	-0.000738334	  -11.3566	  -18.4584	
  -11.3829	-0.000731504	  -11.3983	-0.000760588	  -11.3619	-0.000762733	   -11.381	-0.000751608	   -11.381	  -18.7902	
  -11.4068	-0.000744438	  -11.4221	-0.000773984	   -11.386	-0.000776003	  -11.4049	-0.000764808	  -11.4049	  -19.1202	
  -11.4299	-0.000757376	  -11.4453	-0.000787356	  -11.4096	-0.000789241	  -11.4283	-0.000777991	  -11.4283	  -19.4498	
  -11.4526	-0.000770279	  -11.4681	-0.000800691	  -11.4328	-0.000802474	  -11.4511	-0.000791148	  -11.4511	  -19.7787	
  -11.4748	-0.000783141	  -11.4906	-0.000813948	  -11.4553	-0.000815586	  -11.4736	-0.000804225	  -11.4736	  -20.1056	
  -11.4965	-0.000795991	  -11.5128	-0.000827205	  -11.4773	-0.000828712	  -11.4955	-0.000817303	  -11.4955	  -20.4326	
  -11.5179	-0.000808775	  -11.5347	-0.000840406	  -11.4987	-0.000841767	  -11.5171	-0.000830316	  -11.5171	  -20.7579	
  -11.5391	-0.000821516	  -11.5562	-0.000853464	  -11.5197	-0.000854746	  -11.5383	-0.000843242	  -11.5383	  -21.0811	
  -11.5599	-0.000834273	  -11.5774	-0.000866522	  -11.5405	-0.000867686	  -11.5593	-0.00085616	  -11.5593	   -21.404	
  -11.5805	-0.000846914	  -11.5982	-0.00087956	  -11.5608	-0.000880601	  -11.5798	-0.000869025	  -11.5798	  -21.7256	
  -11.6007	-0.000859549	  -11.6184	-0.00089243	  -11.5808	-0.000893443	  -11.5999	-0.000881808	  -11.5999	  -22.0452	
  -11.6205	-0.000872131	  -11.6382	-0.000905364	  -11.6005	-0.000906175	  -11.6197	-0.000894557	  -11.6197	  -22.3639	
  -11.6399	-0.00088461	  -11.6575	-0.000918268	  -11.6198	-0.000918935	  -11.6391	-0.000907271	  -11.6391	  -22.6818	
  -11.6588	-0.000897099	  -11.6763	-0.000930972	  -11.6387	-0.00093151	   -11.658	-0.00091986	   -11.658	  -22.9965	
  -11.6772	-0.000909525	  -11.6947	-0.000943731	  -11.6572	-0.000944086	  -11.6764	-0.000932447	  -11.6764	  -23.3112	
  -11.6952	-0.000921889	  -11.7124	-0.000956437	  -11.6753	-0.000956634	  -11.6943	-0.000944986	  -11.6943	  -23.6247	
  -11.7125	-0.000934257	  -11.7297	-0.000969036	  -11.6929	-0.000968996	  -11.7117	-0.00095743	  -11.7117	  -23.9357	
  -11.7294	-0.000946558	  -11.7464	-0.000981615	  -11.7099	-0.000981387	  -11.7286	-0.000969854	  -11.7286	  -24.2463	
  -11.7457	-0.000958815	  -11.7625	-0.000994175	  -11.7265	-0.000993744	  -11.7449	-0.000982245	  -11.7449	  -24.5561	
  -11.7614	-0.000971046	   -11.778	-0.00100665	  -11.7425	-0.00100596	  -11.7606	-0.000994551	  -11.7606	  -24.8638	
  -11.7765	-0.000983208	  -11.7929	-0.00101906	  -11.7579	-0.0010182	  -11.7758	-0.00100682	  -11.7758	  -25.1706	
  -11.7911	-0.000995339	  -11.8073	-0.00103146	  -11.7728	-0.00103044	  -11.7904	-0.00101908	  -11.7904	   -25.477	
  -11.8051	-0.00100742	  -11.8211	-0.00104377	  -11.7871	-0.00104256	  -11.8044	-0.00103125	  -11.8044	  -25.7813	
  -11.8185	-0.00101939	  -11.8344	-0.00105601	  -11.8009	-0.00105465	  -11.8179	-0.00104335	  -11.8179	  -26.0838	
  -11.8313	-0.00103139	  -11.8471	-0.00106826	  -11.8141	-0.0010667	  -11.8308	-0.00105545	  -11.8308	  -26.3862	
  -11.8436	-0.00104326	  -11.8594	-0.00108044	  -11.8268	-0.00107869	  -11.8432	-0.00106746	  -11.8432	  -26.6865	
  -11.8552	-0.00105511	   -11.871	-0.00109251	  -11.8389	-0.00109058	   -11.855	-0.0010794	   -11.855	   -26.985	
  -11.8663	-0.00106694	  -11.8821	-0.00110462	  -11.8505	-0.00110248	  -11.8663	-0.00109135	  -11.8663	  -27.2837	
   -11.877	-0.00107867	  -11.8928	-0.0011166	  -11.8615	-0.0011143	  -11.8771	-0.00110319	  -11.8771	  -27.5798	
  -11.8872	-0.00109041	  -11.9029	-0.00112847	  -11.8721	-0.00112593	  -11.8874	-0.00111494	  -11.8874	  -27.8734	
  -11.8969	-0.00110207	  -11.9126	-0.00114038	  -11.8821	-0.00113761	  -11.8972	-0.00112669	  -11.8972	  -28.1672	
  -11.9061	-0.00111369	  -11.9217	-0.00115219	  -11.8916	-0.00114922	  -11.9065	-0.00113836	  -11.9065	  -28.4591	
  -11.9148	-0.0011253	  -11.9304	-0.00116389	  -11.9006	-0.0011607	  -11.9153	-0.00114996	  -11.9153	   -28.749	
   -11.923	-0.00113688	  -11.9387	-0.00117559	  -11.9091	-0.00117217	  -11.9236	-0.00116155	  -11.9236	  -29.0387	
  -11.9306	-0.00114834	  -11.9466	-0.0011872	  -11.9171	-0.00118356	  -11.9315	-0.00117303	  -11.9315	  -29.3258	
  -11.9378	-0.00115981	  -11.9543	-0.00119867	  -11.9246	-0.00119485	  -11.9389	-0.00118444	  -11.9389	  -29.6111	
  -11.9445	-0.00117125	  -11.9616	-0.00121024	  -11.9317	-0.00120614	  -11.9459	-0.00119588	  -11.9459	   -29.897	
  -11.9507	-0.00118256	  -11.9685	-0.00122165	  -11.9382	-0.00121732	  -11.9525	-0.00120717	  -11.9525	  -30.1794	
  -11.9565	-0.00119388	   -11.975	-0.00123291	  -11.9444	-0.00122845	  -11.9586	-0.00121841	  -11.9586	  -30.4603	
  -11.9618	-0.00120514	   -11.981	-0.00124416	  -11.9501	-0.00123956	  -11.9643	-0.00122962	  -11.9643	  -30.7405	
  -11.9667	-0.00121622	  -11.9867	-0.00125536	  -11.9553	-0.00125054	  -11.9696	-0.00124071	  -11.9696	  -31.0177	
  -11.9712	-0.00122738	  -11.9918	-0.00126646	  -11.9602	-0.00126146	  -11.9744	-0.00125176	  -11.9744	  -31.2941	
  -11.9753	-0.00123844	  -11.9964	-0.00127747	  -11.9647	-0.00127234	  -11.9788	-0.00126275	  -11.9788	  -31.5688	
   -11.979	-0.00124936	  -12.0005	-0.00128849	  -11.9688	-0.00128316	  -11.9828	-0.00127367	  -11.9828	  -31.8417	
  -11.9824	-0.00126031	  -12.0041	-0.00129937	  -11.9726	-0.00129389	  -11.9864	-0.00128452	  -11.9864	   -32.113	
  -11.9854	-0.00127116	  -12.0073	-0.00131016	   -11.976	-0.00130458	  -11.9896	-0.0012953	  -11.9896	  -32.3825	
  -11.9882	-0.00128187	    -12.01	-0.00132094	  -11.9791	-0.00131523	  -11.9925	-0.00130601	  -11.9925	  -32.6504	
  -11.9906	-0.00129258	  -12.0124	-0.00133158	  -11.9819	-0.00132578	   -11.995	-0.00131665	   -11.995	  -32.9162	
  -11.9927	-0.00130321	  -12.0145	-0.00134211	  -11.9844	-0.00133627	  -11.9972	-0.0013272	  -11.9972	  -33.1799	
  -11.9946	-0.0013137	  -12.0161	-0.0013526	  -11.9866	-0.00134674	  -11.9991	-0.00133768	  -11.9991	   -33.442	
  -11.9962	-0.00132412	  -12.0175	-0.00136299	  -11.9886	-0.00135712	  -12.0008	-0.00134808	  -12.0008	  -33.7019	
  -11.9976	-0.00133448	  -12.0185	-0.00137331	  -11.9901	-0.00136741	  -12.0021	-0.0013584	  -12.0021	  -33.9601	
  -11.9986	-0.00134475	  -12.0192	-0.00138357	  -11.9911	-0.00137769	   -12.003	-0.00136867	   -12.003	  -34.2167	
  -11.9993	-0.00135496	  -12.0196	-0.00139377	  -11.9916	-0.0013879	  -12.0035	-0.00137888	  -12.0035	  -34.4719	
  -11.9996	-0.00136508	  -12.0197	-0.0014039	  -11.9915	-0.00139799	  -12.0036	-0.00138899	  -12.0036	  -34.7248	
  -11.9994	-0.00137509	  -12.0193	-0.00141393	  -11.9906	-0.00140804	  -12.0031	-0.00139902	  -12.0031	  -34.9756	
  -11.9987	 -0.001385	  -12.0184	-0.00142389	  -11.9892	-0.00141805	  -12.0021	-0.00140898	  -12.0021	  -35.2245	
  -11.9973	-0.00139486	  -12.0168	-0.00143379	  -11.9871	-0.00142796	  -12.0004	-0.00141887	  -12.0004	  -35.4717	
  -11.9953	-0.00140459	  -12.0146	-0.00144359	  -11.9845	-0.00143776	  -11.9982	-0.00142865	  -11.9982	  -35.7161	
  -11.9928	-0.00141422	  -12.0119	-0.00145329	  -11.9815	-0.00144755	  -11.9954	-0.00143835	  -11.9954	  -35.9588	
  -11.9897	-0.00142382	  -12.0086	-0.00146293	   -11.978	-0.00145725	  -11.9921	 -0.001448	  -11.9921	     -36.2	
  -11.9862	-0.0014333	  -12.0048	-0.00147245	   -11.974	-0.00146685	  -11.9883	-0.00145754	  -11.9883	  -36.4384	
  -11.9822	-0.00144267	  -12.0005	-0.00148192	  -11.9698	-0.00147642	  -11.9842	 -0.001467	  -11.9842	  -36.6751	
  -11.9779	 -0.001452	  -11.9958	-0.00149133	  -11.9651	-0.00148588	  -11.9796	-0.00147641	  -11.9796	  -36.9101	
  -11.9733	-0.0014613	  -11.9907	-0.00150056	  -11.9602	-0.00149526	  -11.9747	-0.00148571	  -11.9747	  -37.1426	
  -11.9684	-0.00147043	  -11.9853	-0.00150975	  -11.9548	-0.00150458	  -11.9695	-0.00149492	  -11.9695	  -37.3731	
   -11.963	-0.00147948	  -11.9796	-0.00151894	  -11.9489	-0.00151381	  -11.9638	-0.00150408	  -11.9638	   -37.602	
  -11.9569	-0.00148847	  -11.9735	 -0.001528	  -11.9423	-0.00152296	  -11.9576	-0.00151314	  -11.9576	  -37.8286	
  -11.9504	-0.00149736	  -11.9669	-0.00153704	  -11.9351	-0.00153203	  -11.9508	-0.00152215	  -11.9508	  -38.0536	
  -11.9434	-0.00150629	  -11.9596	-0.00154601	  -11.9273	-0.00154103	  -11.9434	-0.00153111	  -11.9434	  -38.2778	
   -11.936	-0.00151493	  -11.9517	-0.00155483	   -11.919	-0.00154999	  -11.9356	-0.00153992	  -11.9356	   -38.498	
  -11.9281	-0.00152357	  -11.9432	-0.00156365	  -11.9102	-0.00155887	  -11.9272	-0.0015487	  -11.9272	  -38.7174	
  -11.9196	-0.00153216	  -11.9342	-0.00157248	  -11.9011	-0.00156769	  -11.9183	-0.00155745	  -11.9183	  -38.9361	
  -11.9108	-0.00154054	  -11.9249	-0.00158111	  -11.8916	-0.00157645	  -11.9091	-0.00156603	  -11.9091	  -39.1508	
  -11.9015	-0.0015489	  -11.9151	-0.00158969	  -11.8818	-0.00158513	  -11.8995	-0.00157457	  -11.8995	  -39.3643	
  -11.8918	-0.00155722	  -11.9048	-0.00159832	  -11.8714	-0.0015937	  -11.8893	-0.00158308	  -11.8893	   -39.577	
  -11.8816	-0.00156539	  -11.8942	-0.00160676	  -11.8607	-0.00160218	  -11.8788	-0.00159144	  -11.8788	   -39.786	
  -11.8707	-0.00157352	  -11.8831	-0.00161513	  -11.8494	-0.0016107	  -11.8677	-0.00159978	  -11.8677	  -39.9945	
  -11.8593	-0.00158163	  -11.8713	-0.00162353	  -11.8376	-0.00161902	  -11.8561	-0.00160806	  -11.8561	  -40.2015	
  -11.8472	-0.00158961	   -11.859	-0.0016318	  -11.8253	-0.00162731	  -11.8438	-0.00161624	  -11.8438	   -40.406	
  -11.8346	-0.00159754	  -11.8461	-0.00163989	  -11.8126	-0.0016356	  -11.8311	-0.00162434	  -11.8311	  -40.6086	
  -11.8216	-0.00160544	  -11.8328	-0.00164801	  -11.7995	-0.00164366	   -11.818	-0.00163237	   -11.818	  -40.8092	
  -11.8082	-0.00161322	  -11.8191	-0.00165605	   -11.786	-0.00165179	  -11.8044	-0.00164035	  -11.8044	  -41.0088	
  -11.7943	-0.00162091	  -11.8051	-0.00166387	   -11.772	-0.00165984	  -11.7905	-0.00164821	  -11.7905	  -41.2051	
    -11.78	-0.00162857	  -11.7906	-0.00167169	  -11.7573	-0.00166778	   -11.776	-0.00165602	   -11.776	  -41.4004	
  -11.7651	-0.00163612	  -11.7756	-0.00167944	  -11.7419	-0.00167571	  -11.7609	-0.00166376	  -11.7609	  -41.5939	
  -11.7496	-0.00164358	    -11.76	-0.00168701	   -11.726	-0.00168356	  -11.7452	-0.00167138	  -11.7452	  -41.7846	
  -11.7335	 -0.001651	  -11.7439	-0.00169454	  -11.7097	-0.0016913	   -11.729	-0.00167895	   -11.729	  -41.9737	
  -11.7171	-0.00165831	  -11.7272	-0.00170198	   -11.693	-0.00169899	  -11.7124	-0.00168643	  -11.7124	  -42.1607	
  -11.7002	-0.00166555	  -11.7102	-0.00170927	   -11.676	-0.0017066	  -11.6955	-0.0016938	  -11.6955	  -42.3451	
   -11.683	-0.00167274	  -11.6929	-0.00171652	  -11.6585	-0.00171409	  -11.6782	-0.00170112	  -11.6782	  -42.5279	
  -11.6652	-0.00167981	  -11.6752	-0.0017237	  -11.6405	-0.00172154	  -11.6603	-0.00170835	  -11.6603	  -42.7088	
   -11.647	-0.00168681	  -11.6569	-0.00173074	  -11.6219	-0.00172887	  -11.6419	-0.00171547	  -11.6419	  -42.8869	
  -11.6282	-0.00169373	   -11.638	-0.00173775	  -11.6028	-0.00173609	   -11.623	-0.00172252	   -11.623	  -43.0631	
   -11.609	-0.00170056	  -11.6186	-0.0017447	  -11.5834	-0.00174326	  -11.6036	-0.00172951	  -11.6036	  -43.2377	
  -11.5892	-0.00170734	  -11.5987	-0.00175153	  -11.5636	-0.00175033	  -11.5838	-0.0017364	  -11.5838	    -43.41	
   -11.569	-0.00171403	  -11.5785	-0.00175832	  -11.5434	-0.00175728	  -11.5637	-0.00174321	  -11.5637	  -43.5803	
  -11.5482	-0.00172067	  -11.5579	-0.00176502	  -11.5227	-0.00176417	  -11.5429	-0.00174995	  -11.5429	  -43.7488	
   -11.527	-0.00172725	  -11.5369	-0.00177157	  -11.5015	-0.00177097	  -11.5218	-0.0017566	  -11.5218	  -43.9149	
  -11.5054	-0.00173371	  -11.5154	-0.00177813	  -11.4797	-0.0017776	  -11.5002	-0.00176315	  -11.5002	  -44.0787	
  -11.4833	-0.00174014	  -11.4934	-0.00178463	  -11.4575	-0.00178419	  -11.4781	-0.00176965	  -11.4781	  -44.2413	
  -11.4608	-0.00174651	   -11.471	-0.0017909	  -11.4348	-0.00179075	  -11.4555	-0.00177605	  -11.4555	  -44.4013	
   -11.438	-0.00175274	  -11.4482	-0.00179731	  -11.4116	-0.00179713	  -11.4326	-0.00178239	  -11.4326	  -44.5598	
  -11.4146	-0.00175892	  -11.4248	-0.00180367	  -11.3881	-0.00180344	  -11.4091	-0.00178868	  -11.4091	  -44.7169	
  -11.3906	-0.00176513	  -11.4009	-0.00180977	   -11.364	-0.00180969	  -11.3851	-0.00179486	  -11.3851	  -44.8715	
  -11.3661	-0.00177122	  -11.3765	-0.00181591	  -11.3395	-0.00181575	  -11.3607	-0.00180096	  -11.3607	   -45.024	
  -11.3412	-0.0017772	  -11.3517	-0.00182201	  -11.3147	-0.00182175	  -11.3358	-0.00180699	  -11.3358	  -45.1747	
  -11.3159	-0.0017832	  -11.3265	-0.00182786	  -11.2895	-0.00182779	  -11.3106	-0.00181295	  -11.3106	  -45.3238	
  -11.2901	-0.00178912	  -11.3009	-0.00183373	  -11.2639	-0.0018336	   -11.285	-0.00181882	   -11.285	  -45.4704	
  -11.2637	-0.00179493	  -11.2748	-0.00183958	  -11.2377	-0.00183937	  -11.2587	-0.00182463	  -11.2587	  -45.6157	
  -11.2369	-0.00180074	  -11.2481	-0.00184522	  -11.2108	-0.00184519	  -11.2319	-0.00183038	  -11.2319	  -45.7596	
  -11.2093	-0.00180654	   -11.221	-0.00185084	  -11.1838	-0.00185068	  -11.2047	-0.00183602	  -11.2047	  -45.9005	
  -11.1816	-0.00181213	  -11.1936	-0.00185645	  -11.1563	-0.00185618	  -11.1772	-0.00184159	  -11.1772	  -46.0396	
  -11.1533	-0.00181775	  -11.1657	-0.00186185	  -11.1284	-0.00186171	  -11.1491	-0.0018471	  -11.1491	  -46.1776	
  -11.1245	-0.00182335	  -11.1374	-0.00186723	  -11.0999	-0.00186697	  -11.1206	-0.00185252	  -11.1206	  -46.3129	
  -11.0952	-0.00182877	  -11.1085	-0.00187257	   -11.071	-0.00187217	  -11.0916	-0.00185784	  -11.0916	  -46.4459	
  -11.0657	-0.0018342	  -11.0793	-0.00187771	  -11.0417	-0.00187738	  -11.0622	-0.0018631	  -11.0622	  -46.5774	
  -11.0358	-0.0018396	  -11.0496	-0.0018828	  -11.0121	-0.00188239	  -11.0325	-0.00186827	  -11.0325	  -46.7067	
  -11.0054	-0.00184485	  -11.0195	-0.00188793	   -10.982	-0.00188727	  -11.0023	-0.00187335	  -11.0023	  -46.8337	
  -10.9747	-0.00185012	  -10.9888	-0.00189283	  -10.9514	-0.00189219	  -10.9716	-0.00187838	  -10.9716	  -46.9595	
  -10.9435	-0.00185533	  -10.9576	-0.00189766	  -10.9205	-0.00189692	  -10.9405	-0.0018833	  -10.9405	  -47.0826	
  -10.9118	-0.00186036	  -10.9261	-0.00190249	  -10.8892	-0.00190155	   -10.909	-0.00188813	   -10.909	  -47.2034	
  -10.8797	-0.0018655	  -10.8942	-0.00190714	  -10.8573	-0.00190619	  -10.8771	-0.00189294	  -10.8771	  -47.3236	
  -10.8473	-0.00187049	  -10.8619	-0.00191172	   -10.825	-0.00191069	  -10.8447	-0.00189763	  -10.8447	  -47.4408	
  -10.8143	-0.00187536	   -10.829	-0.00191629	  -10.7923	-0.00191507	  -10.8119	-0.00190224	  -10.8119	   -47.556	
  -10.7811	-0.00188028	  -10.7957	-0.00192071	  -10.7592	-0.0019194	  -10.7787	-0.0019068	  -10.7787	    -47.67	
  -10.7473	-0.00188503	  -10.7622	-0.00192506	  -10.7257	-0.00192364	  -10.7451	-0.00191124	  -10.7451	  -47.7811	
  -10.7131	-0.00188971	  -10.7282	-0.00192942	  -10.6917	-0.00192778	   -10.711	-0.00191564	   -10.711	  -47.8909	
  -10.6785	-0.00189438	  -10.6937	-0.00193372	  -10.6572	-0.00193186	  -10.6764	-0.00191999	  -10.6764	  -47.9997	
  -10.6435	-0.00189889	  -10.6587	-0.00193793	  -10.6224	-0.00193584	  -10.6415	-0.00192422	  -10.6415	  -48.1055	
  -10.6082	-0.00190336	  -10.6235	-0.00194204	  -10.5874	-0.00193976	  -10.6064	-0.00192838	  -10.6064	  -48.2096	
  -10.5724	-0.00190781	   -10.588	-0.00194613	  -10.5518	-0.00194359	  -10.5708	-0.00193251	  -10.5708	  -48.3128	
  -10.5362	-0.00191213	   -10.552	-0.00195011	  -10.5158	-0.00194734	  -10.5347	-0.00193653	  -10.5347	  -48.4131	
  -10.4996	-0.00191641	  -10.5156	-0.00195405	  -10.4794	-0.00195101	  -10.4982	-0.00194049	  -10.4982	  -48.5123	
  -10.4627	-0.00192061	  -10.4789	-0.00195797	  -10.4428	-0.00195464	  -10.4615	-0.00194441	  -10.4615	  -48.6102	
  -10.4254	-0.00192475	  -10.4417	-0.00196178	  -10.4058	-0.00195824	  -10.4243	-0.00194825	  -10.4243	  -48.7064	
  -10.3877	-0.00192877	   -10.404	-0.00196555	  -10.3683	-0.00196166	  -10.3867	-0.00195199	  -10.3867	  -48.7998	
  -10.3495	-0.00193269	  -10.3659	-0.0019693	  -10.3306	-0.00196502	  -10.3487	-0.00195567	  -10.3487	  -48.8918	
  -10.3109	-0.00193666	  -10.3275	-0.00197295	  -10.2924	-0.00196839	  -10.3103	-0.00195933	  -10.3103	  -48.9833	
  -10.2719	-0.00194048	  -10.2886	-0.00197654	  -10.2538	-0.00197164	  -10.2714	-0.00196289	  -10.2714	  -49.0721	
  -10.2325	-0.00194415	  -10.2492	-0.00198003	  -10.2148	-0.00197478	  -10.2321	-0.00196632	  -10.2321	  -49.1581	
  -10.1928	-0.00194783	  -10.2094	-0.00198353	  -10.1753	-0.0019779	  -10.1925	-0.00196975	  -10.1925	  -49.2438	
  -10.1527	-0.00195139	  -10.1693	-0.00198704	  -10.1354	-0.0019809	  -10.1525	-0.00197311	  -10.1525	  -49.3277	
   -10.112	-0.00195483	  -10.1287	-0.00199036	  -10.0951	-0.00198382	  -10.1119	-0.00197634	  -10.1119	  -49.4085	
   -10.071	-0.00195824	  -10.0877	-0.0019937	  -10.0543	-0.0019867	   -10.071	-0.00197954	   -10.071	  -49.4886	
  -10.0297	-0.00196158	  -10.0464	-0.00199698	  -10.0132	-0.00198947	  -10.0297	-0.00198267	  -10.0297	  -49.5668	
  -9.98803	-0.00196482	  -10.0047	-0.00200012	  -9.97161	-0.00199216	  -9.98813	-0.0019857	  -9.98813	  -49.6425	
  -9.94585	-0.00196798	  -9.96261	-0.00200323	  -9.92957	-0.00199482	  -9.94601	-0.00198868	  -9.94601	  -49.7169	
  -9.90333	-0.00197104	  -9.92006	-0.00200628	  -9.88722	-0.00199742	  -9.90353	-0.00199158	  -9.90353	  -49.7895	
  -9.86047	-0.00197404	  -9.87725	-0.00200919	   -9.8446	-0.00199991	  -9.86077	-0.00199438	  -9.86077	  -49.8595	
  -9.81713	-0.00197697	  -9.83356	-0.00201216	  -9.80143	-0.00200241	  -9.81737	-0.00199718	  -9.81737	  -49.9294	
  -9.77334	-0.00197979	  -9.78997	-0.00201488	  -9.75786	-0.00200481	  -9.77373	-0.00199983	  -9.77373	  -49.9956	
  -9.72928	-0.00198256	  -9.74593	-0.00201759	    -9.714	-0.00200712	  -9.72974	-0.00200242	  -9.72974	  -50.0606	
  -9.68488	-0.00198524	  -9.70145	-0.00202027	  -9.66967	-0.00200947	  -9.68533	-0.00200499	  -9.68533	  -50.1248	
  -9.63996	-0.00198781	  -9.65646	-0.00202275	  -9.62494	-0.0020116	  -9.64045	-0.00200739	  -9.64045	  -50.1847	
  -9.59471	-0.00199037	  -9.61112	-0.00202517	  -9.57985	-0.00201378	  -9.59523	-0.00200977	  -9.59523	  -50.2443	
  -9.54925	-0.0019928	  -9.56551	-0.00202756	   -9.5343	-0.00201596	  -9.54969	-0.00201211	  -9.54969	  -50.3027	
  -9.50332	-0.00199521	  -9.51944	-0.00202982	  -9.48836	-0.00201795	   -9.5037	-0.00201433	   -9.5037	  -50.3582	
  -9.45697	-0.0019976	   -9.4729	-0.00203198	  -9.44202	-0.00201993	   -9.4573	-0.0020165	   -9.4573	  -50.4126	
  -9.41039	-0.00199986	  -9.42607	-0.00203408	  -9.39534	-0.00202192	   -9.4106	-0.00201862	   -9.4106	  -50.4655	
  -9.36337	-0.00200204	    -9.379	-0.0020361	  -9.34821	-0.00202376	  -9.36353	-0.00202064	  -9.36353	  -50.5159	
   -9.3159	-0.00200418	   -9.3314	-0.00203804	  -9.30068	-0.00202555	  -9.31599	-0.00202259	  -9.31599	  -50.5647	
  -9.26817	-0.00200626	  -9.28348	-0.00203991	  -9.25286	-0.00202736	  -9.26817	-0.00202451	  -9.26817	  -50.6128	
  -9.22013	-0.00200826	  -9.23529	-0.00204173	  -9.20477	-0.00202908	  -9.22006	-0.00202636	  -9.22006	  -50.6589	
  -9.17159	-0.00201019	  -9.18669	-0.00204346	   -9.1562	-0.00203073	  -9.17149	-0.00202813	  -9.17149	  -50.7032	
  -9.12273	-0.00201212	  -9.13771	-0.00204513	  -9.10733	-0.00203232	  -9.12259	-0.00202986	  -9.12259	  -50.7464	
  -9.07364	-0.00201394	  -9.08847	-0.00204674	  -9.05815	-0.00203385	  -9.07342	-0.00203151	  -9.07342	  -50.7878	
  -9.02408	-0.00201566	  -9.03878	-0.00204827	   -9.0085	-0.00203533	  -9.02379	-0.00203309	  -9.02379	  -50.8272	
  -8.97418	-0.00201737	  -8.98867	-0.00204973	  -8.95854	-0.00203674	   -8.9738	-0.00203462	   -8.9738	  -50.8654	
  -8.92402	-0.00201895	  -8.93833	-0.00205114	  -8.90834	-0.0020381	  -8.92356	-0.00203606	  -8.92356	  -50.9016	
  -8.87345	-0.00202052	  -8.88748	-0.00205244	  -8.85765	-0.0020394	  -8.87286	-0.00203746	  -8.87286	  -50.9364	
   -8.8225	-0.00202204	  -8.83621	-0.00205373	  -8.80663	-0.00204064	  -8.82178	-0.0020388	  -8.82178	  -50.9701	
  -8.77129	-0.00202346	  -8.78468	-0.00205493	  -8.75537	-0.00204182	  -8.77045	-0.00204007	  -8.77045	  -51.0018	
  -8.71964	-0.00202482	   -8.7327	-0.00205607	  -8.70366	-0.00204295	  -8.71867	-0.00204128	  -8.71867	  -51.0321	
  -8.66758	-0.00202617	  -8.68041	-0.00205721	  -8.65161	 -0.002044	  -8.66653	-0.00204246	  -8.66653	  -51.0614	
   -8.6153	-0.00202739	  -8.62776	-0.00205823	  -8.59932	 -0.002045	  -8.61413	-0.00204354	  -8.61413	  -51.0885	
  -8.56266	-0.00202857	  -8.57473	-0.00205913	   -8.5466	-0.00204595	  -8.56133	-0.00204455	  -8.56133	  -51.1137	
   -8.5096	-0.00202972	  -8.52147	-0.00206001	  -8.49355	-0.00204687	  -8.50821	-0.00204553	  -8.50821	  -51.1383	
  -8.45629	-0.00203075	  -8.46775	-0.00206087	   -8.4403	-0.00204774	  -8.45478	-0.00204646	  -8.45478	  -51.1614	
  -8.40261	-0.00203173	  -8.41381	-0.00206164	  -8.38669	-0.00204856	  -8.40103	-0.00204731	  -8.40103	  -51.1828	
  -8.34852	-0.00203267	  -8.35954	-0.00206234	  -8.33271	-0.00204928	  -8.34692	-0.0020481	  -8.34692	  -51.2024	
  -8.29425	-0.00203352	  -8.30499	-0.00206298	  -8.27856	-0.00204994	   -8.2926	-0.00204882	   -8.2926	  -51.2204	
  -8.23957	-0.00203433	  -8.25006	-0.0020636	  -8.22392	-0.00205065	  -8.23785	-0.00204953	  -8.23785	  -51.2382	
   -8.1845	-0.00203503	  -8.19483	-0.00206414	  -8.16892	-0.0020513	  -8.18275	-0.00205016	  -8.18275	  -51.2539	
  -8.12926	-0.00203571	  -8.13928	-0.00206462	  -8.11376	-0.00205187	  -8.12743	-0.00205073	  -8.12743	  -51.2684	
  -8.07358	-0.00203634	  -8.08332	-0.00206506	  -8.05816	-0.00205247	  -8.07169	-0.00205129	  -8.07169	  -51.2822	
  -8.01753	-0.00203683	  -8.02699	-0.00206539	  -8.00224	-0.00205298	  -8.01558	-0.00205173	  -8.01558	  -51.2933	
  -7.96127	-0.00203734	  -7.97048	-0.00206571	  -7.94608	-0.0020534	  -7.95928	-0.00205215	  -7.95928	  -51.3038	
   -7.9046	-0.00203776	  -7.91352	-0.00206597	  -7.88949	-0.00205383	  -7.90254	-0.00205252	  -7.90254	   -51.313	
  -7.84757	-0.00203807	  -7.85621	-0.00206616	  -7.83259	-0.0020542	  -7.84546	-0.00205281	  -7.84546	  -51.3202	
  -7.79039	-0.00203832	   -7.7987	-0.00206627	   -7.7755	-0.00205449	   -7.7882	-0.00205303	   -7.7882	  -51.3257	
  -7.73278	-0.00203853	  -7.74083	-0.00206639	  -7.71802	-0.0020547	  -7.73054	-0.00205321	  -7.73054	  -51.3302	
  -7.67487	-0.00203864	  -7.68264	-0.0020664	  -7.66024	-0.00205493	  -7.67258	-0.00205332	  -7.67258	  -51.3331	
  -7.61676	-0.00203867	   -7.6243	-0.00206635	  -7.60222	-0.00205501	  -7.61443	-0.00205335	  -7.61443	  -51.3336	
   -7.5582	-0.00203862	  -7.56559	-0.00206628	  -7.54376	-0.00205507	  -7.55585	-0.00205332	  -7.55585	   -51.333	
  -7.49939	-0.00203848	   -7.5066	-0.00206607	  -7.48508	-0.00205512	  -7.49702	-0.00205322	  -7.49702	  -51.3306	
  -7.44027	-0.0020383	   -7.4474	-0.00206584	  -7.42615	-0.00205505	  -7.43794	-0.00205307	  -7.43794	  -51.3266	
  -7.38078	-0.00203805	  -7.38781	-0.00206562	  -7.36682	-0.00205495	  -7.37847	-0.00205287	  -7.37847	  -51.3218	
   -7.3211	-0.00203773	    -7.328	-0.0020652	   -7.3073	-0.00205483	   -7.3188	-0.00205258	   -7.3188	  -51.3146	
  -7.26116	-0.00203735	  -7.26791	-0.00206474	  -7.24744	-0.00205461	  -7.25883	-0.00205223	  -7.25883	  -51.3058	
  -7.20086	-0.00203689	  -7.20746	-0.00206427	  -7.18722	-0.00205433	  -7.19851	-0.00205183	  -7.19851	  -51.2958	
   -7.1404	-0.00203638	  -7.14686	-0.00206365	  -7.12682	-0.00205404	  -7.13803	-0.00205136	  -7.13803	  -51.2839	
  -7.07957	-0.00203585	  -7.08595	-0.00206294	  -7.06609	-0.00205363	   -7.0772	-0.00205081	   -7.0772	  -51.2702	
  -7.01843	-0.00203527	  -7.02479	-0.00206222	  -7.00507	-0.00205313	   -7.0161	-0.00205021	   -7.0161	  -51.2552	
  -6.95714	-0.00203459	  -6.96339	-0.00206142	  -6.94382	-0.00205262	  -6.95478	-0.00204954	  -6.95478	  -51.2386	
  -6.89551	-0.00203392	  -6.90157	-0.00206051	  -6.88218	-0.00205203	  -6.89308	-0.00204882	  -6.89308	  -51.2205	
  -6.83361	-0.00203316	  -6.83954	-0.0020596	  -6.82034	-0.00205136	  -6.83116	-0.00204804	  -6.83116	   -51.201	
  -6.77149	-0.00203229	  -6.77725	-0.00205862	  -6.75816	-0.00205064	  -6.76896	-0.00204718	  -6.76896	  -51.1796	
  -6.70895	-0.00203149	   -6.7146	-0.00205754	  -6.69576	-0.00204996	  -6.70644	-0.00204633	  -6.70644	  -51.1583	
  -6.64626	-0.00203054	  -6.65179	-0.00205645	  -6.63311	-0.00204915	  -6.64372	-0.00204538	  -6.64372	  -51.1345	
   -6.5833	-0.00202948	  -6.58863	-0.0020553	  -6.57018	-0.00204827	   -6.5807	-0.00204435	   -6.5807	  -51.1088	
  -6.52002	-0.0020285	  -6.52516	-0.00205407	  -6.50697	-0.00204746	  -6.51738	-0.00204334	  -6.51738	  -51.0836	
  -6.45661	-0.00202743	  -6.46148	-0.00205274	  -6.44363	-0.00204651	  -6.45391	-0.00204223	  -6.45391	  -51.0556	
  -6.39284	-0.00202626	  -6.39734	-0.00205143	  -6.37988	-0.00204548	  -6.39002	-0.00204106	  -6.39002	  -51.0264	
  -6.32884	-0.00202512	  -6.33331	-0.00204991	  -6.31593	-0.00204447	  -6.32603	-0.00203984	  -6.32603	  -50.9959	
   -6.2643	-0.00202387	  -6.26889	-0.00204842	   -6.2518	-0.00204337	  -6.26166	-0.00203855	  -6.26166	  -50.9638	
   -6.1999	-0.00202244	   -6.2042	-0.00204688	  -6.18731	-0.00204218	  -6.19714	-0.00203717	  -6.19714	  -50.9292	
  -6.13507	-0.00202114	  -6.13934	-0.0020452	  -6.12268	-0.00204095	  -6.13236	-0.00203576	  -6.13236	  -50.8941	
  -6.07004	-0.00201969	  -6.07421	-0.00204353	   -6.0577	-0.00203953	  -6.06732	-0.00203425	  -6.06732	  -50.8562	
  -6.00473	-0.00201809	   -6.0088	-0.00204182	  -5.99248	-0.00203817	    -6.002	-0.00203269	    -6.002	  -50.8173	
  -5.93924	-0.00201656	  -5.94325	-0.00204001	  -5.92705	-0.00203667	  -5.93652	-0.00203108	  -5.93652	  -50.7769	
  -5.87338	-0.00201491	  -5.87738	-0.00203821	   -5.8613	-0.00203504	  -5.87069	-0.00202939	  -5.87069	  -50.7347	
  -5.80732	-0.00201313	  -5.81132	-0.00203637	  -5.79541	-0.00203343	  -5.80468	-0.00202764	  -5.80468	   -50.691	
    -5.741	-0.0020114	  -5.74503	-0.00203437	  -5.72917	-0.00203169	   -5.7384	-0.00202582	   -5.7384	  -50.6456	
  -5.67438	-0.0020096	  -5.67841	-0.00203242	  -5.66268	-0.00202983	  -5.67182	-0.00202395	  -5.67182	  -50.5987	
  -5.60766	-0.00200765	   -5.6117	-0.00203038	  -5.59607	-0.00202796	  -5.60514	 -0.002022	  -5.60514	  -50.5499	
  -5.54059	-0.00200572	  -5.54463	-0.00202823	  -5.52915	-0.00202599	  -5.53812	-0.00201998	  -5.53812	  -50.4994	
  -5.47334	-0.00200379	  -5.47736	-0.00202605	  -5.46201	-0.00202391	   -5.4709	-0.00201792	   -5.4709	  -50.4479	
   -5.4059	-0.00200168	  -5.40991	-0.00202379	  -5.39467	-0.00202182	   -5.4035	-0.00201577	   -5.4035	  -50.3941	
  -5.33817	-0.00199957	  -5.34214	-0.00202142	  -5.32705	-0.00201966	  -5.33579	-0.00201355	  -5.33579	  -50.3388	
  -5.27031	-0.00199745	  -5.27428	-0.00201901	  -5.25927	-0.0020174	  -5.26795	-0.00201128	  -5.26795	  -50.2821	
  -5.20216	-0.00199524	  -5.20612	-0.00201652	  -5.19154	-0.00201511	  -5.19994	-0.00200896	  -5.19994	  -50.2239	
  -5.13382	-0.00199298	  -5.13776	-0.00201393	   -5.1235	-0.00201279	  -5.13169	-0.00200656	  -5.13169	  -50.1641	
  -5.06539	-0.00199064	  -5.06924	-0.00201128	  -5.05514	-0.00201032	  -5.06326	-0.00200408	  -5.06326	  -50.1019	
  -4.99666	-0.00198824	  -5.00043	-0.00200857	  -4.98664	-0.00200777	  -4.99458	-0.00200152	  -4.99458	  -50.0381	
  -4.92782	-0.00198579	  -4.93153	-0.00200577	  -4.91789	-0.00200522	  -4.92575	-0.00199893	  -4.92575	  -49.9731	
  -4.85871	-0.00198326	  -4.86243	-0.00200291	  -4.84895	-0.00200252	   -4.8567	-0.00199623	   -4.8567	  -49.9057	
   -4.7894	-0.00198067	  -4.79313	-0.00199996	  -4.77984	-0.00199981	  -4.78746	-0.00199348	  -4.78746	   -49.837	
  -4.71995	-0.00197803	  -4.72372	-0.00199693	  -4.71069	-0.00199706	  -4.71812	-0.00199067	  -4.71812	  -49.7668	
   -4.6502	-0.0019753	  -4.65407	-0.00199388	  -4.64128	-0.0019942	  -4.64852	-0.00198779	  -4.64852	  -49.6948	
  -4.58031	-0.00197252	  -4.58418	-0.00199082	  -4.57177	-0.00199127	  -4.57875	-0.00198487	  -4.57875	  -49.6217	
  -4.51046	-0.00196967	  -4.51406	-0.00198764	  -4.50201	-0.00198833	  -4.50884	-0.00198188	  -4.50884	   -49.547	
  -4.44032	-0.0019668	  -4.44378	-0.00198438	  -4.43207	-0.00198527	  -4.43872	-0.00197882	  -4.43872	  -49.4704	
  -4.36994	-0.00196378	   -4.3734	-0.00198112	  -4.36204	-0.00198211	  -4.36846	-0.00197567	  -4.36846	  -49.3917	
  -4.29938	-0.0019607	  -4.30274	-0.00197777	  -4.29172	 -0.001979	  -4.29795	-0.00197249	  -4.29795	  -49.3122	
  -4.22886	-0.00195761	  -4.23199	-0.00197439	  -4.22129	-0.00197579	  -4.22738	-0.00196926	  -4.22738	  -49.2315	
  -4.15819	-0.00195444	  -4.16101	-0.00197101	  -4.15064	-0.00197244	  -4.15662	-0.00196597	  -4.15662	  -49.1491	
   -4.0874	-0.00195115	  -4.08989	-0.00196755	  -4.07984	-0.00196911	  -4.08571	-0.0019626	  -4.08571	   -49.065	
  -4.01652	-0.00194784	  -4.01872	-0.00196394	  -4.00863	-0.00196575	  -4.01462	-0.00195918	  -4.01462	  -48.9794	
  -3.94543	-0.0019445	   -3.9473	-0.00196047	   -3.9376	-0.00196214	  -3.94344	-0.0019557	  -3.94344	  -48.8926	
  -3.87418	-0.00194102	  -3.87579	-0.00195684	  -3.86637	-0.00195867	  -3.87211	-0.00195218	  -3.87211	  -48.8045	
  -3.80253	-0.0019375	  -3.80408	-0.00195307	  -3.79493	-0.00195514	  -3.80051	-0.00194857	  -3.80051	  -48.7142	
  -3.73096	-0.00193392	   -3.7322	-0.00194945	  -3.72336	-0.00195138	  -3.72884	-0.00194492	  -3.72884	  -48.6229	
  -3.65911	-0.00193031	  -3.66027	-0.00194568	   -3.6517	-0.00194771	  -3.65703	-0.00194123	  -3.65703	  -48.5308	
  -3.58703	-0.00192657	  -3.58811	-0.00194181	  -3.57982	-0.00194402	  -3.58499	-0.00193747	  -3.58499	  -48.4366	
  -3.51492	-0.00192283	  -3.51593	-0.00193803	  -3.50793	-0.00194013	  -3.51292	-0.00193367	  -3.51292	  -48.3416	
  -3.44258	-0.00191905	  -3.44355	-0.00193416	  -3.43583	-0.00193628	  -3.44065	-0.00192983	  -3.44065	  -48.2457	
  -3.37012	-0.00191512	  -3.37107	-0.0019302	  -3.36363	-0.00193235	  -3.36827	-0.00192589	  -3.36827	  -48.1472	
  -3.29759	-0.00191119	  -3.29854	-0.00192629	  -3.29135	-0.00192829	  -3.29583	-0.00192192	  -3.29583	   -48.048	
  -3.22487	-0.00190719	   -3.2258	-0.00192227	  -3.21887	-0.00192421	  -3.22318	-0.00191789	  -3.22318	  -47.9472	
   -3.1521	-0.00190305	  -3.15298	-0.00191823	  -3.14635	-0.00192007	  -3.15048	-0.00191378	  -3.15048	  -47.8446	
  -3.07911	-0.00189889	  -3.07995	-0.00191411	   -3.0736	-0.00191583	  -3.07755	-0.00190961	  -3.07755	  -47.7402	
  -3.00606	-0.00189467	  -3.00686	-0.00190994	  -3.00074	-0.00191151	  -3.00455	-0.00190537	  -3.00455	  -47.6344	
  -2.93294	-0.00189031	  -2.93359	-0.00190574	  -2.92773	-0.00190717	  -2.93142	-0.00190107	  -2.93142	  -47.5268	
  -2.85964	-0.00188593	  -2.86014	-0.00190143	  -2.85456	-0.00190272	  -2.85811	-0.00189669	  -2.85811	  -47.4173	
  -2.78637	-0.00188144	  -2.78668	-0.00189707	  -2.78127	-0.00189816	  -2.78477	-0.00189222	  -2.78477	  -47.3056	
  -2.71288	-0.00187683	    -2.713	-0.00189267	  -2.70775	-0.00189357	  -2.71121	-0.00188769	  -2.71121	  -47.1922	
  -2.63935	-0.00187223	  -2.63931	-0.00188815	   -2.6342	-0.00188895	  -2.63762	-0.00188311	  -2.63762	  -47.0777	
  -2.56572	-0.00186746	  -2.56553	-0.00188357	  -2.56051	-0.00188414	  -2.56392	-0.00187839	  -2.56392	  -46.9598	
  -2.49196	-0.00186262	  -2.49164	 -0.001879	   -2.4867	-0.0018793	   -2.4901	-0.00187364	   -2.4901	  -46.8409	
  -2.41812	-0.00185779	  -2.41766	-0.00187426	  -2.41285	-0.00187444	  -2.41621	-0.00186883	  -2.41621	  -46.7207	
  -2.34409	-0.00185278	  -2.34349	-0.0018695	  -2.33895	-0.00186943	  -2.34218	-0.0018639	  -2.34218	  -46.5975	
  -2.27004	-0.00184772	  -2.26938	-0.00186475	  -2.26514	-0.00186441	  -2.26818	-0.00185896	  -2.26818	   -46.474	
  -2.19573	-0.00184268	  -2.19506	-0.00185978	  -2.19121	-0.00185937	    -2.194	-0.00185394	    -2.194	  -46.3486	
  -2.12137	-0.00183752	  -2.12069	-0.00185473	  -2.11711	-0.00185413	  -2.11972	-0.00184879	  -2.11972	  -46.2198	
  -2.04692	-0.00183231	  -2.04629	-0.00184977	  -2.04307	-0.00184884	  -2.04543	-0.00184364	  -2.04543	   -46.091	
  -1.97244	-0.00182706	  -1.97176	-0.00184472	  -1.96889	-0.00184361	  -1.97103	-0.00183847	  -1.97103	  -45.9617	
  -1.89779	-0.00182174	  -1.89729	-0.00183957	  -1.89453	-0.00183829	  -1.89654	-0.0018332	  -1.89654	    -45.83	
  -1.82293	-0.00181639	  -1.82256	-0.00183446	  -1.82007	-0.00183281	  -1.82185	-0.00182789	  -1.82185	  -45.6972	
    -1.748	-0.00181093	  -1.74783	-0.00182928	  -1.74557	-0.00182738	  -1.74713	-0.00182253	  -1.74713	  -45.5633	
