# User: ACHyster
# File name: C:/ACHYSTER/ACHyster SENS/SHAMS/CoFe2O4-1gl-water-45 Glycerol-Sens-07-03-2023/CoFe2O4-1gl-water-45 Glycerol- 10_100F- 24 kAm -Sens-07-03-20230006#1.txt
# Saved at: ma. mar. 7 17:16:31 2023
# Hyster Loop (3 iterations). Intensity: 24.0 kA/m; Tuned frequency: 79.9 kHz
# Units x axis: (kA/m)
# Units y axis: "Repeats y" & "Average y" (10^(-3)Am^2); "Mass avg y" (Am^2/kg)
# Magnetic mass: 4e-05 g
# Parameter      	Repeat   1	Repeat   2	Repeat   3	Average   	Sigma     
# H_C (kA/m)     	      19.8	      20.4	      20.1	      20.1	       0.2
# M_R (Am^2/kg)  	      20.5	      21.1	      20.2	      20.6	       0.4
# M_max (Am^2/kg)	      12.9	      12.2	      12.0	      12.3	       0.4
# Area (mJ/kg)   	    1859.2	    1916.8	    1821.2	    1865.7	      39.3
# SAR (W/g)      	     148.6	     153.2	     145.6	     149.1	       3.1
#Repeat 1 x	Repeat 1 y	Repeat 2 x	Repeat 2 y	Repeat 3 x	Repeat 3 y	Average x 	Average y 	Mass avg x 	Mass avg y 
  -3.66849	-0.000877152	  -3.63033	-0.000890455	  -3.53944	-0.000850765	  -3.61275	-0.00087279	  -3.61275	  -21.8198	
  -3.51743	-0.00087511	  -3.48311	-0.000889277	  -3.39384	-0.000849147	  -3.46479	-0.000871178	  -3.46479	  -21.7794	
  -3.36768	-0.000872818	  -3.33663	-0.000887993	  -3.24748	-0.000847526	  -3.31726	-0.000869446	  -3.31726	  -21.7361	
  -3.21861	-0.000870308	  -3.18922	-0.000886584	  -3.10146	-0.000845911	  -3.16976	-0.000867601	  -3.16976	    -21.69	
  -3.06856	-0.000867703	  -3.04144	-0.000885045	  -2.95518	-0.000844348	  -3.02172	-0.000865699	  -3.02172	  -21.6425	
  -2.91863	-0.000865136	   -2.8933	-0.000883396	  -2.80809	-0.000842833	  -2.87334	-0.000863788	  -2.87334	  -21.5947	
  -2.77023	-0.000862649	  -2.74479	-0.000881682	  -2.66076	-0.000841336	  -2.72526	-0.000861889	  -2.72526	  -21.5472	
  -2.62071	-0.00086033	  -2.59593	-0.00087993	  -2.51318	-0.000839802	  -2.57661	-0.000860021	  -2.57661	  -21.5005	
  -2.47225	-0.000858208	  -2.44722	-0.000878169	  -2.36586	-0.000838209	  -2.42844	-0.000858195	  -2.42844	  -21.4549	
  -2.32367	-0.000856246	  -2.29864	-0.00087644	  -2.21874	-0.000836538	  -2.28035	-0.000856408	  -2.28035	  -21.4102	
  -2.17443	-0.000854364	  -2.14962	-0.000874738	  -2.07125	-0.000834775	  -2.13177	-0.000854626	  -2.13177	  -21.3656	
   -2.0251	-0.000852473	  -2.00121	-0.000873054	  -1.92339	-0.00083291	  -1.98323	-0.000852813	  -1.98323	  -21.3203	
  -1.87564	-0.000850468	  -1.85334	-0.000871367	  -1.77568	-0.000830998	  -1.83489	-0.000850944	  -1.83489	  -21.2736	
  -1.72604	-0.000848277	  -1.70593	-0.000869643	  -1.62808	-0.000829072	  -1.68668	-0.000848997	  -1.68668	  -21.2249	
  -1.57602	-0.00084583	  -1.55852	-0.000867854	  -1.48107	-0.000827156	  -1.53854	-0.000846947	  -1.53854	  -21.1737	
  -1.42534	-0.000843136	  -1.41095	-0.000865965	  -1.33352	-0.000825275	  -1.38994	-0.000844792	  -1.38994	  -21.1198	
  -1.27508	-0.000840235	  -1.26268	-0.000863967	  -1.18597	-0.000823442	  -1.24124	-0.000842548	  -1.24124	  -21.0637	
  -1.12413	-0.000837202	  -1.11425	-0.000861839	  -1.03839	-0.00082164	  -1.09226	-0.000840227	  -1.09226	  -21.0057	
 -0.973045	-0.000834137	  -0.96618	-0.000859593	  -0.89127	-0.000819837	 -0.943498	-0.000837856	 -0.943498	  -20.9464	
 -0.822349	-0.000831131	 -0.817879	-0.000857294	 -0.744017	-0.000817994	 -0.794748	-0.000835473	 -0.794748	  -20.8868	
 -0.671464	-0.000828252	 -0.669341	-0.000854942	 -0.596611	-0.000816074	 -0.645806	-0.000833089	 -0.645806	  -20.8272	
  -0.52091	-0.000825543	 -0.520029	-0.000852598	 -0.449558	-0.000814045	 -0.496832	-0.000830729	 -0.496832	  -20.7682	
 -0.370898	-0.000822983	 -0.370505	-0.000850298	 -0.302267	-0.000811883	  -0.34789	-0.000828388	  -0.34789	  -20.7097	
 -0.220575	-0.000820505	 -0.220763	-0.00084805	 -0.155248	-0.000809592	 -0.198862	-0.000826049	 -0.198862	  -20.6512	
-0.0704694	-0.000818065	-0.0713227	-0.000845865	-0.00792523	-0.000807196	-0.0499058	-0.000823709	-0.0499058	  -20.5927	
 0.0799884	-0.000815567	 0.0783949	-0.000843713	  0.140232	-0.000804729	 0.0995384	-0.000821336	 0.0995384	  -20.5334	
  0.229742	-0.000812884	  0.228913	-0.000841557	  0.288141	-0.000802222	  0.248932	-0.000818888	  0.248932	  -20.4722	
  0.379395	-0.000810028	  0.379139	-0.000839359	  0.435849	-0.00079972	  0.398128	-0.000816369	  0.398128	  -20.4092	
  0.528982	-0.000806944	  0.529647	-0.000837053	  0.583405	-0.000797256	  0.547344	-0.000813751	  0.547344	  -20.3438	
  0.679055	-0.000803638	  0.679911	-0.000834616	  0.731376	-0.000794839	   0.69678	-0.000811031	   0.69678	  -20.2758	
  0.828945	-0.000800182	  0.830625	-0.000832027	  0.879495	-0.000792457	  0.846355	-0.000808222	  0.846355	  -20.2055	
  0.979348	-0.000796677	  0.981121	-0.000829286	   1.02805	-0.000790088	  0.996172	-0.00080535	  0.996172	  -20.1338	
   1.12972	-0.000793197	   1.13196	-0.000826443	   1.17545	-0.000787683	   1.14571	-0.000802441	   1.14571	   -20.061	
   1.28008	-0.00078977	   1.28261	-0.000823539	    1.3234	-0.000785231	   1.29536	-0.000799513	   1.29536	  -19.9878	
   1.43046	-0.000786447	   1.43259	-0.00082063	   1.47189	-0.000782686	   1.44498	-0.000796588	   1.44498	  -19.9147	
   1.57982	-0.000783262	   1.58301	-0.000817766	   1.61985	-0.000780011	   1.59423	-0.00079368	   1.59423	   -19.842	
   1.72933	-0.000780143	   1.73335	-0.000814962	   1.76787	-0.000777227	   1.74352	-0.000790777	   1.74352	  -19.7694	
   1.87794	-0.000777047	   1.88416	-0.000812228	   1.91612	-0.000774317	   1.89274	-0.000787864	   1.89274	  -19.6966	
   2.02577	-0.000773932	    2.0349	-0.000809531	     2.065	-0.000771296	   2.04189	-0.00078492	   2.04189	   -19.623	
   2.17343	-0.000770739	   2.18507	-0.000806824	   2.21395	-0.000768198	   2.19082	-0.00078192	   2.19082	   -19.548	
   2.32096	-0.000767426	   2.33474	-0.000804063	   2.36301	-0.000765046	   2.33957	-0.000778845	   2.33957	  -19.4711	
   2.46893	-0.000763942	   2.48397	-0.000801194	   2.51166	-0.000761882	   2.48819	-0.000775672	   2.48819	  -19.3918	
   2.61577	-0.000760315	   2.63283	-0.000798188	   2.65997	-0.000758715	   2.63619	-0.000772406	   2.63619	  -19.3102	
   2.76264	-0.000756604	   2.78137	-0.000795032	   2.80852	-0.000755563	   2.78418	-0.000769067	   2.78418	  -19.2267	
   2.90958	-0.000752833	   2.92965	-0.000791737	   2.95731	-0.000752447	   2.93218	-0.000765672	   2.93218	  -19.1418	
   3.05662	-0.000749055	   3.07811	-0.000788346	   3.10623	-0.000749336	   3.08032	-0.000762245	   3.08032	  -19.0561	
   3.20378	-0.000745319	    3.2269	-0.000784906	   3.25438	-0.000746213	   3.22835	-0.000758813	   3.22835	  -18.9703	
   3.35004	-0.000741649	   3.37496	-0.000781473	   3.40289	-0.000743053	   3.37596	-0.000755392	   3.37596	  -18.8848	
   3.49656	-0.000738056	   3.52292	-0.00077809	   3.55176	-0.00073982	   3.52375	-0.000751989	   3.52375	  -18.7997	
   3.64282	-0.000734497	   3.67081	-0.000774766	   3.69995	-0.000736488	   3.67119	-0.000748583	   3.67119	  -18.7146	
   3.78888	-0.000730946	   3.81814	-0.000771496	   3.84806	-0.000733036	   3.81836	-0.000745159	   3.81836	   -18.629	
   3.93428	-0.000727354	   3.96499	-0.000768255	    3.9956	-0.000729473	   3.96496	-0.000741694	   3.96496	  -18.5423	
   4.07962	-0.000723651	   4.11196	-0.000764986	   4.14318	-0.000725813	   4.11159	-0.00073815	   4.11159	  -18.4537	
   4.22521	-0.000719814	    4.2592	-0.00076164	   4.29016	-0.000722076	   4.25819	-0.00073451	   4.25819	  -18.3627	
   4.37082	-0.000715818	    4.4066	-0.000758166	   4.43677	-0.000718298	   4.40473	-0.00073076	   4.40473	   -18.269	
   4.51699	-0.000711661	   4.55364	-0.000754526	   4.58359	-0.000714503	   4.55141	-0.000726897	   4.55141	  -18.1724	
    4.6632	-0.000707383	    4.7004	-0.000750737	   4.73064	-0.00071071	   4.69808	-0.000722943	   4.69808	  -18.0736	
   4.80895	-0.00070302	   4.84745	-0.000746808	   4.87845	-0.000706924	   4.84495	-0.000718918	   4.84495	  -17.9729	
   4.95485	-0.000698651	   4.99479	-0.000742781	   5.02596	-0.000703133	   4.99187	-0.000714855	   4.99187	  -17.8714	
   5.10039	-0.000694325	   5.14193	-0.00073871	    5.1732	-0.000699316	   5.13851	-0.000710784	   5.13851	  -17.7696	
   5.24617	-0.000690058	    5.2889	-0.000734635	   5.31972	-0.000695454	   5.28493	-0.000706716	   5.28493	  -17.6679	
    5.3926	-0.000685868	   5.43614	-0.000730585	   5.46653	-0.000691526	   5.43176	-0.00070266	   5.43176	  -17.5665	
   5.53822	-0.000681737	   5.58276	-0.000726576	   5.61376	-0.000687525	   5.57825	-0.000698613	   5.57825	  -17.4653	
   5.68366	-0.000677618	   5.72988	-0.000722585	    5.7609	-0.000683449	   5.72481	-0.00069455	   5.72481	  -17.3638	
   5.82897	-0.00067347	   5.87698	-0.000718599	   5.90798	-0.000679308	   5.87131	-0.000690459	   5.87131	  -17.2615	
    5.9742	-0.000669234	   6.02356	-0.000714581	   6.05452	-0.000675113	   6.01743	-0.000686309	   6.01743	  -17.1577	
    6.1194	-0.000664886	    6.1697	-0.000710496	   6.20008	-0.000670889	   6.16306	-0.00068209	   6.16306	  -17.0523	
    6.2646	-0.000660416	     6.316	-0.00070632	   6.34633	-0.000666645	   6.30898	-0.000677794	   6.30898	  -16.9448	
   6.40933	-0.000655833	   6.46143	-0.000702033	   6.49169	-0.000662393	   6.45415	-0.00067342	   6.45415	  -16.8355	
   6.55406	-0.000651173	   6.60649	-0.000697639	   6.63628	-0.000658127	   6.59894	-0.00066898	   6.59894	  -16.7245	
   6.69843	-0.000646466	   6.75087	-0.000693148	   6.78125	-0.000653835	   6.74351	-0.000664483	   6.74351	  -16.6121	
   6.84252	-0.000641766	   6.89518	-0.000688583	   6.92607	-0.00064952	   6.88792	-0.000659956	   6.88792	  -16.4989	
   6.98639	-0.000637082	   7.03946	-0.000683981	   7.07028	-0.000645161	   7.03205	-0.000655408	   7.03205	  -16.3852	
    7.1301	-0.000632446	   7.18378	-0.000679358	   7.21398	-0.000640742	   7.17595	-0.000650849	   7.17595	  -16.2712	
   7.27319	-0.000627862	   7.32763	-0.000674739	   7.35777	-0.000636267	   7.31953	-0.000646289	   7.31953	  -16.1572	
   7.41576	-0.000623282	   7.47058	-0.000670136	   7.50116	-0.000631727	    7.4625	-0.000641715	    7.4625	  -16.0429	
   7.55842	-0.000618704	   7.61276	-0.000665537	   7.64423	-0.000627128	   7.60514	-0.000637123	   7.60514	  -15.9281	
   7.70055	-0.000614097	   7.75492	-0.000660929	    7.7868	-0.000622486	   7.74742	-0.000632504	   7.74742	  -15.8126	
   7.84238	-0.000609422	   7.89594	-0.00065628	   7.92921	-0.000617798	   7.88918	-0.000627833	   7.88918	  -15.6958	
   7.98399	-0.00060468	   8.03701	-0.000651564	   8.07205	-0.000613095	   8.03102	-0.000623113	   8.03102	  -15.5778	
   8.12492	-0.000599852	   8.17766	-0.000646766	   8.21428	-0.000608384	   8.17229	-0.000618334	   8.17229	  -15.4583	
   8.26528	-0.000594962	   8.31851	-0.000641869	   8.35653	-0.000603667	   8.31344	-0.000613499	   8.31344	  -15.3375	
    8.4057	-0.000590021	   8.45853	-0.000636879	   8.49833	-0.00059895	   8.45419	-0.000608617	   8.45419	  -15.2154	
    8.5457	-0.00058503	   8.59787	-0.00063181	   8.63975	-0.000594215	   8.59444	-0.000603685	   8.59444	  -15.0921	
   8.68564	-0.000580034	   8.73689	-0.000626684	   8.78141	-0.000589447	   8.73464	-0.000598721	   8.73464	   -14.968	
   8.82531	-0.000575023	   8.87489	-0.000621533	   8.92176	-0.00058463	   8.87399	-0.000593729	   8.87399	  -14.8432	
   8.96427	-0.000570008	   9.01306	-0.000616376	   9.06202	-0.000579748	   9.01312	-0.000588711	   9.01312	  -14.7178	
   9.10317	-0.000564995	   9.15042	-0.000611228	    9.2012	-0.000574803	    9.1516	-0.000583675	    9.1516	  -14.5919	
   9.24207	-0.000559961	   9.28762	-0.000606091	   9.34102	-0.000569792	   9.29023	-0.000578614	   9.29023	  -14.4654	
   9.37997	-0.00055491	   9.42525	-0.000600953	   9.48044	-0.000564728	   9.42855	-0.00057353	   9.42855	  -14.3383	
   9.51756	-0.000549831	   9.56177	-0.0005958	   9.61903	-0.000559632	   9.56612	-0.000568421	   9.56612	  -14.2105	
   9.65492	-0.000544703	    9.6984	-0.000590607	   9.75691	-0.000554513	   9.70341	-0.000563274	   9.70341	  -14.0819	
   9.79188	-0.000539551	   9.83441	-0.000585352	   9.89473	-0.000549392	   9.84034	-0.000558099	   9.84034	  -13.9525	
   9.92826	-0.000534354	   9.97017	-0.000580025	   10.0315	-0.000544272	   9.97665	-0.000552884	   9.97665	  -13.8221	
   10.0647	-0.000529109	   10.1053	-0.000574618	   10.1679	-0.000539155	   10.1126	-0.000547627	   10.1126	  -13.6907	
   10.2008	-0.000523827	   10.2403	-0.000569143	   10.3041	-0.000534033	   10.2484	-0.000542334	   10.2484	  -13.5584	
    10.336	-0.000518494	   10.3749	-0.000563616	   10.4396	-0.000528889	   10.3835	 -0.000537	   10.3835	   -13.425	
   10.4711	-0.000513122	   10.5097	-0.000558057	    10.575	-0.000523707	   10.5186	-0.000531629	   10.5186	  -13.2907	
   10.6057	-0.000507719	   10.6442	-0.000552487	   10.7094	-0.000518474	   10.6531	-0.000526226	   10.6531	  -13.1557	
   10.7392	-0.000502278	   10.7785	-0.000546924	   10.8429	-0.000513175	   10.7869	-0.000520792	   10.7869	  -13.0198	
   10.8722	-0.000496821	   10.9118	-0.000541373	   10.9763	-0.000507813	   10.9201	-0.000515336	   10.9201	  -12.8834	
   11.0049	-0.000491345	   11.0447	-0.000535831	   11.1085	-0.000502392	   11.0527	-0.000509856	   11.0527	  -12.7464	
   11.1371	-0.000485863	   11.1778	-0.000530286	   11.2398	-0.000496926	   11.1849	-0.000504358	   11.1849	   -12.609	
   11.2694	-0.000480374	   11.3106	-0.000524717	   11.3708	-0.000491436	   11.3169	-0.000498842	   11.3169	  -12.4711	
   11.4007	-0.000474865	   11.4437	-0.000519113	   11.5011	-0.000485937	   11.4485	-0.000493305	   11.4485	  -12.3326	
   11.5312	-0.000469339	   11.5762	-0.000513448	   11.6308	-0.000480446	   11.5794	-0.000487744	   11.5794	  -12.1936	
   11.6617	-0.000463785	   11.7076	-0.000507715	   11.7597	-0.000474966	   11.7096	-0.000482156	   11.7096	  -12.0539	
   11.7916	-0.000458189	   11.8386	-0.000501921	   11.8883	-0.0004695	   11.8395	-0.000476537	   11.8395	  -11.9134	
   11.9209	-0.000452555	   11.9695	-0.00049608	   12.0159	-0.000464044	   11.9688	-0.000470893	   11.9688	  -11.7723	
    12.049	-0.00044687	   12.1007	-0.000490208	   12.1426	-0.000458562	   12.0974	-0.000465213	   12.0974	  -11.6303	
    12.177	-0.000441143	   12.2313	-0.000484323	    12.269	-0.000453027	   12.2258	-0.000459498	   12.2258	  -11.4874	
    12.305	-0.00043538	   12.3615	-0.000478441	   12.3952	-0.000447455	   12.3539	-0.000453759	   12.3539	   -11.344	
   12.4327	-0.000429583	   12.4908	-0.00047257	   12.5209	-0.000441805	   12.4814	-0.000447986	   12.4814	  -11.1996	
   12.5596	-0.00042376	   12.6194	-0.00046671	   12.6456	-0.000436083	   12.6082	-0.000442185	   12.6082	  -11.0546	
   12.6865	-0.000417913	   12.7474	-0.000460854	   12.7695	-0.000430326	   12.7345	-0.000436364	   12.7345	  -10.9091	
   12.8128	-0.000412043	   12.8746	-0.000454986	   12.8934	-0.000424553	   12.8603	-0.000430527	   12.8603	  -10.7632	
   12.9382	-0.000406158	   13.0011	-0.00044909	   13.0169	-0.000418799	   12.9854	-0.000424682	   12.9854	  -10.6171	
   13.0639	-0.000400249	    13.127	-0.00044315	   13.1401	-0.000413089	   13.1103	-0.000418829	   13.1103	  -10.4707	
   13.1895	-0.000394317	   13.2525	-0.000437156	   13.2626	-0.000407431	   13.2348	-0.000412968	   13.2348	  -10.3242	
   13.3151	-0.000388356	   13.3776	-0.000431092	    13.384	-0.000401827	   13.3589	-0.000407092	   13.3589	  -10.1773	
   13.4404	-0.000382364	   13.5031	-0.000424944	   13.5051	-0.000396225	   13.4829	-0.000401178	   13.4829	  -10.0294	
   13.5648	-0.000376343	   13.6275	-0.000418733	    13.626	-0.000390584	   13.6061	-0.00039522	   13.6061	  -9.88049	
   13.6887	-0.000370289	   13.7504	-0.000412494	   13.7458	-0.000384869	   13.7283	-0.000389217	   13.7283	  -9.73043	
   13.8116	-0.000364201	    13.872	-0.000406266	   13.8652	-0.000379041	   13.8496	-0.000383169	   13.8496	  -9.57924	
    13.934	-0.000358085	    13.993	-0.000400088	   13.9842	-0.000373098	   13.9704	-0.00037709	   13.9704	  -9.42726	
   14.0562	-0.000351939	    14.113	-0.000393993	   14.1025	-0.000367057	   14.0906	-0.000370996	   14.0906	  -9.27491	
    14.178	-0.000345772	   14.2325	-0.000387983	     14.22	-0.000360953	   14.2102	-0.000364903	   14.2102	  -9.12257	
   14.2994	-0.000339585	    14.352	-0.000382035	   14.3384	-0.000354844	   14.3299	-0.000358821	   14.3299	  -8.97053	
   14.4202	-0.00033338	   14.4706	-0.000376113	    14.455	-0.000348766	   14.4486	-0.000352753	   14.4486	  -8.81882	
   14.5409	-0.000327158	   14.5891	-0.00037016	   14.5707	-0.000342764	   14.5669	-0.000346694	   14.5669	  -8.66736	
   14.6606	-0.000320921	   14.7071	-0.000364197	   14.6868	-0.000336863	   14.6848	-0.00034066	   14.6848	  -8.51651	
   14.7797	-0.000314667	   14.8246	-0.000358191	   14.8027	-0.000331047	   14.8023	-0.000334635	   14.8023	  -8.36588	
   14.8981	-0.000308399	   14.9419	-0.000352043	   14.9182	-0.000325291	   14.9194	-0.000328578	   14.9194	  -8.21444	
   15.0157	-0.000302113	   15.0581	-0.000345826	   15.0334	-0.000319548	   15.0357	-0.000322495	   15.0357	  -8.06238	
   15.1331	-0.00029581	    15.174	-0.000339518	    15.148	-0.000313765	   15.1517	-0.000316364	   15.1517	  -7.90911	
     15.25	-0.000289491	   15.2897	-0.000333102	   15.2627	-0.0003079	   15.2675	-0.000310164	   15.2675	  -7.75411	
   15.3659	-0.000283156	   15.4048	-0.000326641	   15.3761	-0.000301918	   15.3823	-0.000303905	   15.3823	  -7.59763	
   15.4812	-0.000276805	   15.5191	-0.000320118	   15.4889	-0.000295818	   15.4964	-0.00029758	   15.4964	  -7.43951	
    15.596	-0.000270438	   15.6327	-0.000313575	   15.6008	-0.000289623	   15.6098	-0.000291212	   15.6098	   -7.2803	
   15.7097	-0.000264058	   15.7451	-0.000307056	   15.7121	-0.000283368	   15.7223	-0.000284827	   15.7223	  -7.12068	
   15.8228	-0.000257668	   15.8567	-0.000300552	   15.8225	-0.000277108	    15.834	-0.000278443	    15.834	  -6.96107	
    15.935	-0.00025127	   15.9678	-0.00029415	   15.9326	-0.000270886	   15.9451	-0.000272102	   15.9451	  -6.80255	
    16.047	-0.000244864	   16.0781	-0.000287855	   16.0411	-0.000264736	   16.0554	-0.000265818	   16.0554	  -6.64546	
   16.1574	-0.000238449	   16.1877	-0.000281661	   16.1488	-0.000258674	   16.1646	-0.000259595	   16.1646	  -6.48987	
    16.267	-0.00023203	   16.2969	-0.000275568	   16.2559	-0.000252687	   16.2732	-0.000253429	   16.2732	  -6.33571	
   16.3761	-0.000225612	   16.4053	-0.0002695	   16.3621	-0.000246745	   16.3812	-0.000247286	   16.3812	  -6.18214	
   16.4843	-0.000219193	   16.5127	-0.000263419	   16.4676	-0.000240805	   16.4882	-0.000241139	   16.4882	  -6.02848	
   16.5921	-0.000212776	   16.6192	-0.000257283	    16.573	-0.000234823	   16.5948	-0.000234961	   16.5948	  -5.87402	
   16.6995	-0.000206361	   16.7256	-0.000251029	   16.6782	-0.000228769	   16.7011	-0.000228719	   16.7011	  -5.71799	
   16.8061	-0.000199947	   16.8311	-0.000244654	   16.7833	-0.000222622	   16.8069	-0.000222408	   16.8069	  -5.56019	
   16.9117	-0.000193533	   16.9365	-0.000238152	    16.888	-0.000216386	   16.9121	-0.000216024	   16.9121	  -5.40059	
    17.017	-0.000187116	   17.0414	-0.000231562	   16.9921	-0.000210084	   17.0168	-0.000209587	   17.0168	  -5.23968	
   17.1217	-0.000180693	    17.145	-0.000224944	   17.0951	-0.000203752	   17.1206	-0.00020313	   17.1206	  -5.07824	
    17.226	-0.000174264	   17.2481	-0.000218335	   17.1984	-0.000197436	   17.2242	-0.000196678	   17.2242	  -4.91696	
    17.329	-0.000167827	   17.3504	-0.000211795	   17.3006	-0.000191169	   17.3267	-0.000190264	   17.3267	  -4.75659	
   17.4317	-0.000161385	   17.4521	-0.000205355	   17.4018	-0.000184972	   17.4285	-0.000183904	   17.4285	   -4.5976	
   17.5336	-0.000154938	    17.553	-0.00019902	   17.5023	-0.00017885	   17.5296	-0.000177602	   17.5296	  -4.44006	
   17.6351	-0.000148486	   17.6528	-0.000192788	   17.6031	-0.000172782	   17.6303	-0.000171352	   17.6303	   -4.2838	
   17.7357	-0.000142034	   17.7512	-0.000186612	   17.7037	-0.000166742	   17.7302	-0.000165129	   17.7302	  -4.12824	
   17.8348	-0.000135587	    17.849	-0.000180454	   17.8028	-0.000160691	   17.8289	-0.000158911	   17.8289	  -3.97276	
   17.9337	-0.000129148	   17.9466	-0.000174265	   17.9007	-0.000154594	    17.927	-0.000152669	    17.927	  -3.81673	
   18.0315	-0.000122718	   18.0447	-0.000167997	   17.9977	-0.000148429	   18.0246	-0.000146381	   18.0246	  -3.65953	
   18.1286	-0.000116297	   18.1418	-0.000161637	   18.0945	-0.000142185	   18.1216	-0.00014004	   18.1216	    -3.501	
   18.2254	-0.000109882	    18.238	-0.000155185	   18.1904	-0.000135878	    18.218	-0.000133648	    18.218	  -3.34121	
   18.3219	-0.00010347	   18.3339	-0.000148665	   18.2857	-0.000129532	   18.3138	-0.000127222	   18.3138	  -3.18056	
   18.4174	-9.70588e-05	   18.4286	-0.000142133	     18.38	-0.000123179	   18.4086	-0.000120791	   18.4086	  -3.01976	
   18.5115	-9.06418e-05	   18.5223	-0.000135602	   18.4736	-0.000116858	   18.5025	-0.000114367	   18.5025	  -2.85919	
   18.6057	-8.42158e-05	   18.6154	-0.000129118	   18.5674	-0.000110592	   18.5962	-0.000107975	   18.5962	  -2.69938	
    18.699	-7.77804e-05	   18.7082	-0.000122734	   18.6605	-0.000104393	   18.6892	-0.000101636	   18.6892	   -2.5409	
   18.7913	-7.13348e-05	   18.8003	-0.000116416	   18.7527	-9.82554e-05	   18.7814	-9.53355e-05	   18.7814	  -2.38339	
   18.8831	-6.48834e-05	   18.8917	-0.000110178	    18.844	-9.21559e-05	   18.8729	-8.90725e-05	   18.8729	  -2.22681	
   18.9744	-5.84295e-05	   18.9826	-0.000104003	    18.935	-8.60686e-05	    18.964	-8.28338e-05	    18.964	  -2.07085	
   19.0644	-5.19783e-05	    19.072	-9.78541e-05	   19.0258	-7.99628e-05	   19.0541	-7.65984e-05	   19.0541	  -1.91496	
    19.154	-4.55338e-05	   19.1609	-9.17068e-05	   19.1152	-7.38157e-05	   19.1434	-7.03521e-05	   19.1434	   -1.7588	
   19.2424	-3.91033e-05	    19.249	-8.55294e-05	    19.204	-6.76211e-05	   19.2318	-6.40846e-05	   19.2318	  -1.60211	
   19.3304	-3.26843e-05	   19.3367	-7.93099e-05	   19.2919	-6.13769e-05	   19.3197	-5.77904e-05	   19.3197	  -1.44476	
   19.4178	-2.62818e-05	   19.4246	-7.30373e-05	   19.3793	-5.51001e-05	   19.4072	-5.14731e-05	   19.4072	  -1.28683	
   19.5038	-1.98858e-05	   19.5125	-6.66883e-05	   19.4653	-4.88101e-05	   19.4939	-4.51281e-05	   19.4939	   -1.1282	
   19.5891	-1.34957e-05	   19.5997	-6.02863e-05	   19.5507	-4.25311e-05	   19.5798	-3.87711e-05	   19.5798	 -0.969276	
   19.6741	-7.11129e-06	   19.6858	-5.38461e-05	   19.6353	-3.62863e-05	   19.6651	-3.24145e-05	   19.6651	 -0.810363	
   19.7586	-7.32433e-07	   19.7712	-4.73882e-05	   19.7191	-3.00861e-05	   19.7496	-2.60689e-05	   19.7496	 -0.651723	
   19.8424	5.64603e-06	   19.8556	-4.09544e-05	   19.8028	-2.39338e-05	   19.8336	-1.97474e-05	   19.8336	 -0.493685	
   19.9253	1.20269e-05	   19.9399	-3.45633e-05	   19.8862	-1.78235e-05	   19.9171	-1.34533e-05	   19.9171	 -0.336333	
   20.0081	1.84096e-05	   20.0233	-2.82339e-05	   19.9684	-1.17356e-05	   19.9999	-7.18666e-06	   19.9999	 -0.179666	
   20.0899	2.47859e-05	   20.1061	-2.19744e-05	   20.0504	-5.65518e-06	   20.0822	-9.47887e-07	   20.0822	-0.0236972	
   20.1707	3.1154e-05	    20.187	-1.57699e-05	   20.1319	4.39885e-07	   20.1632	5.27469e-06	   20.1632	  0.131867	
   20.2509	3.75112e-05	   20.2671	-9.60574e-06	   20.2124	6.56062e-06	   20.2435	1.14887e-05	   20.2435	  0.287218	
   20.3306	4.38575e-05	   20.3466	-3.44744e-06	    20.292	1.27116e-05	   20.3231	1.77072e-05	   20.3231	   0.44268	
   20.4097	5.01812e-05	   20.4253	2.7359e-06	     20.37	1.88906e-05	   20.4017	2.39359e-05	   20.4017	  0.598398	
   20.4874	5.64789e-05	   20.5039	8.96372e-06	   20.4473	2.50839e-05	   20.4795	3.01755e-05	   20.4795	  0.754388	
   20.5645	6.27418e-05	   20.5813	1.52539e-05	   20.5241	3.12748e-05	   20.5567	3.64235e-05	   20.5567	  0.910587	
   20.6405	6.89576e-05	   20.6573	2.16028e-05	   20.5999	3.7444e-05	   20.6325	4.26682e-05	   20.6325	    1.0667	
   20.7161	7.51188e-05	   20.7321	2.79924e-05	   20.6753	4.35727e-05	   20.7078	4.88946e-05	   20.7078	   1.22237	
   20.7905	8.12428e-05	   20.8058	3.43995e-05	   20.7498	4.96567e-05	   20.7821	5.50996e-05	   20.7821	   1.37749	
   20.8641	8.73544e-05	   20.8783	4.07867e-05	   20.8234	5.56927e-05	   20.8553	6.12779e-05	   20.8553	   1.53195	
   20.9356	9.34825e-05	   20.9499	4.71232e-05	   20.8961	6.16876e-05	   20.9272	6.74311e-05	   20.9272	   1.68578	
   21.0052	9.96593e-05	   21.0214	5.33857e-05	   20.9679	6.76548e-05	   20.9981	7.35666e-05	   20.9981	   1.83917	
   21.0726	0.000105903	   21.0925	5.95653e-05	    21.039	7.36101e-05	    21.068	7.96927e-05	    21.068	   1.99232	
   21.1379	 0.0001122	    21.162	6.56676e-05	   21.1093	7.95719e-05	   21.1364	8.58131e-05	   21.1364	   2.14533	
   21.2032	0.000118525	   21.2309	7.17163e-05	   21.1787	8.55513e-05	   21.2042	9.19307e-05	   21.2042	   2.29827	
   21.2665	0.000124843	   21.2989	7.77342e-05	   21.2474	9.15505e-05	    21.271	9.80425e-05	    21.271	   2.45106	
   21.3301	0.000131116	    21.366	8.37583e-05	   21.3153	9.75679e-05	   21.3371	0.000104147	   21.3371	   2.60368	
   21.3948	0.000137343	   21.4318	8.98342e-05	   21.3822	0.000103585	   21.4029	0.000110254	   21.4029	   2.75635	
   21.4592	0.000143472	   21.4964	9.59644e-05	    21.448	0.000109587	   21.4679	0.000116341	   21.4679	   2.90853	
   21.5231	0.00014948	   21.5596	0.000102155	   21.5125	0.000115557	   21.5317	0.000122397	   21.5317	   3.05993	
   21.5877	0.000155387	   21.6224	0.000108383	   21.5762	0.000121485	   21.5955	0.000128419	   21.5955	   3.21046	
   21.6524	0.000161204	   21.6841	0.000114622	   21.6385	0.000127365	   21.6583	0.000134397	   21.6583	   3.35992	
    21.717	0.000166961	   21.7451	0.000120849	   21.6997	0.000133197	   21.7206	0.000140336	   21.7206	    3.5084	
   21.7816	0.000172706	   21.8053	0.000127031	   21.7598	0.000138994	   21.7822	0.000146244	   21.7822	   3.65609	
   21.8446	0.000178445	   21.8639	0.000133137	   21.8191	0.00014477	   21.8425	0.000152117	   21.8425	   3.80294	
   21.9072	0.000184212	   21.9223	0.000139174	   21.8771	0.000150539	   21.9022	0.000157975	   21.9022	   3.94938	
   21.9694	0.000190023	   21.9805	0.000145139	   21.9337	0.000156315	   21.9612	0.000163826	   21.9612	   4.09564	
   22.0285	0.000195871	   22.0384	0.000151051	   21.9897	 0.0001621	   22.0189	0.000169674	   22.0189	   4.24185	
   22.0872	0.000201746	   22.0957	0.000156884	   22.0451	0.000167893	    22.076	0.000175508	    22.076	   4.38769	
   22.1463	0.000207635	   22.1524	0.000162692	   22.0996	0.000173685	   22.1328	0.000181337	   22.1328	   4.53343	
   22.2024	 0.0002135	   22.2087	0.000168535	   22.1538	0.000179468	   22.1883	0.000187168	   22.1883	    4.6792	
   22.2567	0.000219317	   22.2642	0.000174427	   22.2065	0.000185231	   22.2424	0.000192992	   22.2424	   4.82479	
   22.3114	0.000225049	   22.3186	0.000180393	   22.2582	0.000190961	   22.2961	0.000198801	   22.2961	   4.97002	
   22.3641	0.000230692	   22.3719	0.000186439	   22.3093	0.00019665	   22.3485	0.000204594	   22.3485	   5.11485	
   22.4173	0.000236263	   22.4239	0.000192536	   22.3596	0.00020229	   22.4003	0.000210363	   22.4003	   5.25908	
   22.4708	0.000241772	   22.4757	0.000198668	   22.4085	0.000207916	   22.4517	0.000216118	   22.4517	   5.40296	
   22.5223	0.000247243	    22.527	0.000204785	    22.457	0.000213529	   22.5021	0.000221852	   22.5021	    5.5463	
   22.5718	0.00025271	   22.5767	0.000210852	   22.5044	0.000219116	   22.5509	0.000227559	   22.5509	   5.68898	
   22.6214	0.000258198	   22.6252	0.000216845	   22.5506	0.000224712	   22.5991	0.000233252	   22.5991	   5.83129	
   22.6688	0.00026373	   22.6726	0.000222715	   22.5961	0.000230295	   22.6458	0.000238913	   22.6458	   5.97283	
    22.715	0.000269302	   22.7187	0.000228467	   22.6409	0.000235854	   22.6916	0.000244541	   22.6916	   6.11352	
   22.7607	0.000274912	   22.7636	0.000234122	   22.6848	0.000241383	   22.7364	0.000250139	   22.7364	   6.25348	
    22.805	0.000280546	    22.807	0.000239708	   22.7283	0.000246792	   22.7801	0.000255682	   22.7801	   6.39205	
   22.8481	0.000286168	   22.8496	0.000245303	   22.7708	0.000252145	   22.8228	0.000261205	   22.8228	   6.53013	
   22.8913	0.000291743	   22.8913	0.000250943	   22.8121	0.000257438	   22.8649	0.000266708	   22.8649	   6.66769	
   22.9351	0.000297251	   22.9319	0.000256658	   22.8523	0.000262682	   22.9065	0.000272197	   22.9065	   6.80493	
   22.9772	0.000302679	   22.9716	0.000262475	   22.8913	0.000267974	   22.9467	0.000277709	   22.9467	   6.94274	
   23.0187	0.000308034	   23.0101	0.000268367	   22.9296	0.000273334	   22.9861	0.000283245	   22.9861	   7.08112	
   23.0595	0.000313333	   23.0477	0.000274292	   22.9666	0.000278799	   23.0246	0.000288808	   23.0246	    7.2202	
    23.099	0.000318599	   23.0841	0.00028021	   23.0023	0.000284377	   23.0618	0.000294395	   23.0618	   7.35988	
   23.1381	0.000323868	   23.1194	0.000286082	   23.0372	0.000290009	   23.0982	0.000299987	   23.0982	   7.49966	
   23.1758	0.000329168	   23.1534	0.00029185	   23.0718	0.000295674	   23.1336	0.000305564	   23.1336	    7.6391	
    23.212	0.000334507	   23.1866	0.000297484	   23.1048	0.000301284	   23.1678	0.000311092	   23.1678	    7.7773	
   23.2472	0.000339896	   23.2191	0.000302979	   23.1365	0.000306746	   23.2009	0.00031654	   23.2009	    7.9135	
   23.2824	0.000345319	   23.2498	0.000308356	   23.1672	0.000312029	   23.2331	0.000321901	   23.2331	   8.04753	
    23.316	0.000350751	   23.2797	0.00031364	   23.1975	0.000317121	   23.2644	0.000327171	   23.2644	   8.17927	
   23.3479	0.000356172	   23.3085	0.000318877	    23.227	0.000322037	   23.2944	0.000332362	   23.2944	   8.30904	
   23.3797	0.000361548	   23.3364	0.000324118	    23.256	0.000326828	   23.3241	0.000337498	   23.3241	   8.43745	
   23.4109	0.000366852	   23.3636	0.000329413	   23.2844	0.000331572	    23.353	0.000342612	    23.353	   8.56531	
   23.4404	0.000372066	   23.3899	0.000334769	   23.3122	0.00033636	   23.3808	0.000347732	   23.3808	   8.69329	
   23.4686	0.00037718	   23.4163	0.000340196	   23.3388	0.00034124	   23.4079	0.000352872	   23.4079	   8.82179	
   23.4947	0.000382199	   23.4423	0.000345697	   23.3643	0.000346262	   23.4337	0.000358053	   23.4337	   8.95132	
   23.5202	0.000387147	   23.4667	0.000351254	   23.3885	0.000351445	   23.4585	0.000363282	   23.4585	   9.08205	
   23.5451	0.000392051	   23.4907	0.000356815	   23.4121	0.000356761	   23.4826	0.000368542	   23.4826	   9.21356	
   23.5686	0.000396954	   23.5142	0.000362339	   23.4348	0.00036215	   23.5059	0.000373814	   23.5059	   9.34535	
   23.5915	0.000401891	   23.5371	0.000367793	   23.4558	0.000367513	   23.5281	0.000379066	   23.5281	   9.47664	
   23.6127	0.000406886	   23.5595	0.00037316	   23.4767	0.000372764	   23.5496	0.00038427	   23.5496	   9.60676	
   23.6329	0.000411978	   23.5812	0.000378426	   23.4969	0.000377839	   23.5703	0.000389414	   23.5703	   9.73536	
   23.6519	0.000417123	   23.6018	0.000383603	    23.516	0.000382688	   23.5899	0.000394471	   23.5899	   9.86178	
     23.67	0.000422316	   23.6213	0.000388713	    23.535	0.000387332	   23.6088	0.000399454	   23.6088	   9.98635	
    23.687	0.000427515	   23.6397	0.000393793	   23.5532	0.000391822	   23.6267	0.000404377	   23.6267	   10.1094	
   23.7028	0.000432647	   23.6571	0.000398879	   23.5709	0.00039623	   23.6436	0.000409252	   23.6436	   10.2313	
   23.7187	0.000437678	    23.673	0.000403999	   23.5879	0.000400654	   23.6599	0.00041411	   23.6599	   10.3528	
   23.7347	0.00044259	   23.6884	0.000409167	   23.6042	0.00040519	   23.6758	0.000418982	   23.6758	   10.4746	
   23.7496	0.000447363	   23.7023	0.000414376	   23.6192	0.000409892	   23.6904	0.000423877	   23.6904	   10.5969	
   23.7635	0.000452059	   23.7153	0.000419605	   23.6336	0.000414761	   23.7041	0.000428809	   23.7041	   10.7202	
   23.7758	0.000456691	   23.7269	0.000424825	   23.6474	0.000419773	   23.7167	0.000433763	   23.7167	   10.8441	
   23.7884	0.000461304	   23.7377	   0.00043	   23.6594	0.000424857	   23.7285	0.000438721	   23.7285	    10.968	
   23.7999	0.000465944	   23.7477	0.000435098	    23.671	0.000429911	   23.7395	0.000443651	   23.7395	   11.0913	
   23.8103	0.000470627	   23.7567	0.000440103	   23.6821	0.000434848	   23.7497	0.000448526	   23.7497	   11.2131	
   23.8198	0.000475381	   23.7655	0.000445019	   23.6921	0.000439605	   23.7592	0.000453335	   23.7592	   11.3334	
    23.828	0.000480193	   23.7731	0.000449864	   23.7011	0.000444151	   23.7674	0.000458069	   23.7674	   11.4517	
   23.8355	0.000485034	   23.7806	0.000454664	   23.7092	0.000448504	   23.7751	0.000462734	   23.7751	   11.5684	
   23.8412	0.000489898	   23.7869	0.000459451	   23.7164	0.000452706	   23.7815	0.000467351	   23.7815	   11.6838	
   23.8458	0.000494729	   23.7921	0.000464257	   23.7216	0.000456845	   23.7865	0.000471944	   23.7865	   11.7986	
   23.8499	0.000499497	   23.7963	 0.0004691	   23.7262	0.000461013	   23.7908	0.000476537	   23.7908	   11.9134	
   23.8525	0.000504196	   23.7995	0.000473982	   23.7295	0.000465275	   23.7938	0.000481151	   23.7938	   12.0288	
   23.8545	0.000508799	   23.8013	0.000478889	   23.7317	0.00046968	   23.7958	0.000485789	   23.7958	   12.1447	
   23.8556	0.000513277	   23.8024	0.000483796	   23.7335	0.000474229	   23.7971	0.000490434	   23.7971	   12.2608	
   23.8554	0.000517664	   23.8021	0.000488673	   23.7342	0.000478888	   23.7973	0.000495075	   23.7973	   12.3769	
   23.8541	0.000522019	   23.8008	0.000493491	    23.734	0.000483593	   23.7963	0.000499701	   23.7963	   12.4925	
   23.8516	0.000526373	   23.7984	0.000498233	   23.7324	0.00048826	   23.7942	0.000504289	   23.7942	   12.6072	
   23.8493	0.000530755	   23.7956	0.000502889	   23.7302	0.000492826	   23.7917	0.000508823	   23.7917	   12.7206	
   23.8454	0.000535228	   23.7929	0.000507462	   23.7273	0.000497237	   23.7885	0.000513309	   23.7885	   12.8327	
   23.8401	0.000539799	   23.7883	0.000511972	   23.7237	0.000501473	    23.784	0.000517748	    23.784	   12.9437	
   23.8341	0.000544444	   23.7837	0.000516448	   23.7193	0.000505557	    23.779	0.000522149	    23.779	   13.0537	
   23.8275	0.000549125	   23.7784	0.000520915	   23.7133	0.000509532	   23.7731	0.000526524	   23.7731	   13.1631	
   23.8197	0.000553794	   23.7719	0.000525397	   23.7071	0.000513469	   23.7662	0.000530886	   23.7662	   13.2722	
   23.8116	0.000558393	   23.7649	0.000529906	   23.6996	0.00051743	   23.7587	0.000535243	   23.7587	   13.3811	
    23.803	0.000562863	   23.7564	0.000534443	   23.6908	0.000521467	   23.7501	0.000539591	   23.7501	   13.4898	
   23.7936	0.000567164	   23.7465	0.000538995	   23.6806	0.000525612	   23.7402	0.000543924	   23.7402	   13.5981	
   23.7829	0.000571303	   23.7359	0.000543541	   23.6694	0.000529865	   23.7294	0.000548236	   23.7294	   13.7059	
    23.771	0.000575301	   23.7242	0.00054805	   23.6574	0.000534192	   23.7176	0.000552514	   23.7176	   13.8129	
   23.7584	0.000579209	   23.7114	 0.0005525	   23.6443	0.000538544	   23.7047	0.000556751	   23.7047	   13.9188	
    23.745	0.000583096	   23.6972	0.000556877	   23.6306	0.000542851	   23.6909	0.000560941	   23.6909	   14.0235	
   23.7302	0.000587025	   23.6829	0.000561179	    23.616	0.000547058	   23.6763	0.000565087	   23.6763	   14.1272	
   23.7148	0.000591042	   23.6679	0.000565414	   23.6005	0.000551125	    23.661	0.000569194	    23.661	   14.2298	
   23.6978	0.000595142	   23.6518	0.000569603	   23.5838	0.000555039	   23.6444	0.000573261	   23.6444	   14.3315	
   23.6799	0.000599368	   23.6348	0.00057377	   23.5665	0.000558829	   23.6271	0.000577322	   23.6271	   14.4331	
   23.6608	0.000603704	   23.6165	0.000577936	   23.5482	0.000562533	   23.6085	0.000581391	   23.6085	   14.5348	
   23.6406	0.000608022	   23.5971	0.000582117	   23.5286	0.000566213	   23.5888	0.000585451	   23.5888	   14.6363	
     23.62	0.000612332	   23.5768	0.000586318	    23.508	0.000569927	   23.5683	0.000589525	   23.5683	   14.7381	
   23.5986	0.000616562	   23.5562	0.00059053	   23.4864	0.000573715	   23.5471	0.000593602	   23.5471	   14.8401	
    23.577	0.000620638	   23.5343	0.000594738	    23.464	0.000577598	   23.5251	0.000597658	   23.5251	   14.9414	
   23.5563	0.000624551	   23.5114	0.000598918	   23.4402	0.000581558	   23.5026	0.000601676	   23.5026	   15.0419	
   23.5345	0.000628279	   23.4874	0.000603048	   23.4149	0.000585558	   23.4789	0.000605628	   23.4789	   15.1407	
   23.5118	0.000631863	   23.4633	0.000607112	   23.3881	0.00058955	   23.4544	0.000609509	   23.4544	   15.2377	
   23.4898	0.000635365	   23.4379	0.000611103	   23.3607	0.000593474	   23.4295	0.000613314	   23.4295	   15.3329	
   23.4656	0.000638816	   23.4115	0.000615025	    23.332	0.000597291	   23.4031	0.000617044	   23.4031	   15.4261	
   23.4383	0.000642345	   23.3843	0.000618892	   23.3025	0.000600979	    23.375	0.000620739	    23.375	   15.5185	
   23.4119	0.000646001	   23.3559	0.000622725	   23.2723	0.00060454	   23.3467	0.000624422	   23.3467	   15.6105	
   23.3826	0.000649812	   23.3264	0.000626542	     23.24	0.000608005	   23.3163	0.00062812	   23.3163	    15.703	
   23.3493	0.000653796	   23.2962	0.000630362	   23.2069	0.000611422	   23.2841	0.00063186	   23.2841	   15.7965	
   23.3145	0.000657883	   23.2642	0.000634197	   23.1727	0.000614838	   23.2505	0.000635639	   23.2505	    15.891	
   23.2789	0.000662003	   23.2312	0.00063805	   23.1376	0.000618296	   23.2159	0.00063945	   23.2159	   15.9862	
   23.2412	0.000666065	    23.198	0.000641916	   23.1013	0.00062182	   23.1802	0.000643267	   23.1802	   16.0817	
   23.2035	0.000669967	   23.1637	0.000645779	   23.0649	0.00062542	    23.144	0.000647055	    23.144	   16.1764	
   23.1662	0.00067368	   23.1285	0.000649622	   23.0281	0.000629074	   23.1076	0.000650792	   23.1076	   16.2698	
   23.1277	0.000677172	   23.0919	0.000653416	   22.9895	0.000632751	   23.0697	0.000654446	   23.0697	   16.3612	
    23.089	0.000680467	   23.0544	0.000657183	   22.9505	0.000636411	   23.0313	0.00065802	   23.0313	   16.4505	
   23.0505	0.000683642	   23.0154	0.000660902	   22.9107	0.000640022	   22.9922	0.000661522	   22.9922	    16.538	
   23.0109	0.000686769	   22.9759	0.000664549	   22.8697	0.000643553	   22.9521	0.000664957	   22.9521	   16.6239	
   22.9704	0.000689944	   22.9344	0.000668166	   22.8278	0.000646993	   22.9108	0.000668368	   22.9108	   16.7092	
   22.9291	0.000693232	   22.8922	0.000671738	   22.7857	0.000650341	    22.869	0.00067177	    22.869	   16.7943	
   22.8869	0.000696657	   22.8487	0.000675262	   22.7427	0.000653613	   22.8261	0.000675177	   22.8261	   16.8794	
   22.8438	0.000700226	   22.8044	0.000678752	   22.6993	0.000656838	   22.7825	0.000678606	   22.7825	   16.9651	
   22.8001	0.000703884	   22.7597	0.000682205	   22.6548	0.000660052	   22.7382	0.000682047	   22.7382	   17.0512	
   22.7561	0.000707561	   22.7141	0.000685635	   22.6093	0.000663266	   22.6932	0.000685488	   22.6932	   17.1372	
   22.7102	0.000711179	   22.6679	0.000689042	   22.5631	0.00066652	   22.6471	0.000688914	   22.6471	   17.2228	
   22.6639	0.000714655	   22.6219	0.000692439	   22.5163	0.00066981	   22.6007	0.000692301	   22.6007	   17.3075	
   22.6168	0.000717951	   22.5745	0.00069585	   22.4693	0.00067313	   22.5535	0.000695644	   22.5535	   17.3911	
   22.5686	0.000721062	    22.526	0.000699266	   22.4216	0.00067646	   22.5054	0.000698929	   22.5054	   17.4732	
     22.52	0.000724021	   22.4771	0.000702696	   22.3726	0.000679753	   22.4566	0.000702157	   22.4566	   17.5539	
   22.4702	0.000726895	   22.4271	0.000706134	   22.3235	0.000682999	    22.407	0.000705343	    22.407	   17.6336	
    22.419	0.00072975	   22.3768	0.000709555	   22.2739	0.000686194	   22.3566	 0.0007085	   22.3566	   17.7125	
   22.3676	0.000732662	   22.3258	0.000712949	   22.2229	0.000689274	   22.3055	0.000711628	   22.3055	   17.7907	
   22.3159	0.000735676	   22.2733	0.000716287	   22.1714	0.000692292	   22.2535	0.000714752	   22.2535	   17.8688	
   22.2634	0.000738805	   22.2196	0.000719558	   22.1195	0.000695259	   22.2008	0.000717874	   22.2008	   17.9469	
   22.2099	0.000742036	   22.1649	0.000722764	   22.0664	0.000698166	   22.1471	0.000720989	   22.1471	   18.0247	
   22.1556	0.000745314	   22.1096	0.000725897	   22.0124	0.000701047	   22.0925	0.000724086	   22.0925	   18.1022	
      22.1	0.000748577	   22.0531	0.00072897	   21.9575	0.000703907	   22.0368	0.000727152	   22.0368	   18.1788	
   22.0436	0.000751761	   21.9959	0.000732012	   21.9022	0.00070676	   21.9806	0.000730178	   21.9806	   18.2544	
   21.9862	0.000754806	   21.9378	0.00073505	   21.8461	0.000709618	   21.9234	0.000733158	   21.9234	   18.3289	
   21.9275	0.000757686	   21.8795	0.000738111	   21.7891	0.000712464	   21.8654	0.000736087	   21.8654	   18.4022	
   21.8678	0.000760407	   21.8203	0.000741194	   21.7303	0.000715324	   21.8061	0.000738975	   21.8061	   18.4744	
   21.8074	0.000763006	   21.7598	0.000744296	   21.6707	0.000718189	   21.7459	0.00074183	   21.7459	   18.5458	
   21.7466	0.000765542	   21.6978	0.000747406	   21.6104	0.000721051	   21.6849	0.000744666	   21.6849	   18.6167	
    21.685	0.000768082	   21.6363	0.000750484	   21.5497	0.000723916	   21.6237	0.000747494	   21.6237	   18.6873	
   21.6227	0.000770679	   21.5737	0.000753492	   21.4878	0.00072677	   21.5614	0.000750314	   21.5614	   18.7578	
   21.5597	0.000773368	   21.5099	0.000756404	    21.424	0.00072961	   21.4979	0.000753128	   21.4979	   18.8282	
   21.4957	0.00077615	   21.4457	0.000759203	   21.3592	0.000732421	   21.4336	0.000755925	   21.4336	   18.8981	
   21.4311	0.000779002	   21.3804	0.000761908	   21.2942	0.000735182	   21.3686	0.000758698	   21.3686	   18.9674	
   21.3655	0.000781873	   21.3148	0.000764534	   21.2286	0.000737902	    21.303	0.000761436	    21.303	   19.0359	
   21.2998	0.000784704	   21.2491	0.000767131	   21.1618	0.000740567	   21.2369	0.000764134	   21.2369	   19.1033	
   21.2326	0.00078744	    21.183	0.00076977	   21.0934	0.000743177	   21.1697	0.000766795	   21.1697	   19.1699	
   21.1643	0.00079004	   21.1158	0.000772447	   21.0237	0.000745742	   21.1013	0.00076941	   21.1013	   19.2352	
   21.0958	0.000792493	   21.0471	0.000775201	   20.9532	0.00074827	    21.032	0.000771988	    21.032	   19.2997	
   21.0261	0.00079481	    20.978	0.000778038	   20.8816	0.000750782	   20.9619	0.000774543	   20.9619	   19.3636	
   20.9557	0.000797029	   20.9076	0.000780916	   20.8094	0.000753283	   20.8909	0.000777076	   20.8909	   19.4269	
   20.8844	0.000799208	   20.8362	0.000783813	   20.7357	0.000755787	   20.8188	0.000779603	   20.8188	   19.4901	
   20.8124	0.000801402	   20.7647	0.000786684	   20.6625	0.000758304	   20.7465	0.00078213	   20.7465	   19.5533	
   20.7395	0.000803658	   20.6929	0.000789473	   20.5885	0.000760795	   20.6736	0.000784642	   20.6736	   19.6161	
   20.6654	0.000805998	   20.6198	0.000792185	   20.5139	0.000763256	   20.5997	0.000787146	   20.5997	   19.6786	
   20.5904	0.000808414	   20.5457	0.000794779	   20.4387	0.000765702	    20.525	0.000789632	    20.525	   19.7408	
   20.5149	0.00081088	   20.4706	0.00079726	   20.3631	0.000768115	   20.4495	0.000792085	   20.4495	   19.8021	
   20.4383	0.000813347	   20.3943	0.000799661	   20.2867	0.000770501	   20.3731	0.000794503	   20.3731	   19.8626	
   20.3603	0.000815766	   20.3171	0.000802014	     20.21	0.000772894	   20.2958	0.000796892	   20.2958	   19.9223	
   20.2813	0.000818094	   20.2389	0.000804372	   20.1325	0.000775295	   20.2176	0.000799254	   20.2176	   19.9813	
   20.2016	0.000820304	     20.16	0.000806768	   20.0537	0.000777708	   20.1385	0.000801593	   20.1385	   20.0398	
   20.1211	0.000822394	   20.0802	0.000809224	    19.974	0.000780111	   20.0584	0.00080391	   20.0584	   20.0977	
   20.0401	0.000824386	   20.0003	0.000811761	    19.894	0.000782508	   19.9782	0.000806219	   19.9782	   20.1555	
    19.958	0.00082632	   19.9196	0.000814353	   19.8129	0.000784892	   19.8969	0.000808522	   19.8969	    20.213	
    19.875	0.000828243	    19.838	0.000816978	   19.7307	0.000787228	   19.8146	0.000810817	   19.8146	   20.2704	
   19.7914	0.000830198	   19.7551	0.000819589	   19.6479	0.00078949	   19.7315	0.000813092	   19.7315	   20.3273	
   19.7077	0.000832215	    19.672	0.000822135	   19.5641	0.000791681	   19.6479	0.000815344	   19.6479	   20.3836	
   19.6235	0.000834307	   19.5883	0.00082459	   19.4798	0.000793802	   19.5639	0.000817566	   19.5639	   20.4391	
   19.5387	0.000836457	   19.5035	0.000826931	   19.3948	0.000795859	    19.479	0.000819749	    19.479	   20.4937	
   19.4535	0.000838638	   19.4178	0.000829163	   19.3088	0.000797869	   19.3934	0.00082189	   19.3934	   20.5472	
   19.3668	0.000840807	   19.3315	0.000831312	   19.2228	0.000799861	   19.3071	0.000823993	   19.3071	   20.5998	
   19.2801	0.000842921	   19.2445	0.000833406	   19.1361	0.00080186	   19.2202	0.000826063	   19.2202	   20.6516	
   19.1925	0.000844948	   19.1566	0.000835503	   19.0483	0.000803877	   19.1325	0.000828109	   19.1325	   20.7027	
   19.1045	0.000846865	   19.0683	0.000837643	     18.96	0.000805918	   19.0442	0.000830142	   19.0442	   20.7536	
   19.0152	0.000848678	   18.9782	0.000839851	   18.8709	0.000807986	   18.9548	0.000832171	   18.9548	   20.8043	
   18.9251	0.00085041	   18.8873	0.000842141	   18.7809	0.00081006	   18.8644	0.000834204	   18.8644	   20.8551	
   18.8335	0.000852098	   18.7956	0.000844495	   18.6892	0.000812117	   18.7727	0.000836237	   18.7727	   20.9059	
   18.7413	0.000853794	   18.7022	0.000846883	   18.5964	0.000814136	     18.68	0.000838271	     18.68	   20.9568	
   18.6484	0.000855552	   18.6082	0.000849263	   18.5028	0.000816104	   18.5865	0.000840306	   18.5865	   21.0077	
   18.5549	0.000857371	   18.5133	0.00085158	    18.408	0.000818012	   18.4921	0.000842321	   18.4921	    21.058	
   18.4599	0.000859235	   18.4175	0.000853797	   18.3121	0.000819855	   18.3965	0.000844296	   18.3965	   21.1074	
   18.3643	0.000861115	   18.3217	0.000855892	   18.2156	0.000821646	   18.3005	0.000846218	   18.3005	   21.1554	
   18.2684	0.000862957	   18.2246	0.000857853	   18.1178	0.000823403	   18.2036	0.000848071	   18.2036	   21.2018	
   18.1721	0.000864707	   18.1267	0.000859719	   18.0191	0.000825138	    18.106	0.000849855	    18.106	   21.2464	
   18.0747	0.000866335	   18.0279	0.000861526	     17.92	0.000826872	   18.0075	0.000851578	   18.0075	   21.2894	
   17.9756	0.000867832	    17.929	0.000863313	   17.8198	0.000828614	   17.9081	0.000853253	   17.9081	   21.3313	
   17.8751	0.000869215	   17.8287	0.00086513	   17.7191	0.000830368	   17.8076	0.000854905	   17.8076	   21.3726	
   17.7738	0.000870511	   17.7277	0.000867008	    17.617	0.000832127	   17.7062	0.000856549	   17.7062	   21.4137	
    17.672	0.000871785	   17.6262	0.000868948	   17.5135	0.000833881	   17.6039	0.000858204	   17.6039	   21.4551	
   17.5697	0.000873112	   17.5241	0.000870942	     17.41	0.000835614	   17.5013	0.000859889	   17.5013	   21.4972	
   17.4662	0.000874521	   17.4214	0.000872949	   17.3059	0.000837307	   17.3978	0.000861592	   17.3978	   21.5398	
   17.3624	0.000876029	   17.3178	0.000874932	    17.201	0.000838946	   17.2937	0.000863302	   17.2937	   21.5826	
   17.2577	0.000877635	   17.2138	0.000876854	   17.0963	0.000840526	   17.1893	0.000865005	   17.1893	   21.6251	
    17.153	0.000879297	   17.1103	0.000878678	   16.9915	0.000842044	    17.085	0.000866673	    17.085	   21.6668	
   17.0474	0.00088095	   17.0058	0.000880388	   16.8859	0.00084351	   16.9797	0.000868283	   16.9797	   21.7071	
   16.9404	0.000882526	   16.9004	0.000881988	   16.7795	0.000844935	   16.8734	0.000869816	   16.8734	   21.7454	
   16.8332	0.000883985	   16.7935	0.000883497	   16.6721	0.000846336	   16.7663	0.000871273	   16.7663	   21.7818	
   16.7249	0.000885309	   16.6857	0.000884956	   16.5637	0.000847734	   16.6581	0.000872666	   16.6581	   21.8167	
   16.6161	0.000886489	   16.5772	0.000886393	   16.4548	0.000849137	   16.5494	0.000874006	   16.5494	   21.8502	
   16.5067	0.000887562	    16.468	0.000887844	   16.3457	0.000850545	   16.4401	0.000875317	   16.4401	   21.8829	
    16.397	0.000888579	   16.3571	0.000889332	   16.2352	0.000851957	   16.3298	0.000876623	   16.3298	   21.9156	
    16.287	0.000889599	   16.2453	0.000890856	   16.1244	0.000853358	   16.2189	0.000877938	   16.2189	   21.9484	
   16.1761	0.000890669	   16.1325	0.00089241	    16.013	0.000854739	   16.1072	0.000879273	   16.1072	   21.9818	
   16.0647	0.000891812	   16.0198	0.000893966	    15.901	0.000856076	   15.9952	0.000880618	   15.9952	   22.0154	
   15.9531	0.000893033	    15.906	0.000895492	   15.7883	0.000857358	   15.8825	0.000881961	   15.8825	    22.049	
   15.8412	0.000894312	   15.7911	0.000896958	   15.6743	0.000858582	   15.7689	0.000883284	   15.7689	   22.0821	
   15.7289	0.000895603	   15.6755	0.000898334	     15.56	0.000859746	   15.6548	0.000884561	   15.6548	    22.114	
    15.615	0.000896862	   15.5591	0.000899617	   15.4454	0.000860855	   15.5398	0.000885778	   15.5398	   22.1445	
   15.5005	0.000898043	   15.4424	0.000900813	   15.3296	0.000861921	   15.4242	0.000886926	   15.4242	   22.1731	
   15.3853	0.000899116	   15.3253	0.000901938	   15.2139	0.000862957	   15.3082	0.000888004	   15.3082	   22.2001	
   15.2697	0.000900073	   15.2076	0.000903022	   15.0974	0.000863979	   15.1916	0.000889025	   15.1916	   22.2256	
   15.1537	0.000900925	   15.0887	0.000904094	   14.9807	0.000864994	   15.0744	0.000890004	   15.0744	   22.2501	
   15.0374	0.000901703	   14.9698	0.00090518	   14.8641	0.000866003	   14.9571	0.000890962	   14.9571	   22.2741	
   14.9194	0.000902447	   14.8506	0.000906295	    14.746	0.000867005	   14.8387	0.000891915	   14.8387	   22.2979	
   14.8004	0.000903195	   14.7305	0.000907437	   14.6279	0.000867983	   14.7196	0.000892872	   14.7196	   22.3218	
   14.6808	0.000903986	   14.6106	0.000908598	   14.5086	0.00086893	      14.6	0.000893838	      14.6	    22.346	
   14.5606	0.000904834	   14.4901	0.000909752	   14.3886	0.000869827	   14.4798	0.000894804	   14.4798	   22.3701	
   14.4401	0.000905736	   14.3701	0.000910872	   14.2683	0.000870664	   14.3595	0.000895757	   14.3595	   22.3939	
   14.3193	0.000906672	   14.2498	0.00091193	   14.1478	0.000871443	   14.2389	0.000896682	   14.2389	    22.417	
    14.198	0.000907607	   14.1291	0.000912911	   14.0258	0.000872171	   14.1176	0.000897563	   14.1176	   22.4391	
   14.0763	0.000908502	   14.0074	0.000913809	   13.9028	0.000872863	   13.9955	0.000898391	   13.9955	   22.4598	
    13.954	0.00090932	   13.8853	0.000914629	   13.7794	0.000873541	   13.8729	0.000899163	   13.8729	   22.4791	
     13.83	0.000910034	   13.7621	0.000915391	    13.656	0.000874218	   13.7494	0.000899881	   13.7494	    22.497	
    13.706	0.000910641	   13.6384	0.000916125	   13.5319	0.00087491	   13.6254	0.000900559	   13.6254	    22.514	
   13.5817	0.000911149	    13.514	0.00091685	   13.4072	0.000875623	    13.501	0.000901207	    13.501	   22.5302	
   13.4572	0.00091159	   13.3895	0.000917586	   13.2822	0.000876348	   13.3763	0.000901841	   13.3763	    22.546	
   13.3328	0.000912002	    13.265	0.000918348	    13.157	0.000877054	   13.2516	0.000902468	   13.2516	   22.5617	
   13.2078	0.000912419	   13.1408	0.000919129	   13.0309	0.000877724	   13.1265	0.000903091	   13.1265	   22.5773	
   13.0824	0.000912868	    13.016	0.000919916	   12.9049	0.000878331	   13.0011	0.000903705	   13.0011	   22.5926	
   12.9563	0.000913365	   12.8906	0.000920691	   12.7783	0.000878854	   12.8751	0.000904303	   12.8751	   22.6076	
   12.8296	 0.0009139	   12.7652	0.000921433	   12.6522	0.000879304	    12.749	0.000904879	    12.749	    22.622	
   12.7026	0.000914452	     12.64	0.000922124	   12.5253	0.000879678	   12.6227	0.000905418	   12.6227	   22.6355	
   12.5749	0.000914985	   12.5146	0.000922759	   12.3988	0.000879995	   12.4961	0.000905913	   12.4961	   22.6478	
   12.4465	0.000915464	   12.3883	0.000923332	   12.2719	0.000880286	   12.3689	0.000906361	   12.3689	    22.659	
   12.3173	0.000915859	   12.2616	0.000923836	   12.1446	0.000880588	   12.2412	0.000906761	   12.2412	    22.669	
   12.1877	0.000916158	   12.1343	0.000924226	   12.0173	 0.0008809	   12.1131	0.000907094	   12.1131	   22.6774	
   12.0587	0.000916362	   12.0065	0.000924543	   11.8893	0.000881265	   11.9848	0.00090739	   11.9848	   22.6848	
   11.9296	0.000916492	   11.8776	0.000924826	   11.7607	0.000881662	    11.856	0.00090766	    11.856	   22.6915	
   11.7989	0.00091657	   11.7485	0.000925084	   11.6314	0.000882061	   11.7263	0.000907905	   11.7263	   22.6976	
    11.667	0.000916634	   11.6193	0.000925346	   11.5019	0.000882444	   11.5961	0.000908141	   11.5961	   22.7035	
   11.5346	0.000916714	   11.4898	0.000925665	   11.3721	0.000882763	   11.4655	0.000908381	   11.4655	   22.7095	
   11.4021	0.000916799	   11.3601	0.000926027	   11.2418	0.00088299	   11.3347	0.000908605	   11.3347	   22.7151	
   11.2695	0.000916902	   11.2295	0.000926421	    11.111	0.000883122	   11.2033	0.000908815	   11.2033	   22.7204	
   11.1371	0.000917025	   11.0984	0.000926819	   10.9798	0.000883142	   11.0718	0.000908995	   11.0718	   22.7249	
   11.0044	0.000917123	   10.9664	0.000927193	   10.8481	0.00088308	   10.9396	0.000909132	   10.9396	   22.7283	
   10.8712	0.000917196	   10.8339	0.000927507	   10.7164	0.000883051	   10.8072	0.000909251	   10.8072	   22.7313	
   10.7376	0.00091723	   10.7003	0.00092773	    10.584	0.000883046	    10.674	0.000909335	    10.674	   22.7334	
    10.604	0.000917214	   10.5662	0.000927836	   10.4505	0.000883062	   10.5403	0.000909371	   10.5403	   22.7343	
   10.4694	0.000917156	   10.4327	0.000927832	   10.3168	0.000883158	   10.4063	0.000909382	   10.4063	   22.7345	
   10.3345	0.000917052	   10.2988	0.000927747	   10.1829	0.000883314	   10.2721	0.000909371	   10.2721	   22.7343	
   10.1996	0.000916922	   10.1648	0.000927601	   10.0509	0.000883465	   10.1384	0.000909329	   10.1384	   22.7332	
   10.0645	0.00091676	   10.0305	0.000927424	   9.92099	0.000883559	   10.0053	0.000909248	   10.0053	   22.7312	
   9.92966	0.000916551	   9.89541	0.000927251	   9.78929	0.000883556	   9.87146	0.000909119	   9.87146	    22.728	
   9.79348	0.000916305	   9.75945	0.000927099	    9.6569	0.00088346	   9.73661	0.000908954	   9.73661	   22.7239	
   9.65649	0.000916008	   9.62422	0.000926961	   9.52589	0.000883234	    9.6022	0.000908734	    9.6022	   22.7184	
   9.51973	0.000915656	   9.48854	0.000926845	    9.3924	0.00088288	   9.46689	0.00090846	   9.46689	   22.7115	
   9.38314	0.000915246	   9.35237	0.00092677	    9.2534	0.00088252	   9.32963	0.000908179	   9.32963	   22.7045	
   9.24621	0.000914782	   9.21581	0.000926702	   9.11583	0.000882206	   9.19262	0.000907897	   9.19262	   22.6974	
   9.10828	0.000914287	   9.07819	0.000926618	   8.97662	0.000881968	   9.05436	0.000907624	   9.05436	   22.6906	
   8.97039	0.000913766	   8.94003	0.000926516	   8.83324	0.000881843	   8.91456	0.000907375	   8.91456	   22.6844	
   8.83197	0.000913229	   8.80133	0.00092634	   8.68964	0.000881814	   8.77431	0.000907127	   8.77431	   22.6782	
   8.69298	0.000912698	   8.66206	0.00092607	   8.54738	0.000881848	   8.63414	0.000906872	   8.63414	   22.6718	
   8.55447	0.000912172	   8.52273	0.000925694	   8.40419	0.000881863	    8.4938	0.000906576	    8.4938	   22.6644	
   8.41582	0.000911655	   8.38277	0.000925203	   8.26168	0.000881774	   8.35342	0.00090621	   8.35342	   22.6553	
   8.27749	0.000911136	   8.24216	0.000924623	   8.12026	0.000881544	    8.2133	0.000905768	    8.2133	   22.6442	
   8.13874	0.000910595	   8.10171	0.000923954	   7.97876	0.000881136	   8.07307	0.000905228	   8.07307	   22.6307	
   7.99967	0.000910017	   7.96054	0.000923253	   7.83712	0.000880556	   7.93245	0.000904608	   7.93245	   22.6152	
   7.86079	0.000909381	   7.81972	0.000922555	   7.69636	0.000879857	   7.79229	0.000903931	   7.79229	   22.5983	
   7.72096	0.000908674	   7.67812	0.000921876	   7.55581	0.000879109	   7.65163	0.00090322	   7.65163	   22.5805	
    7.5802	0.000907894	   7.53575	0.000921238	   7.41489	0.000878373	   7.51028	0.000902502	   7.51028	   22.5625	
   7.43905	0.000907038	   7.39314	0.000920649	   7.27462	0.00087769	   7.36894	0.000901792	   7.36894	   22.5448	
   7.29803	0.000906122	   7.25079	0.000920069	   7.13384	0.000877089	   7.22755	0.000901094	   7.22755	   22.5273	
   7.15615	0.000905163	   7.10811	0.000919478	   6.99267	0.000876569	   7.08564	0.000900404	   7.08564	   22.5101	
   7.01328	0.000904183	    6.9656	0.000918837	   6.85149	0.000876097	   6.94346	0.000899706	   6.94346	   22.4926	
   6.87106	 0.0009032	   6.82267	0.000918152	   6.70919	0.000875631	   6.80097	0.000898994	   6.80097	   22.4749	
   6.72832	0.000902221	   6.67983	0.000917375	   6.56633	0.000875113	   6.65816	0.000898236	   6.65816	   22.4559	
   6.58505	0.000901248	   6.53755	0.000916468	   6.42398	0.000874501	   6.51552	0.000897406	   6.51552	   22.4351	
   6.44074	0.000900272	   6.39521	0.000915443	   6.28098	0.000873761	   6.37231	0.000896492	   6.37231	   22.4123	
   6.29595	0.000899273	   6.25277	0.00091431	   6.13682	0.000872887	   6.22851	0.00089549	   6.22851	   22.3873	
   6.15015	0.000898239	    6.1102	0.000913072	   5.99207	0.000871897	   6.08414	0.000894403	   6.08414	   22.3601	
   6.00456	0.000897142	   5.96718	0.000911778	   5.84713	0.000870829	   5.93962	0.00089325	   5.93962	   22.3312	
   5.85847	0.000895971	   5.82345	0.000910464	   5.70212	0.000869724	   5.79468	0.000892053	   5.79468	   22.3013	
    5.7119	0.000894723	   5.67903	0.000909179	   5.55647	0.000868635	   5.64913	0.000890846	   5.64913	   22.2711	
   5.56484	0.000893404	   5.53444	0.00090793	   5.41125	0.000867594	   5.50351	0.000889643	   5.50351	   22.2411	
   5.41729	0.000892029	   5.38966	0.000906733	   5.26637	0.000866617	   5.35778	0.000888459	   5.35778	   22.2115	
   5.26981	0.000890623	   5.24467	0.000905595	   5.12177	0.000865693	   5.21208	0.000887304	   5.21208	   22.1826	
   5.12181	0.000889207	   5.09997	0.00090448	   4.97582	0.000864799	   5.06587	0.000886162	   5.06587	   22.1541	
   4.97384	0.000887797	   4.95445	0.000903345	   4.82964	0.000863896	   4.91931	0.000885013	   4.91931	   22.1253	
   4.82625	0.000886395	   4.80865	0.00090216	   4.68374	0.000862934	   4.77288	0.000883829	   4.77288	   22.0957	
   4.67807	0.000884998	   4.66257	0.000900887	   4.53647	0.000861869	    4.6257	0.000882585	    4.6257	   22.0646	
   4.52984	0.000883593	   4.51566	0.000899506	   4.38845	0.000860676	   4.47799	0.000881258	   4.47799	   22.0315	
   4.38206	0.000882161	   4.36849	0.000898008	   4.24023	0.000859348	   4.33026	0.000879839	   4.33026	    21.996	
   4.23466	0.000880686	   4.22157	0.000896411	   4.09128	0.000857877	    4.1825	0.000878324	    4.1825	   21.9581	
   4.08705	0.000879163	   4.07483	0.00089475	   3.94266	0.000856288	   4.03485	0.000876734	   4.03485	   21.9183	
   3.93922	0.000877576	   3.92772	0.000893052	   3.79381	0.000854646	   3.88691	0.000875091	   3.88691	   21.8773	
   3.79168	0.000875917	   3.78022	0.000891357	   3.64524	0.000853011	   3.73905	0.000873428	   3.73905	   21.8357	
   3.64412	0.000874182	   3.63259	 0.0008897	   3.49715	0.000851434	   3.59129	0.000871772	   3.59129	   21.7943	
   3.49729	0.000872377	   3.48404	0.000888092	   3.34871	0.000849979	   3.44335	0.000870149	   3.44335	   21.7537	
   3.35109	0.000870504	   3.33514	0.000886527	   3.20043	0.00084864	   3.29555	0.000868557	   3.29555	   21.7139	
   3.20544	0.000868583	   3.18536	0.000884985	   3.05175	0.000847382	   3.14752	0.000866983	   3.14752	   21.6746	
   3.05869	0.000866638	   3.03579	0.000883428	   2.90319	0.000846136	   2.99922	0.000865401	   2.99922	    21.635	
   2.91194	0.000864688	    2.8864	0.000881825	   2.75419	0.000844835	   2.85084	0.000863783	   2.85084	   21.5946	
   2.76516	0.000862745	   2.73662	0.00088014	   2.60529	0.000843433	   2.70236	0.000862106	   2.70236	   21.5527	
   2.61779	0.000860798	   2.58646	0.000878359	    2.4575	0.000841861	   2.55392	0.000860339	   2.55392	   21.5085	
   2.46958	0.000858851	   2.43644	0.000876475	   2.30978	0.000840091	   2.40527	0.000858473	   2.40527	   21.4618	
   2.32084	 0.0008569	   2.28706	0.000874501	   2.16249	0.000838153	    2.2568	0.000856518	    2.2568	    21.413	
   2.17211	0.000854922	   2.13772	0.000872459	   2.01556	0.000836091	   2.10846	0.000854491	   2.10846	   21.3623	
   2.02335	0.000852901	   1.98787	0.000870383	   1.86892	0.000833974	   1.96005	0.000852419	   1.96005	   21.3105	
   1.87506	0.000850836	   1.83752	0.000868303	   1.72252	0.00083187	    1.8117	0.000850336	    1.8117	   21.2584	
   1.72561	0.000848708	   1.68827	0.000866241	   1.57578	0.00082984	   1.66322	0.000848263	   1.66322	   21.2066	
   1.57664	0.000846508	   1.53894	0.000864206	   1.42921	0.000827927	   1.51493	0.000846214	   1.51493	   21.1553	
   1.42808	0.000844232	   1.39004	0.000862195	   1.28225	0.000826121	   1.36679	0.000844182	   1.36679	   21.1046	
   1.27922	0.000841874	   1.24086	0.000860187	   1.13528	0.000824386	   1.21845	0.000842149	   1.21845	   21.0537	
   1.13017	0.000839458	   1.09152	0.000858155	  0.988926	0.00082267	   1.07021	0.000840094	   1.07021	   21.0024	
  0.980416	0.000836943	  0.942023	0.000856068	  0.843102	0.000820899	  0.921847	0.00083797	  0.921847	   20.9492	
  0.831031	0.000834379	  0.792867	0.000853898	  0.696677	0.000819013	  0.773525	0.000835763	  0.773525	   20.8941	
  0.681433	0.000831833	  0.643475	0.000851631	  0.549145	0.000816974	  0.624684	0.00083348	  0.624684	    20.837	
  0.530048	0.000829318	  0.493844	0.000849265	  0.401613	0.000814771	  0.475168	0.000831118	  0.475168	   20.7779	
  0.378571	0.000826849	  0.345013	0.000846812	  0.254047	0.000812422	  0.325877	0.000828694	  0.325877	   20.7174	
   0.22699	0.000824462	  0.196239	0.000844301	  0.106815	0.000809969	  0.176681	0.000826244	  0.176681	   20.6561	
 0.0758187	0.00082212	 0.0476154	0.000841765	-0.0405385	0.000807474	 0.0276319	0.000823786	 0.0276319	   20.5947	
-0.0739466	0.000819803	 -0.100893	0.00083924	 -0.188037	0.000804989	 -0.120959	0.000821344	 -0.120959	   20.5336	
 -0.223492	0.000817432	 -0.249852	0.00083674	 -0.335176	0.00080255	 -0.269507	0.000818907	 -0.269507	   20.4727	
 -0.372863	0.00081496	 -0.398729	0.000834268	 -0.481494	0.00080017	 -0.417695	0.000816466	 -0.417695	   20.4117	
 -0.521575	0.000812372	 -0.547553	0.000831816	 -0.628143	0.000797841	 -0.565757	0.00081401	 -0.565757	   20.3502	
 -0.668661	 0.0008096	 -0.696884	0.00082935	 -0.775131	0.00079554	 -0.713559	0.000811497	 -0.713559	   20.2874	
 -0.815333	0.000806655	 -0.846182	0.000826846	 -0.922987	0.000793226	 -0.861501	0.000808909	 -0.861501	   20.2227	
 -0.962054	0.000803585	 -0.995735	0.000824266	  -1.07127	0.000790858	  -1.00969	0.000806236	  -1.00969	   20.1559	
  -1.10898	0.000800413	  -1.14529	0.000821585	  -1.21933	0.000788402	  -1.15787	0.000803467	  -1.15787	   20.0867	
  -1.25562	0.000797206	  -1.29486	0.000818798	  -1.36774	0.000785829	  -1.30607	0.000800611	  -1.30607	   20.0153	
  -1.40149	0.000794027	  -1.44448	0.000815903	  -1.51702	0.000783138	  -1.45433	0.000797689	  -1.45433	   19.9422	
  -1.54827	0.000790904	  -1.59417	0.000812929	  -1.66554	0.00078034	  -1.60266	0.000794724	  -1.60266	   19.8681	
  -1.69539	0.00078788	  -1.74342	0.000809913	  -1.81342	0.000777452	  -1.75074	0.000791749	  -1.75074	   19.7937	
   -1.8413	0.00078493	  -1.89229	0.00080687	  -1.96124	0.000774513	  -1.89828	0.000788771	  -1.89828	   19.7193	
  -1.98821	0.000782034	  -2.04138	0.000803833	  -2.10904	0.000771544	  -2.04621	0.000785804	  -2.04621	   19.6451	
  -2.13556	0.000779152	  -2.19107	0.000800821	  -2.25687	0.000768574	   -2.1945	0.000782849	   -2.1945	   19.5712	
   -2.2823	0.000776208	  -2.34095	0.000797826	   -2.4037	0.000765624	  -2.34231	0.000779886	  -2.34231	   19.4972	
  -2.43113	0.000773152	  -2.49102	0.000794846	  -2.55016	0.000762684	  -2.49077	0.000776894	  -2.49077	   19.4224	
  -2.57982	0.000769944	  -2.64131	0.000791847	  -2.69633	0.000759749	  -2.63915	0.000773847	  -2.63915	   19.3462	
  -2.72734	0.000766572	  -2.79076	0.000788806	   -2.8433	0.000756796	  -2.78713	0.000770725	  -2.78713	   19.2681	
  -2.87593	0.000763066	  -2.94051	0.000785699	  -2.99001	0.000753778	  -2.93548	0.000767514	  -2.93548	   19.1879	
  -3.02395	0.000759455	  -3.08952	0.000782498	  -3.13598	0.000750679	  -3.08315	0.000764211	  -3.08315	   19.1053	
  -3.17201	0.000755804	   -3.2384	 0.0007792	  -3.28184	0.00074748	  -3.23075	0.000760828	  -3.23075	   19.0207	
  -3.32001	0.000752175	  -3.38705	0.000775805	  -3.42828	0.00074418	  -3.37845	0.000757387	  -3.37845	   18.9347	
  -3.46757	0.000748602	  -3.53566	0.000772331	  -3.57517	0.000740779	  -3.52613	0.000753904	  -3.52613	   18.8476	
  -3.61425	0.000745113	  -3.68425	0.000768806	  -3.72145	0.000737355	  -3.67332	0.000750425	  -3.67332	   18.7606	
  -3.76225	0.000741692	  -3.83181	0.000765249	  -3.86721	0.000733929	  -3.82042	0.000746957	  -3.82042	   18.6739	
  -3.90992	0.00073831	  -3.97897	0.000761688	  -4.01306	0.000730512	  -3.96732	0.000743503	  -3.96732	   18.5876	
  -4.05784	0.000734912	  -4.12633	0.000758138	  -4.15796	0.000727156	  -4.11405	0.000740069	  -4.11405	   18.5017	
   -4.2055	0.000731436	   -4.2739	0.000754598	  -4.30153	0.000723807	  -4.26031	0.000736614	  -4.26031	   18.4153	
  -4.35452	0.000727838	  -4.42065	0.000751065	   -4.4439	0.000720423	  -4.40636	0.000733109	  -4.40636	   18.3277	
  -4.50299	0.000724091	  -4.56733	0.000747514	  -4.58484	0.000716961	  -4.55172	0.000729522	  -4.55172	    18.238	
  -4.65123	0.000720185	  -4.71333	0.000743921	  -4.72596	0.000713356	  -4.69684	0.000725821	  -4.69684	   18.1455	
  -4.79983	0.000716146	  -4.85979	0.000740262	  -4.86625	0.000709588	  -4.84196	0.000721999	  -4.84196	     18.05	
  -4.94825	0.000712012	  -5.00566	0.000736516	  -5.00478	0.000705644	  -4.98623	0.000718058	  -4.98623	   17.9514	
  -5.09655	0.000707843	   -5.1505	0.000732681	  -5.14595	0.000701581	    -5.131	0.000714035	    -5.131	   17.8509	
  -5.24423	0.000703684	  -5.29548	0.000728755	  -5.28907	0.000697502	  -5.27626	0.000709981	  -5.27626	   17.7495	
  -5.39138	0.000699574	  -5.44063	0.000724752	  -5.43036	0.000693462	  -5.42079	0.00070593	  -5.42079	   17.6482	
  -5.53807	0.000695529	  -5.58598	0.000720696	  -5.57265	0.000689539	  -5.56557	0.000701921	  -5.56557	    17.548	
  -5.68438	0.000691536	  -5.73063	0.000716606	   -5.7176	0.000685787	  -5.71087	0.000697976	  -5.71087	   17.4494	
  -5.83037	0.000687564	   -5.8756	0.00071251	  -5.86228	0.000682174	  -5.85609	0.000694083	  -5.85609	   17.3521	
  -5.97506	0.000683569	  -6.02038	0.000708418	   -6.0073	0.000678646	  -6.00091	0.000690211	  -6.00091	   17.2553	
  -6.11912	0.000679497	  -6.16451	0.000704335	   -6.1537	0.000675087	  -6.14577	0.000686306	  -6.14577	   17.1577	
  -6.26316	0.000675316	  -6.30859	0.00070025	  -6.29879	0.000671409	  -6.29018	0.000682325	  -6.29018	   17.0581	
  -6.40619	0.000671002	  -6.45164	0.000696145	  -6.44166	0.000667527	  -6.43316	0.000678225	  -6.43316	   16.9556	
  -6.54886	0.000666554	  -6.59483	0.000691999	  -6.58413	0.000663386	  -6.57594	0.00067398	  -6.57594	   16.8495	
  -6.69163	0.000661995	  -6.73727	0.000687789	  -6.72587	0.000659001	  -6.71826	0.000669595	  -6.71826	   16.7399	
  -6.83364	0.000657357	  -6.87948	0.000683496	  -6.86634	0.000654425	  -6.85982	0.000665093	  -6.85982	   16.6273	
  -6.97604	0.000652686	  -7.02204	0.000679117	  -7.00571	0.00064973	  -7.00126	0.000660511	  -7.00126	   16.5128	
   -7.1178	0.000648021	  -7.16392	0.000674653	  -7.14411	0.000645023	  -7.14194	0.000655899	  -7.14194	   16.3975	
  -7.25954	0.000643385	  -7.30576	0.00067012	  -7.28274	0.000640392	  -7.28268	0.000651299	  -7.28268	   16.2825	
  -7.40028	0.000638786	  -7.44708	0.000665537	  -7.42217	0.00063591	  -7.42318	0.000646744	  -7.42318	   16.1686	
  -7.54014	0.000634207	  -7.58746	0.000660923	  -7.56082	0.000631592	  -7.56281	0.000642241	  -7.56281	    16.056	
  -7.67979	0.000629621	  -7.72755	 0.0006563	  -7.69933	0.000627406	  -7.70222	0.000637776	  -7.70222	   15.9444	
  -7.81877	0.000624993	  -7.86769	0.000651679	  -7.83805	0.000623287	   -7.8415	0.000633319	   -7.8415	    15.833	
  -7.95719	0.000620287	  -8.00715	0.000647058	  -7.97727	0.000619133	  -7.98054	0.000628826	  -7.98054	   15.7207	
   -8.0957	0.000615484	  -8.14658	0.00064243	   -8.1165	0.000614859	  -8.11959	0.000624258	  -8.11959	   15.6064	
  -8.23433	0.000610576	  -8.28602	0.000637775	  -8.25527	0.00061038	  -8.25854	0.000619577	  -8.25854	   15.4894	
  -8.37315	0.000605614	  -8.42449	0.000633071	   -8.3942	0.000605657	  -8.39728	0.000614781	  -8.39728	   15.3695	
  -8.51115	0.000600599	  -8.56266	0.000628298	  -8.53333	0.000600712	  -8.53572	0.00060987	  -8.53572	   15.2467	
  -8.64847	0.000595526	  -8.70062	0.000623445	   -8.6722	0.000595584	  -8.67376	0.000604852	  -8.67376	   15.1213	
  -8.78574	0.000590427	  -8.83896	0.000618509	  -8.81035	0.000590353	  -8.81168	0.000599763	  -8.81168	   14.9941	
  -8.92277	0.000585289	  -8.97694	0.000613497	  -8.94856	0.00058512	  -8.94942	0.000594636	  -8.94942	   14.8659	
   -9.0594	0.000580118	  -9.11438	0.000608426	  -9.08571	0.00057996	  -9.08649	0.000589501	  -9.08649	   14.7375	
  -9.19571	0.000574918	  -9.25191	0.000603318	    -9.223	0.000574942	  -9.22354	0.000584393	  -9.22354	   14.6098	
  -9.33234	0.000569676	  -9.38855	0.000598191	  -9.35996	0.000570078	  -9.36028	0.000579315	  -9.36028	   14.4829	
  -9.46827	0.000564397	   -9.5255	0.000593056	  -9.49615	0.000565337	  -9.49664	0.000574263	  -9.49664	   14.3566	
  -9.60416	0.00055907	  -9.66225	0.000587915	   -9.6312	0.000560655	  -9.63254	0.000569213	  -9.63254	   14.2303	
  -9.73903	0.000553701	  -9.79839	0.000582767	  -9.76631	0.00055594	  -9.76791	0.000564136	  -9.76791	   14.1034	
  -9.87356	0.000548321	  -9.93401	0.000577599	  -9.90102	0.000551112	  -9.90286	0.000559011	  -9.90286	   13.9753	
  -10.0068	0.000542915	  -10.0686	0.000572394	  -10.0352	0.000546104	  -10.0369	0.000553804	  -10.0369	   13.8451	
    -10.14	0.000537492	  -10.2035	0.000567136	  -10.1687	0.000540876	  -10.1707	0.000548501	  -10.1707	   13.7125	
  -10.2732	0.000532056	  -10.3376	0.000561814	  -10.3026	0.00053544	  -10.3045	0.000543104	  -10.3045	   13.5776	
  -10.4061	0.000526599	  -10.4712	0.000556421	  -10.4361	0.000529849	  -10.4378	0.000537623	  -10.4378	   13.4406	
  -10.5386	0.000521097	  -10.6049	0.000550963	  -10.5686	0.000524186	  -10.5707	0.000532082	  -10.5707	    13.302	
  -10.6709	0.000515524	  -10.7387	0.000545451	  -10.6999	0.000518537	  -10.7032	0.000526504	  -10.7032	   13.1626	
  -10.8042	0.000509875	  -10.8711	0.000539903	  -10.8311	0.000512975	  -10.8355	0.000520918	  -10.8355	   13.0229	
  -10.9363	0.000504159	   -11.003	0.000534331	  -10.9618	0.000507542	   -10.967	0.000515344	   -10.967	   12.8836	
  -11.0678	0.00049838	  -11.1344	0.000528759	  -11.0927	0.000502244	  -11.0983	0.000509794	  -11.0983	   12.7449	
  -11.1984	0.000492566	   -11.266	0.000523243	  -11.2238	0.000497045	  -11.2294	0.000504284	  -11.2294	   12.6071	
  -11.3294	0.00048674	  -11.3967	0.000517722	  -11.3542	0.000491879	  -11.3601	0.00049878	  -11.3601	   12.4695	
  -11.4598	0.000480916	  -11.5262	0.00051226	  -11.4845	0.00048667	  -11.4902	0.000493282	  -11.4902	    12.332	
  -11.5897	0.000475103	  -11.6553	0.000506814	  -11.6149	0.000481345	  -11.6199	0.000487754	  -11.6199	   12.1939	
  -11.7193	0.000469298	  -11.7834	0.000501292	  -11.7449	0.000475862	  -11.7492	0.000482151	  -11.7492	   12.0538	
  -11.8491	0.000463494	  -11.9098	0.000495686	  -11.8745	0.000470205	  -11.8778	0.000476462	  -11.8778	   11.9115	
  -11.9786	0.000457685	  -12.0352	0.000489961	  -12.0041	0.000464399	   -12.006	0.000470682	   -12.006	    11.767	
  -12.1085	0.000451832	  -12.1609	0.000484091	  -12.1326	0.000458502	   -12.134	0.000464808	   -12.134	   11.6202	
  -12.2379	0.00044593	  -12.2837	0.000478109	  -12.2613	0.000452584	   -12.261	0.000458874	   -12.261	   11.4719	
  -12.3665	0.00043997	  -12.4067	0.000472042	  -12.3895	0.000446709	  -12.3876	0.000452907	  -12.3876	   11.3227	
  -12.4943	0.00043394	  -12.5336	0.000465999	  -12.5171	0.000440928	   -12.515	0.000446955	   -12.515	   11.1739	
  -12.6216	0.000427847	  -12.6584	0.000460035	  -12.6441	0.000435261	  -12.6413	0.000441048	  -12.6413	   11.0262	
  -12.7489	0.00042171	  -12.7814	0.000454192	  -12.7707	0.000429698	   -12.767	 0.0004352	   -12.767	     10.88	
  -12.8754	0.000415536	  -12.9087	0.000448516	  -12.8969	0.000424195	  -12.8937	0.000429416	  -12.8937	   10.7354	
  -13.0014	0.000409363	  -13.0367	0.000442981	  -13.0224	0.000418696	  -13.0202	0.00042368	  -13.0202	    10.592	
   -13.127	0.000403207	  -13.1635	0.000437532	  -13.1463	0.000413134	  -13.1456	0.000417958	  -13.1456	   10.4489	
  -13.2521	0.000397079	  -13.2913	0.000432098	  -13.2694	0.000407455	  -13.2709	0.000412211	  -13.2709	   10.3053	
  -13.3764	0.000390986	  -13.4187	0.000426577	  -13.3924	0.00040163	  -13.3958	0.000406398	  -13.3958	   10.1599	
  -13.5001	0.000384927	  -13.5431	0.000420916	  -13.5155	0.000395666	  -13.5196	0.000400503	  -13.5196	   10.0126	
  -13.6234	0.000378882	   -13.667	0.000415061	  -13.6376	0.000389589	  -13.6427	0.000394511	  -13.6427	   9.86277	
  -13.7464	0.000372837	    -13.79	0.000409009	  -13.7585	0.000383458	  -13.7649	0.000388434	  -13.7649	   9.71086	
  -13.8687	0.00036676	  -13.9107	0.000402811	  -13.8788	0.000377336	  -13.8861	0.000382303	  -13.8861	   9.55756	
  -13.9903	0.000360635	  -14.0294	0.00039653	   -13.998	0.00037128	  -14.0059	0.000376148	  -14.0059	   9.40371	
  -14.1111	0.000354447	   -14.149	0.000390254	  -14.1165	0.000365332	  -14.1255	0.000370011	  -14.1255	   9.25027	
  -14.2318	0.000348201	  -14.2675	0.000384068	  -14.2345	0.000359498	  -14.2446	0.000363922	  -14.2446	   9.09806	
  -14.3524	0.000341901	  -14.3851	0.000378028	  -14.3517	0.000353758	  -14.3631	0.000357895	  -14.3631	   8.94739	
  -14.4715	0.000335568	  -14.5036	0.000372159	  -14.4694	0.000348064	  -14.4815	0.00035193	  -14.4815	   8.79825	
  -14.5895	0.00032923	   -14.621	0.000366422	  -14.5866	0.000342353	   -14.599	0.000346002	   -14.599	   8.65004	
  -14.7069	0.000322921	  -14.7385	0.000360756	  -14.7029	0.000336568	  -14.7161	0.000340082	  -14.7161	   8.50204	
  -14.8236	0.000316648	  -14.8557	0.000355088	   -14.819	0.000330666	  -14.8328	0.000334134	  -14.8328	   8.35335	
  -14.9392	0.000310422	  -14.9715	0.000349319	  -14.9339	0.000324629	  -14.9482	0.000328123	  -14.9482	   8.20308	
  -15.0544	0.000304244	  -15.0869	0.000343385	   -15.048	0.000318467	  -15.0631	0.000322032	  -15.0631	    8.0508	
  -15.1689	0.000298066	  -15.2021	0.00033725	   -15.161	0.00031221	  -15.1773	0.000315842	  -15.1773	   7.89605	
  -15.2828	0.000291867	  -15.3173	0.000330922	  -15.2731	0.000305913	  -15.2911	0.000309567	  -15.2911	   7.73918	
  -15.3964	0.000285649	  -15.4309	0.000324456	  -15.3846	0.00029964	   -15.404	0.000303248	   -15.404	    7.5812	
  -15.5098	0.000279354	  -15.5439	0.000317923	  -15.4956	0.000293394	  -15.5164	0.000296891	  -15.5164	   7.42226	
  -15.6221	0.000273018	  -15.6569	0.000311412	  -15.6064	0.00028723	  -15.6285	0.000290553	  -15.6285	   7.26383	
  -15.7331	0.000266623	  -15.7685	0.000304998	  -15.7161	0.000281179	  -15.7392	0.000284267	  -15.7392	   7.10667	
   -15.844	0.000260228	  -15.8796	0.000298723	  -15.8251	0.000275229	  -15.8496	0.00027806	  -15.8496	   6.95149	
  -15.9545	0.000253864	  -15.9903	0.000292601	   -15.934	0.000269348	  -15.9596	0.000271938	  -15.9596	   6.79844	
  -16.0648	0.000247511	  -16.1002	0.000286607	   -16.043	0.000263515	  -16.0693	0.000265877	  -16.0693	   6.64693	
  -16.1745	0.000241186	  -16.2097	0.000280675	  -16.1511	0.000257676	  -16.1784	0.000259846	  -16.1784	   6.49615	
  -16.2833	0.000234875	  -16.3198	0.000274729	  -16.2585	0.000251777	  -16.2872	0.000253794	  -16.2872	   6.34484	
  -16.3926	0.000228519	  -16.4292	0.000268686	  -16.3656	0.000245775	  -16.3958	0.00024766	  -16.3958	    6.1915	
  -16.5012	0.000222104	   -16.538	0.000262497	  -16.4719	0.00023966	  -16.5037	0.00024142	  -16.5037	   6.03551	
  -16.6096	0.000215593	   -16.646	0.000256139	  -16.5772	0.000233438	  -16.6109	0.000235056	  -16.6109	   5.87641	
  -16.7171	0.000209002	  -16.7537	0.000249622	  -16.6817	0.000227131	  -16.7175	0.000228585	  -16.7175	   5.71462	
  -16.8248	0.000202359	  -16.8609	0.000242996	  -16.7857	0.000220775	  -16.8238	0.000222043	  -16.8238	   5.55108	
  -16.9316	0.000195691	  -16.9673	0.000236327	  -16.8883	0.000214427	  -16.9291	0.000215482	  -16.9291	   5.38705	
  -17.0379	0.000189058	  -17.0733	0.000229693	  -16.9915	0.000208129	  -17.0342	0.00020896	  -17.0342	     5.224	
  -17.1428	0.000182498	  -17.1779	0.00022316	  -17.0942	0.000201905	  -17.1383	0.000202521	  -17.1383	   5.06302	
  -17.2477	0.000176033	  -17.2814	0.000216761	  -17.1967	0.000195741	  -17.2419	0.000196178	  -17.2419	   4.90446	
  -17.3516	0.000169674	  -17.3836	 0.0002105	  -17.2982	0.000189662	  -17.3445	0.000189945	  -17.3445	   4.74863	
  -17.4545	0.00016339	  -17.4846	0.000204343	  -17.3988	0.000183608	   -17.446	0.000183781	   -17.446	   4.59452	
  -17.5565	0.000157158	  -17.5849	0.000198231	  -17.4994	0.000177562	   -17.547	0.00017765	   -17.547	   4.44126	
  -17.6573	0.000150925	  -17.6852	0.000192098	  -17.5992	0.000171521	  -17.6472	0.000171515	  -17.6472	   4.28787	
  -17.7578	0.000144641	  -17.7851	0.000185877	  -17.6984	0.000165456	  -17.7471	0.000165325	  -17.7471	   4.13312	
   -17.858	0.000138283	  -17.8834	0.00017953	  -17.7972	0.000159368	  -17.8462	0.00015906	  -17.8462	   3.97651	
  -17.9572	0.000131827	   -17.982	0.000173055	  -17.8954	0.000153255	  -17.9449	0.000152712	  -17.9449	    3.8178	
  -18.0557	0.000125275	  -18.0804	0.000166481	  -17.9937	0.000147117	  -18.0433	0.000146291	  -18.0433	   3.65727	
  -18.1537	0.000118653	  -18.1774	0.000159848	  -18.0908	0.000140983	  -18.1406	0.000139828	  -18.1406	    3.4957	
  -18.2513	0.000111998	  -18.2737	0.000153202	   -18.187	0.000134836	  -18.2373	0.000133345	  -18.2373	   3.33364	
  -18.3483	0.00010537	   -18.368	0.000146593	   -18.282	0.000128676	  -18.3328	0.000126879	  -18.3328	   3.17198	
  -18.4445	9.8794e-05	  -18.4618	0.00014006	  -18.3767	0.000122515	  -18.4277	0.000120456	  -18.4277	    3.0114	
  -18.5397	9.23019e-05	  -18.5559	0.000133569	  -18.4706	0.000116333	  -18.5221	0.000114068	  -18.5221	    2.8517	
  -18.6341	8.59081e-05	  -18.6498	0.000127146	  -18.5637	0.000110104	  -18.6159	0.000107719	  -18.6159	   2.69298	
  -18.7284	7.95967e-05	  -18.7429	0.000120801	  -18.6556	0.000103814	   -18.709	0.000101404	   -18.709	    2.5351	
  -18.8215	7.33517e-05	  -18.8353	0.000114494	  -18.7471	9.74838e-05	  -18.8013	9.51098e-05	  -18.8013	   2.37775	
  -18.9129	6.7121e-05	  -18.9268	0.000108191	  -18.8386	9.11512e-05	  -18.8928	8.88209e-05	  -18.8928	   2.22052	
  -19.0036	6.08746e-05	  -19.0176	0.000101907	  -18.9304	 8.484e-05	  -18.9839	8.25405e-05	  -18.9839	   2.06351	
  -19.0934	5.45843e-05	  -19.1076	9.56253e-05	  -19.0219	7.85989e-05	  -19.0743	7.62695e-05	  -19.0743	   1.90674	
  -19.1825	4.82209e-05	  -19.1965	8.93183e-05	  -19.1141	7.24653e-05	  -19.1643	7.00015e-05	  -19.1643	   1.75004	
  -19.2713	4.1796e-05	   -19.284	8.2965e-05	  -19.2064	6.64368e-05	  -19.2539	6.37326e-05	  -19.2539	   1.59332	
  -19.3589	3.53309e-05	  -19.3712	7.6578e-05	  -19.2977	6.04941e-05	  -19.3426	5.74677e-05	  -19.3426	   1.43669	
  -19.4463	2.88393e-05	  -19.4572	7.01887e-05	   -19.388	5.46005e-05	  -19.4305	5.12095e-05	  -19.4305	   1.28024	
  -19.5326	2.23697e-05	  -19.5418	6.37807e-05	  -19.4773	4.87027e-05	  -19.5172	4.4951e-05	  -19.5172	   1.12378	
  -19.6171	1.59384e-05	  -19.6258	5.73569e-05	  -19.5648	4.27887e-05	  -19.6026	3.86947e-05	  -19.6026	  0.967367	
  -19.7014	9.56741e-06	   -19.709	5.09393e-05	  -19.6509	3.67899e-05	  -19.6871	3.24322e-05	  -19.6871	  0.810805	
  -19.7845	3.26603e-06	  -19.7913	4.45311e-05	  -19.7354	3.06761e-05	  -19.7704	2.61577e-05	  -19.7704	  0.653943	
  -19.8668	-2.99061e-06	  -19.8729	3.81256e-05	  -19.8181	2.44709e-05	  -19.8526	1.98686e-05	  -19.8526	  0.496716	
   -19.948	-9.21844e-06	  -19.9536	3.1729e-05	  -19.8985	1.8181e-05	  -19.9334	1.35638e-05	  -19.9334	  0.339096	
  -20.0286	-1.54439e-05	  -20.0338	2.53334e-05	  -19.9774	1.18435e-05	  -20.0133	7.2443e-06	  -20.0133	  0.181108	
  -20.1084	-2.17039e-05	  -20.1138	1.89547e-05	  -20.0552	5.52468e-06	  -20.0925	9.25162e-07	  -20.0925	  0.023129	
   -20.187	-2.801e-05	  -20.1934	1.25953e-05	  -20.1329	-7.60703e-07	  -20.1711	-5.3918e-06	  -20.1711	 -0.134795	
  -20.2664	-3.43759e-05	  -20.2711	6.26254e-06	  -20.2091	-6.97184e-06	  -20.2489	-1.16951e-05	  -20.2489	 -0.292377	
  -20.3451	-4.07918e-05	  -20.3491	-3.18244e-08	  -20.2834	-1.30891e-05	  -20.3259	-1.79709e-05	  -20.3259	 -0.449273	
  -20.4224	-4.72384e-05	  -20.4266	-6.28469e-06	  -20.3592	-1.9123e-05	  -20.4027	-2.42154e-05	  -20.4027	 -0.605384	
  -20.4984	-5.36955e-05	  -20.5032	-1.25054e-05	  -20.4344	-2.50784e-05	  -20.4787	-3.04265e-05	  -20.4787	 -0.760662	
  -20.5733	-6.0128e-05	  -20.5789	-1.87083e-05	  -20.5069	-3.09845e-05	   -20.553	-3.66069e-05	   -20.553	 -0.915173	
  -20.6475	-6.65147e-05	  -20.6534	-2.49122e-05	  -20.5807	-3.6887e-05	  -20.6272	-4.27713e-05	  -20.6272	  -1.06928	
  -20.7204	-7.28418e-05	  -20.7272	-3.11266e-05	   -20.655	-4.28175e-05	  -20.7009	-4.89286e-05	  -20.7009	  -1.22322	
  -20.7928	-7.90996e-05	  -20.7994	-3.73689e-05	  -20.7269	-4.88203e-05	   -20.773	-5.50963e-05	   -20.773	  -1.37741	
  -20.8643	-8.53022e-05	   -20.871	-4.36625e-05	  -20.7991	-5.48967e-05	  -20.8448	-6.12871e-05	  -20.8448	  -1.53218	
  -20.9345	-9.14672e-05	  -20.9418	-4.99715e-05	  -20.8697	-6.10327e-05	  -20.9153	-6.74905e-05	  -20.9153	  -1.68726	
  -21.0043	-9.76191e-05	  -21.0112	-5.62982e-05	  -20.9368	-6.72237e-05	  -20.9841	-7.37136e-05	  -20.9841	  -1.84284	
  -21.0728	-0.000103782	  -21.0806	-6.26337e-05	  -21.0049	-7.34335e-05	  -21.0528	-7.99498e-05	  -21.0528	  -1.99875	
  -21.1406	-0.00010997	  -21.1488	-6.89288e-05	  -21.0725	-7.96173e-05	  -21.1206	-8.61719e-05	  -21.1206	   -2.1543	
  -21.2075	-0.000116193	   -21.216	-7.51816e-05	  -21.1379	-8.57341e-05	  -21.1871	-9.23696e-05	  -21.1871	  -2.30924	
  -21.2743	-0.000122448	  -21.2813	-8.13738e-05	  -21.2027	-9.17462e-05	  -21.2527	-9.85228e-05	  -21.2527	  -2.46307	
  -21.3398	-0.000128722	  -21.3459	-8.74832e-05	  -21.2676	-9.76477e-05	  -21.3178	-0.000104618	  -21.3178	  -2.61544	
   -21.404	-0.000134995	  -21.4099	-9.35143e-05	  -21.3312	-0.000103447	  -21.3817	-0.000110652	  -21.3817	  -2.76631	
  -21.4672	-0.000141246	   -21.473	-9.94649e-05	  -21.3946	-0.000109183	  -21.4449	-0.000116631	  -21.4449	  -2.91578	
  -21.5298	-0.000147457	  -21.5361	-0.000105375	  -21.4572	-0.000114909	  -21.5077	-0.00012258	  -21.5077	  -3.06451	
  -21.5922	-0.000153614	  -21.5986	-0.000111284	  -21.5189	-0.00012068	  -21.5699	-0.000128526	  -21.5699	  -3.21315	
  -21.6536	-0.000159714	  -21.6601	-0.000117222	  -21.5799	-0.000126539	  -21.6312	-0.000134492	  -21.6312	  -3.36229	
  -21.7144	-0.000165765	  -21.7202	-0.000123231	  -21.6407	-0.000132498	  -21.6918	-0.000140498	  -21.6918	  -3.51245	
  -21.7746	-0.000171777	  -21.7797	-0.000129324	  -21.7005	-0.000138543	  -21.7516	-0.000146548	  -21.7516	  -3.66369	
  -21.8349	-0.000177764	  -21.8386	-0.000135476	  -21.7593	-0.000144638	  -21.8109	-0.000152626	  -21.8109	  -3.81566	
  -21.8943	-0.000183744	  -21.8963	-0.000141667	  -21.8172	-0.000150726	  -21.8693	-0.000158712	  -21.8693	   -3.9678	
  -21.9524	-0.000189725	  -21.9531	-0.000147852	  -21.8744	-0.00015676	  -21.9266	-0.000164779	  -21.9266	  -4.11947	
  -22.0099	-0.000195713	  -22.0094	-0.000153989	  -21.9296	-0.000162692	  -21.9829	-0.000170798	  -21.9829	  -4.26995	
  -22.0664	-0.000201703	   -22.065	-0.000160037	  -21.9839	-0.000168494	  -22.0384	-0.000176745	  -22.0384	  -4.41863	
  -22.1219	-0.000207688	  -22.1188	-0.000165983	  -22.0371	-0.000174178	  -22.0926	-0.000182616	  -22.0926	  -4.56541	
  -22.1763	-0.000213656	  -22.1717	-0.000171825	  -22.0898	-0.000179772	  -22.1459	-0.000188418	  -22.1459	  -4.71044	
  -22.2295	-0.00021959	  -22.2237	-0.00017758	  -22.1417	-0.000185312	  -22.1983	-0.000194161	  -22.1983	  -4.85402	
  -22.2819	-0.000225482	  -22.2752	-0.000183297	  -22.1929	-0.000190849	    -22.25	-0.000199876	    -22.25	   -4.9969	
  -22.3333	-0.000231324	  -22.3259	-0.000189007	  -22.2426	-0.000196423	  -22.3006	-0.000205585	  -22.3006	  -5.13961	
  -22.3838	-0.000237116	  -22.3753	-0.000194745	  -22.2914	-0.000202044	  -22.3502	-0.000211302	  -22.3502	  -5.28254	
  -22.4332	-0.000242864	   -22.424	-0.000200526	  -22.3407	-0.000207732	  -22.3993	-0.000217041	  -22.3993	  -5.42602	
   -22.482	-0.000248577	  -22.4712	-0.000206305	  -22.3893	-0.000213473	  -22.4475	-0.000222785	  -22.4475	  -5.56963	
  -22.5306	-0.00025427	  -22.5174	-0.000212107	  -22.4364	-0.000219234	  -22.4948	-0.000228537	  -22.4948	  -5.71343	
  -22.5783	-0.000259955	  -22.5621	-0.000217944	  -22.4827	-0.000224981	   -22.541	-0.000234293	   -22.541	  -5.85734	
  -22.6251	-0.00026564	  -22.6058	-0.000223774	  -22.5279	-0.000230684	  -22.5863	-0.000240033	  -22.5863	  -6.00082	
  -22.6708	-0.000271332	  -22.6483	-0.000229583	  -22.5727	-0.000236321	  -22.6306	-0.000245745	  -22.6306	  -6.14363	
  -22.7156	-0.000277023	    -22.69	-0.000235382	  -22.6165	-0.000241883	   -22.674	-0.000251429	   -22.674	  -6.28573	
  -22.7592	-0.000282704	  -22.7309	-0.000241155	  -22.6596	-0.000247362	  -22.7166	-0.000257073	  -22.7166	  -6.42684	
  -22.8026	-0.000288362	  -22.7706	-0.000246905	  -22.7025	-0.000252772	  -22.7586	-0.00026268	  -22.7586	    -6.567	
  -22.8447	-0.000293988	  -22.8094	-0.000252615	  -22.7439	-0.000258136	  -22.7993	-0.000268246	  -22.7993	  -6.70616	
  -22.8854	-0.000299574	  -22.8479	-0.000258301	  -22.7844	-0.000263477	  -22.8392	-0.000273784	  -22.8392	   -6.8446	
  -22.9257	-0.000305115	  -22.8865	-0.00026396	  -22.8233	-0.000268825	  -22.8785	-0.0002793	  -22.8785	   -6.9825	
  -22.9656	-0.000310612	   -22.924	-0.000269577	  -22.8613	-0.000274189	  -22.9169	-0.000284793	  -22.9169	  -7.11982	
  -23.0049	-0.000316071	  -22.9608	-0.000275155	  -22.8992	-0.000279579	   -22.955	-0.000290268	   -22.955	  -7.25671	
   -23.043	-0.000321501	  -22.9962	-0.000280697	  -22.9358	-0.000284994	  -22.9917	-0.000295731	  -22.9917	  -7.39326	
  -23.0799	-0.000326914	  -23.0314	-0.000286201	  -22.9716	-0.00029041	  -23.0277	-0.000301175	  -23.0277	  -7.52938	
  -23.1151	-0.000332318	  -23.0659	-0.00029168	  -23.0063	-0.00029581	  -23.0624	-0.000306603	  -23.0624	  -7.66506	
  -23.1497	-0.000337717	  -23.0995	-0.000297139	  -23.0396	-0.000301167	  -23.0963	-0.000312008	  -23.0963	  -7.80019	
  -23.1824	-0.000343113	  -23.1322	-0.000302588	  -23.0728	-0.000306461	  -23.1291	-0.000317387	  -23.1291	  -7.93468	
  -23.2139	-0.000348498	   -23.164	-0.000308034	  -23.1056	-0.000311684	  -23.1612	-0.000322739	  -23.1612	  -8.06847	
  -23.2447	-0.000353861	  -23.1959	-0.000313479	  -23.1376	-0.000316832	  -23.1927	-0.000328057	  -23.1927	  -8.20143	
  -23.2743	-0.000359184	  -23.2263	-0.000318932	  -23.1681	-0.000321921	  -23.2229	-0.000333346	  -23.2229	  -8.33364	
  -23.3036	-0.00036446	  -23.2551	-0.000324389	  -23.1972	-0.000326966	   -23.252	-0.000338605	   -23.252	  -8.46513	
  -23.3321	-0.000369699	  -23.2835	-0.000329836	  -23.2254	-0.000331989	  -23.2803	-0.000343841	  -23.2803	  -8.59603	
  -23.3602	-0.000374909	  -23.3103	-0.000335263	  -23.2532	-0.000337016	  -23.3079	-0.000349063	  -23.3079	  -8.72657	
   -23.388	-0.000380108	   -23.336	-0.000340658	  -23.2795	-0.000342061	  -23.3345	-0.000354275	  -23.3345	  -8.85688	
  -23.4143	-0.000385313	  -23.3602	-0.000346022	  -23.3048	-0.000347122	  -23.3597	-0.000359486	  -23.3597	  -8.98714	
  -23.4391	-0.000390534	  -23.3834	-0.000351348	  -23.3291	-0.000352206	  -23.3838	-0.000364696	  -23.3838	   -9.1174	
  -23.4624	-0.000395768	  -23.4061	-0.000356636	   -23.353	-0.000357296	  -23.4072	-0.0003699	  -23.4072	  -9.24751	
  -23.4848	-0.000401013	  -23.4278	-0.000361897	  -23.3762	-0.000362378	  -23.4296	-0.000375096	  -23.4296	   -9.3774	
  -23.5058	-0.000406249	  -23.4496	-0.000367132	  -23.3985	-0.000367428	  -23.4513	-0.00038027	  -23.4513	  -9.50675	
   -23.526	-0.000411476	  -23.4703	-0.000372349	  -23.4202	-0.000372429	  -23.4721	-0.000385418	  -23.4721	  -9.63545	
  -23.5453	-0.000416659	  -23.4909	-0.000377552	  -23.4413	-0.000377364	  -23.4925	-0.000390525	  -23.4925	  -9.76312	
  -23.5638	-0.000421776	   -23.511	-0.00038274	   -23.463	-0.000382215	  -23.5126	-0.000395577	  -23.5126	  -9.88942	
  -23.5826	-0.000426823	  -23.5309	-0.000387913	  -23.4845	-0.000386976	  -23.5327	-0.000400571	  -23.5327	  -10.0143	
   -23.601	-0.000431798	  -23.5502	-0.000393073	  -23.5053	-0.000391661	  -23.5522	-0.000405511	  -23.5522	  -10.1378	
   -23.619	-0.000436705	  -23.5682	-0.000398218	  -23.5253	-0.000396279	  -23.5708	-0.0004104	  -23.5708	    -10.26	
  -23.6359	-0.000441568	  -23.5855	-0.000403345	  -23.5445	-0.000400857	  -23.5886	-0.000415257	  -23.5886	  -10.3814	
  -23.6519	-0.0004464	  -23.6021	-0.000408446	  -23.5629	-0.000405432	  -23.6056	-0.000420092	  -23.6056	  -10.5023	
  -23.6665	-0.000451236	  -23.6185	-0.000413518	   -23.579	-0.000410035	  -23.6213	-0.00042493	  -23.6213	  -10.6232	
  -23.6802	-0.000456098	  -23.6333	-0.000418559	  -23.5934	-0.000414681	  -23.6356	-0.000429779	  -23.6356	  -10.7445	
  -23.6931	-0.000460986	  -23.6474	-0.000423565	  -23.6073	-0.000419398	  -23.6493	-0.000434649	  -23.6493	  -10.8662	
  -23.7048	-0.000465909	  -23.6604	-0.000428535	  -23.6186	-0.000424137	  -23.6613	-0.000439527	  -23.6613	  -10.9882	
  -23.7151	-0.000470857	  -23.6729	-0.000433471	   -23.628	-0.000428887	   -23.672	-0.000444405	   -23.672	  -11.1101	
  -23.7243	-0.000475838	  -23.6843	-0.000438378	  -23.6361	-0.000433624	  -23.6816	-0.00044928	  -23.6816	   -11.232	
  -23.7328	-0.000480815	  -23.6942	-0.000443264	  -23.6428	-0.000438304	  -23.6899	-0.000454128	  -23.6899	  -11.3532	
  -23.7397	-0.000485725	  -23.7038	-0.00044813	  -23.6488	-0.000442905	  -23.6974	-0.00045892	  -23.6974	   -11.473	
  -23.7446	-0.000490553	  -23.7124	-0.000452981	  -23.6549	-0.000447443	   -23.704	-0.000463659	   -23.704	  -11.5915	
  -23.7486	-0.000495282	  -23.7201	-0.000457817	  -23.6593	-0.000451906	  -23.7094	-0.000468335	  -23.7094	  -11.7084	
  -23.7524	-0.000499872	   -23.727	-0.000462635	  -23.6623	-0.000456345	  -23.7139	-0.000472951	  -23.7139	  -11.8238	
  -23.7549	-0.000504339	  -23.7331	-0.000467438	  -23.6654	-0.000460761	  -23.7178	-0.000477512	  -23.7178	  -11.9378	
  -23.7568	-0.000508713	   -23.739	-0.000472222	  -23.6687	-0.000465168	  -23.7215	-0.000482034	  -23.7215	  -12.0509	
  -23.7575	-0.00051305	  -23.7435	-0.000476982	  -23.6705	-0.00046959	  -23.7239	-0.000486541	  -23.7239	  -12.1635	
  -23.7577	-0.000517396	  -23.7471	-0.000481713	  -23.6721	-0.000474018	  -23.7256	-0.000491042	  -23.7256	  -12.2761	
  -23.7568	-0.000521785	  -23.7489	-0.000486412	  -23.6724	-0.000478444	  -23.7261	-0.000495547	  -23.7261	  -12.3887	
  -23.7551	-0.00052626	  -23.7504	-0.000491077	   -23.672	-0.000482867	  -23.7258	-0.000500068	  -23.7258	  -12.5017	
  -23.7525	-0.000530826	  -23.7503	-0.000495707	  -23.6715	-0.000487265	  -23.7248	-0.000504599	  -23.7248	   -12.615	
  -23.7502	-0.000535442	  -23.7494	-0.000500301	  -23.6694	-0.000491648	   -23.723	-0.00050913	   -23.723	  -12.7283	
  -23.7466	-0.000540043	  -23.7473	-0.000504862	  -23.6667	-0.000496002	  -23.7202	-0.000513636	  -23.7202	  -12.8409	
  -23.7423	-0.000544596	  -23.7434	-0.000509392	  -23.6637	-0.000500324	  -23.7165	-0.000518104	  -23.7165	  -12.9526	
  -23.7371	-0.000549076	  -23.7387	-0.0005139	  -23.6588	-0.000504668	  -23.7116	-0.000522548	  -23.7116	  -13.0637	
   -23.731	-0.000553447	  -23.7332	-0.000518387	  -23.6533	-0.000509002	  -23.7058	-0.000526946	  -23.7058	  -13.1736	
  -23.7244	-0.000557735	  -23.7267	-0.000522857	   -23.646	-0.00051327	   -23.699	-0.000531287	   -23.699	  -13.2822	
  -23.7175	-0.000561957	   -23.719	-0.000527314	  -23.6371	-0.000517475	  -23.6912	-0.000535582	  -23.6912	  -13.3896	
  -23.7092	-0.000566137	  -23.7097	-0.000531757	  -23.6274	-0.000521621	  -23.6821	-0.000539838	  -23.6821	   -13.496	
  -23.7003	-0.000570306	  -23.6998	-0.000536184	  -23.6175	-0.000525698	  -23.6725	-0.000544062	  -23.6725	  -13.6016	
  -23.6902	-0.000574495	  -23.6891	-0.000540591	  -23.6068	-0.000529713	   -23.662	-0.000548266	   -23.662	  -13.7067	
  -23.6802	-0.000578734	   -23.677	-0.000544967	  -23.5951	-0.000533712	  -23.6508	-0.000552471	  -23.6508	  -13.8118	
  -23.6692	-0.000583006	  -23.6642	-0.000549311	  -23.5824	-0.000537743	  -23.6386	-0.000556687	  -23.6386	  -13.9172	
  -23.6574	-0.000587273	  -23.6504	-0.000553618	  -23.5694	-0.000541811	  -23.6257	-0.000560901	  -23.6257	  -14.0225	
  -23.6449	-0.000591519	  -23.6362	-0.000557894	   -23.555	-0.000545919	   -23.612	-0.000565111	   -23.612	  -14.1278	
  -23.6311	-0.000595714	  -23.6206	-0.00056214	   -23.539	-0.00055008	  -23.5969	-0.000569312	  -23.5969	  -14.2328	
  -23.6164	-0.000599829	  -23.6032	-0.00056637	  -23.5219	-0.000554274	  -23.5805	-0.000573491	  -23.5805	  -14.3373	
  -23.6002	-0.000603853	  -23.5848	-0.000570586	  -23.5045	-0.00055845	  -23.5632	-0.00057763	  -23.5632	  -14.4407	
  -23.5828	-0.000607809	   -23.566	-0.000574792	  -23.4863	-0.000562562	  -23.5451	-0.000581721	  -23.5451	   -14.543	
  -23.5638	-0.000611734	   -23.546	-0.000578985	  -23.4665	-0.000566584	  -23.5254	-0.000585768	  -23.5254	  -14.6442	
  -23.5442	-0.000615663	  -23.5255	-0.000583166	  -23.4457	-0.000570491	  -23.5051	-0.000589773	  -23.5051	  -14.7443	
  -23.5237	-0.00061962	  -23.5036	-0.000587324	   -23.424	-0.000574279	  -23.4838	-0.000593741	  -23.4838	  -14.8435	
  -23.5022	-0.000623616	  -23.4808	-0.000591456	  -23.4012	-0.000577971	  -23.4614	-0.000597681	  -23.4614	   -14.942	
  -23.4801	-0.000627642	  -23.4572	-0.000595555	  -23.3779	-0.000581612	  -23.4384	-0.000601603	  -23.4384	  -15.0401	
  -23.4566	-0.000631667	  -23.4332	-0.000599619	  -23.3531	-0.000585252	  -23.4143	-0.000605513	  -23.4143	  -15.1378	
  -23.4335	-0.000635663	  -23.4076	-0.000603649	  -23.3276	-0.000588927	  -23.3896	-0.000609413	  -23.3896	  -15.2353	
  -23.4097	-0.000639603	  -23.3813	-0.00060765	   -23.301	-0.000592665	   -23.364	-0.000613306	   -23.364	  -15.3327	
  -23.3855	-0.000643466	  -23.3544	-0.000611631	  -23.2741	-0.000596482	   -23.338	-0.000617193	   -23.338	  -15.4298	
  -23.3604	-0.000647249	  -23.3264	-0.000615607	  -23.2466	-0.000600356	  -23.3111	-0.000621071	  -23.3111	  -15.5268	
  -23.3346	-0.000650964	  -23.2981	-0.000619592	  -23.2179	-0.000604254	  -23.2835	-0.000624937	  -23.2835	  -15.6234	
  -23.3076	-0.000654602	  -23.2686	-0.000623591	  -23.1888	-0.000608141	   -23.255	-0.000628778	   -23.255	  -15.7194	
  -23.2797	-0.000658203	  -23.2381	-0.000627591	  -23.1588	-0.000611974	  -23.2255	-0.000632589	  -23.2255	  -15.8147	
  -23.2505	-0.0006618	  -23.2062	-0.000631573	  -23.1271	-0.000615716	  -23.1946	-0.000636363	  -23.1946	  -15.9091	
  -23.2196	-0.000665399	  -23.1748	-0.000635519	  -23.0944	-0.00061935	  -23.1629	-0.000640089	  -23.1629	  -16.0022	
  -23.1889	-0.000669019	  -23.1423	-0.000639395	  -23.0604	-0.000622881	  -23.1305	-0.000643765	  -23.1305	  -16.0941	
  -23.1564	-0.000672681	  -23.1089	-0.00064318	  -23.0259	-0.000626332	   -23.097	-0.000647398	   -23.097	  -16.1849	
  -23.1225	-0.000676364	  -23.0749	-0.000646871	  -22.9907	-0.000629723	  -23.0627	-0.000650986	  -23.0627	  -16.2747	
  -23.0889	-0.000680054	  -23.0405	-0.000650475	  -22.9542	-0.000633094	  -23.0279	-0.000654541	  -23.0279	  -16.3635	
  -23.0541	-0.000683732	  -23.0057	-0.000654014	  -22.9162	-0.00063648	   -22.992	-0.000658076	   -22.992	  -16.4519	
  -23.0176	-0.000687361	   -22.969	-0.000657527	  -22.8774	-0.000639902	  -22.9547	-0.000661596	  -22.9547	  -16.5399	
  -22.9809	-0.000690918	  -22.9303	-0.000661049	  -22.8375	-0.000643365	  -22.9162	-0.000665111	  -22.9162	  -16.6278	
   -22.942	-0.000694377	   -22.891	-0.00066464	  -22.7967	-0.00064686	  -22.8765	-0.000668626	  -22.8765	  -16.7156	
  -22.9012	-0.000697728	  -22.8511	-0.000668277	  -22.7551	-0.000650366	  -22.8358	-0.000672124	  -22.8358	  -16.8031	
  -22.8603	-0.00070099	  -22.8082	-0.000671962	  -22.7126	-0.000653853	  -22.7937	-0.000675602	  -22.7937	    -16.89	
  -22.8194	-0.000704186	  -22.7638	-0.000675688	  -22.6696	-0.000657287	  -22.7509	-0.000679054	  -22.7509	  -16.9763	
  -22.7761	-0.000707357	  -22.7187	-0.000679398	  -22.6259	-0.000660647	  -22.7069	-0.000682468	  -22.7069	  -17.0617	
  -22.7313	-0.000710537	   -22.673	-0.00068306	  -22.5818	-0.000663915	   -22.662	-0.000685837	   -22.662	  -17.1459	
  -22.6868	-0.000713743	   -22.627	-0.000686656	  -22.5365	-0.000667091	  -22.6168	-0.000689164	  -22.6168	  -17.2291	
  -22.6402	-0.000716999	  -22.5788	-0.000690151	  -22.4906	-0.000670188	  -22.5699	-0.000692446	  -22.5699	  -17.3111	
  -22.5917	-0.0007203	  -22.5297	-0.000693571	   -22.444	-0.000673234	  -22.5218	-0.000695702	  -22.5218	  -17.3925	
  -22.5432	-0.000723618	  -22.4811	-0.000696917	  -22.3962	-0.000676265	  -22.4735	-0.000698933	  -22.4735	  -17.4733	
  -22.4929	-0.00072692	  -22.4305	-0.000700202	  -22.3474	-0.000679308	  -22.4236	-0.000702143	  -22.4236	  -17.5536	
  -22.4409	-0.000730181	  -22.3798	-0.000703472	  -22.2969	-0.000682382	  -22.3725	-0.000705345	  -22.3725	  -17.6336	
  -22.3888	-0.000733377	   -22.329	-0.000706741	  -22.2455	-0.000685491	  -22.3211	-0.000708537	  -22.3211	  -17.7134	
  -22.3356	-0.000736464	  -22.2769	-0.000710035	  -22.1936	-0.000688622	  -22.2687	-0.000711707	  -22.2687	  -17.7927	
  -22.2816	-0.000739474	  -22.2242	-0.000713363	  -22.1402	-0.000691753	  -22.2153	-0.000714863	  -22.2153	  -17.8716	
  -22.2275	-0.000742406	  -22.1722	-0.000716712	  -22.0857	-0.000694851	  -22.1618	-0.00071799	  -22.1618	  -17.9497	
  -22.1725	-0.000745268	  -22.1185	-0.000720089	  -22.0309	-0.000697884	  -22.1073	-0.00072108	  -22.1073	   -18.027	
  -22.1164	-0.000748097	  -22.0637	-0.000723462	  -21.9748	-0.000700832	  -22.0516	-0.00072413	  -22.0516	  -18.1033	
    -22.06	-0.000750912	  -22.0081	-0.000726801	  -21.9179	-0.000703688	  -21.9953	-0.000727134	  -21.9953	  -18.1783	
  -22.0029	-0.000753728	  -21.9511	-0.000730079	  -21.8603	-0.000706458	  -21.9381	-0.000730088	  -21.9381	  -18.2522	
  -21.9449	-0.000756548	  -21.8923	-0.000733291	  -21.8019	-0.000709168	  -21.8797	-0.000733002	  -21.8797	  -18.3251	
  -21.8867	-0.000759373	  -21.8332	-0.000736445	  -21.7422	-0.000711844	  -21.8207	-0.000735887	  -21.8207	  -18.3972	
  -21.8275	-0.000762221	   -21.773	-0.00073951	  -21.6828	-0.000714517	  -21.7611	-0.000738749	  -21.7611	  -18.4687	
  -21.7665	-0.000765075	  -21.7119	-0.000742532	  -21.6232	-0.000717211	  -21.7005	-0.000741606	  -21.7005	  -18.5402	
  -21.7052	-0.000767926	  -21.6507	-0.00074554	   -21.562	-0.00071993	  -21.6393	-0.000744465	  -21.6393	  -18.6116	
  -21.6432	-0.000770762	  -21.5882	-0.000748515	  -21.4997	-0.000722684	   -21.577	-0.00074732	   -21.577	   -18.683	
  -21.5799	-0.000773564	  -21.5243	-0.000751481	   -21.437	-0.000725461	  -21.5137	-0.000750169	  -21.5137	  -18.7542	
  -21.5159	-0.00077632	  -21.4607	-0.000754436	  -21.3731	-0.000728213	  -21.4499	-0.00075299	  -21.4499	  -18.8248	
  -21.4516	-0.000779009	  -21.3975	-0.00075737	  -21.3089	-0.000730956	   -21.386	-0.000755778	   -21.386	  -18.8945	
  -21.3862	-0.000781624	  -21.3329	-0.000760283	  -21.2435	-0.000733653	  -21.3209	-0.00075852	  -21.3209	   -18.963	
  -21.3204	-0.000784171	  -21.2671	-0.000763153	  -21.1773	-0.000736279	   -21.255	-0.000761201	   -21.255	    -19.03	
  -21.2546	-0.000786653	  -21.2006	-0.000766005	  -21.1106	-0.000738839	  -21.1886	-0.000763832	  -21.1886	  -19.0958	
  -21.1879	-0.00078909	  -21.1325	-0.000768836	  -21.0425	-0.000741329	   -21.121	-0.000766418	   -21.121	  -19.1605	
  -21.1201	-0.000791508	  -21.0637	-0.000771648	   -20.974	-0.000743757	  -21.0526	-0.000768971	  -21.0526	  -19.2243	
  -21.0512	-0.000793931	  -20.9938	-0.000774458	  -20.9038	-0.000746134	  -20.9829	-0.000771508	  -20.9829	  -19.2877	
  -20.9818	-0.000796378	  -20.9223	-0.00077726	  -20.8332	-0.000748482	  -20.9124	-0.00077404	  -20.9124	   -19.351	
  -20.9112	-0.000798867	  -20.8495	-0.00078005	  -20.7626	-0.00075085	  -20.8411	-0.000776589	  -20.8411	  -19.4147	
  -20.8391	-0.000801372	  -20.7763	-0.000782821	   -20.691	-0.000753264	  -20.7688	-0.000779152	  -20.7688	  -19.4788	
  -20.7659	-0.000803877	  -20.7025	-0.000785551	  -20.6179	-0.000755725	  -20.6954	-0.000781718	  -20.6954	  -19.5429	
  -20.6914	-0.000806381	  -20.6267	-0.000788237	   -20.544	-0.000758242	  -20.6207	-0.000784287	  -20.6207	  -19.6072	
   -20.616	-0.000808825	  -20.5504	-0.00079086	  -20.4691	-0.000760795	  -20.5452	-0.000786827	  -20.5452	  -19.6707	
  -20.5395	-0.0008112	  -20.4734	-0.000793417	  -20.3942	-0.000763345	   -20.469	-0.00078932	   -20.469	   -19.733	
  -20.4626	-0.000813504	  -20.3961	-0.000795917	  -20.3177	-0.000765853	  -20.3921	-0.000791758	  -20.3921	   -19.794	
  -20.3847	-0.000815737	  -20.3186	-0.000798365	  -20.2396	-0.00076829	  -20.3143	-0.000794131	  -20.3143	  -19.8533	
  -20.3066	-0.000817917	  -20.2398	-0.000800782	   -20.161	-0.000770622	  -20.2358	-0.00079644	  -20.2358	   -19.911	
  -20.2287	-0.000820075	  -20.1604	-0.000803184	  -20.0819	-0.000772852	   -20.157	-0.000798704	   -20.157	  -19.9676	
  -20.1496	-0.000822239	  -20.0809	-0.000805582	  -20.0018	-0.000774996	  -20.0774	-0.000800939	  -20.0774	  -20.0235	
  -20.0696	-0.000824421	  -20.0004	-0.000807991	    -19.92	-0.000777081	  -19.9967	-0.000803164	  -19.9967	  -20.0791	
  -19.9887	-0.000826606	  -19.9187	-0.000810408	  -19.8372	-0.00077915	  -19.9149	-0.000805388	  -19.9149	  -20.1347	
   -19.907	-0.000828801	  -19.8363	-0.00081283	   -19.754	-0.000781241	  -19.8324	-0.000807624	  -19.8324	  -20.1906	
  -19.8236	-0.000830979	  -19.7537	-0.000815241	  -19.6701	-0.00078338	  -19.7491	-0.000809867	  -19.7491	  -20.2467	
  -19.7392	-0.000833116	  -19.6709	-0.000817623	  -19.5853	-0.000785585	  -19.6651	-0.000812108	  -19.6651	  -20.3027	
  -19.6547	-0.000835203	  -19.5873	-0.000819965	  -19.4995	-0.00078784	  -19.5805	-0.000814336	  -19.5805	  -20.3584	
  -19.5693	-0.000837228	  -19.5025	-0.000822251	  -19.4135	-0.000790129	  -19.4951	-0.000816536	  -19.4951	  -20.4134	
   -19.483	-0.000839195	  -19.4176	-0.000824475	  -19.3271	-0.000792426	  -19.4092	-0.000818699	  -19.4092	  -20.4675	
   -19.396	-0.000841131	  -19.3318	-0.000826641	  -19.2407	-0.000794695	  -19.3228	-0.000820822	  -19.3228	  -20.5206	
  -19.3087	-0.000843045	  -19.2448	-0.000828753	  -19.1534	-0.000796898	  -19.2357	-0.000822899	  -19.2357	  -20.5725	
  -19.2209	-0.000844972	  -19.1573	-0.000830828	  -19.0658	-0.000799015	   -19.148	-0.000824938	   -19.148	  -20.6235	
  -19.1325	-0.000846917	  -19.0689	-0.000832879	  -18.9775	-0.000801035	  -19.0596	-0.000826944	  -19.0596	  -20.6736	
  -19.0431	-0.000848873	  -18.9799	-0.000834921	  -18.8884	-0.000802979	  -18.9705	-0.000828925	  -18.9705	  -20.7231	
  -18.9532	-0.000850847	  -18.8897	-0.000836964	  -18.7994	-0.000804857	  -18.8808	-0.00083089	  -18.8808	  -20.7722	
  -18.8627	-0.000852813	  -18.7982	-0.000839013	  -18.7091	-0.000806705	    -18.79	-0.000832844	    -18.79	  -20.8211	
  -18.7718	-0.00085475	  -18.7052	-0.000841064	   -18.618	-0.000808565	  -18.6983	-0.000834793	  -18.6983	  -20.8698	
  -18.6794	-0.00085664	  -18.6116	-0.000843105	  -18.5265	-0.000810448	  -18.6058	-0.000836731	  -18.6058	  -20.9183	
  -18.5858	-0.000858461	  -18.5179	-0.000845119	  -18.4343	-0.000812373	  -18.5127	-0.000838651	  -18.5127	  -20.9663	
   -18.492	-0.000860214	  -18.4239	-0.000847093	  -18.3414	-0.000814334	  -18.4191	-0.000840547	  -18.4191	  -21.0137	
  -18.3977	-0.000861904	  -18.3303	-0.000849016	  -18.2471	-0.000816301	   -18.325	-0.000842407	   -18.325	  -21.0602	
  -18.3034	-0.000863541	   -18.236	-0.000850884	  -18.1517	-0.000818254	  -18.2303	-0.000844226	  -18.2303	  -21.1057	
  -18.2083	-0.000865148	  -18.1407	-0.000852697	  -18.0562	-0.000820161	  -18.1351	-0.000846002	  -18.1351	  -21.1501	
  -18.1128	-0.000866745	  -18.0449	-0.000854462	  -17.9603	-0.000821994	  -18.0394	-0.000847733	  -18.0394	  -21.1933	
  -18.0162	-0.000868347	  -17.9484	-0.000856188	  -17.8635	-0.000823756	  -17.9427	-0.000849431	  -17.9427	  -21.2358	
   -17.919	-0.000869962	  -17.8511	-0.000857883	   -17.766	-0.00082544	  -17.8454	-0.000851095	  -17.8454	  -21.2774	
  -17.8204	-0.000871587	  -17.7532	-0.000859556	  -17.6678	-0.000827074	  -17.7471	-0.000852739	  -17.7471	  -21.3185	
  -17.7213	-0.000873216	  -17.6544	-0.000861218	  -17.5692	-0.000828684	  -17.6483	-0.000854373	  -17.6483	  -21.3593	
  -17.6222	-0.000874831	  -17.5554	-0.00086288	  -17.4701	-0.00083029	  -17.5492	-0.000856001	  -17.5492	     -21.4	
  -17.5218	-0.000876413	   -17.455	-0.000864547	  -17.3698	-0.000831921	  -17.4488	-0.000857627	  -17.4488	  -21.4407	
  -17.4212	-0.000877949	  -17.3541	-0.000866229	  -17.2687	-0.000833577	   -17.348	-0.000859252	   -17.348	  -21.4813	
   -17.319	-0.000879426	  -17.2526	-0.000867921	  -17.1672	-0.000835257	  -17.2463	-0.000860868	  -17.2463	  -21.5217	
  -17.2164	-0.000880844	  -17.1498	-0.000869604	  -17.0652	-0.000836955	  -17.1438	-0.000862468	  -17.1438	  -21.5617	
  -17.1125	-0.000882211	  -17.0467	-0.000871261	  -16.9625	-0.000838647	  -17.0406	-0.00086404	  -17.0406	   -21.601	
  -17.0085	-0.000883542	  -16.9422	-0.000872918	  -16.8595	-0.000840316	  -16.9367	-0.000865592	  -16.9367	  -21.6398	
  -16.9035	-0.00088485	  -16.8371	-0.00087455	  -16.7561	-0.000841936	  -16.8323	-0.000867112	  -16.8323	  -21.6778	
  -16.7965	-0.000886152	  -16.7309	-0.00087611	  -16.6517	-0.00084349	  -16.7264	-0.000868584	  -16.7264	  -21.7146	
  -16.6891	-0.000887455	  -16.6245	-0.000877577	  -16.5465	-0.000844981	    -16.62	-0.000870004	    -16.62	  -21.7501	
  -16.5815	-0.000888762	  -16.5183	-0.000878959	  -16.4401	-0.000846405	  -16.5133	-0.000871375	  -16.5133	  -21.7844	
  -16.4732	-0.000890063	  -16.4106	-0.000880235	  -16.3328	-0.000847786	  -16.4055	-0.000872695	  -16.4055	  -21.8174	
  -16.3641	-0.000891346	  -16.3027	-0.000881415	  -16.2245	-0.000849147	  -16.2971	-0.000873969	  -16.2971	  -21.8492	
  -16.2545	-0.000892598	  -16.1942	-0.000882534	  -16.1163	-0.000850502	  -16.1883	-0.000875211	  -16.1883	  -21.8803	
  -16.1439	-0.000893804	  -16.0854	-0.000883645	  -16.0069	-0.000851878	  -16.0787	-0.000876442	  -16.0787	  -21.9111	
  -16.0322	-0.000894958	  -15.9761	-0.000884768	  -15.8969	-0.000853274	  -15.9684	-0.000877667	  -15.9684	  -21.9417	
  -15.9199	-0.000896058	  -15.8652	-0.00088594	  -15.7861	-0.000854687	  -15.8571	-0.000878895	  -15.8571	  -21.9724	
  -15.8078	-0.000897111	  -15.7538	-0.000887181	  -15.6748	-0.000856103	  -15.7455	-0.000880132	  -15.7455	  -22.0033	
  -15.6948	-0.000898123	  -15.6416	-0.000888502	  -15.5626	-0.000857494	   -15.633	-0.000881373	   -15.633	  -22.0343	
  -15.5813	-0.000899108	  -15.5292	-0.000889871	  -15.4492	-0.000858842	  -15.5199	-0.000882607	  -15.5199	  -22.0652	
  -15.4677	-0.000900079	  -15.4154	-0.000891238	  -15.3351	-0.000860123	  -15.4061	-0.000883813	  -15.4061	  -22.0953	
  -15.3539	-0.000901048	  -15.3011	-0.00089257	  -15.2204	-0.000861329	  -15.2918	-0.000884982	  -15.2918	  -22.1246	
  -15.2388	-0.000902017	  -15.1864	-0.000893822	  -15.1049	-0.000862467	  -15.1767	-0.000886102	  -15.1767	  -22.1525	
  -15.1229	-0.000902986	   -15.071	-0.000894963	  -14.9897	-0.000863541	  -15.0612	-0.000887163	  -15.0612	  -22.1791	
  -15.0054	-0.00090395	  -14.9549	-0.000895992	  -14.8728	-0.000864576	  -14.9444	-0.000888173	  -14.9444	  -22.2043	
  -14.8875	-0.000904898	  -14.8375	-0.000896909	  -14.7554	-0.000865597	  -14.8268	-0.000889135	  -14.8268	  -22.2284	
  -14.7685	-0.000905819	  -14.7198	-0.000897737	  -14.6369	-0.000866616	  -14.7084	-0.000890057	  -14.7084	  -22.2514	
   -14.649	-0.000906705	  -14.6017	-0.000898528	  -14.5183	-0.000867647	  -14.5896	-0.00089096	  -14.5896	   -22.274	
  -14.5303	-0.000907549	  -14.4836	-0.00089931	  -14.3989	-0.00086869	  -14.4709	-0.00089185	  -14.4709	  -22.2962	
  -14.4113	-0.00090835	  -14.3649	-0.000900129	  -14.2781	-0.000869735	  -14.3514	-0.000892738	  -14.3514	  -22.3185	
  -14.2919	-0.000909113	  -14.2457	-0.000901005	  -14.1567	-0.000870765	  -14.2314	-0.000893628	  -14.2314	  -22.3407	
  -14.1708	-0.000909843	  -14.1251	-0.000901944	   -14.035	-0.000871764	  -14.1103	-0.000894517	  -14.1103	  -22.3629	
  -14.0488	-0.000910546	  -14.0038	-0.000902934	  -13.9128	-0.000872723	  -13.9884	-0.000895401	  -13.9884	   -22.385	
  -13.9267	-0.000911231	  -13.8821	-0.000903936	    -13.79	-0.000873628	  -13.8662	-0.000896265	  -13.8662	  -22.4066	
  -13.8039	-0.0009119	  -13.7605	-0.000904905	  -13.6666	-0.000874476	  -13.7437	-0.000897094	  -13.7437	  -22.4273	
   -13.681	-0.000912557	  -13.6389	-0.000905805	  -13.5425	-0.00087537	  -13.6208	-0.000897911	  -13.6208	  -22.4478	
  -13.5572	-0.000913198	  -13.5166	-0.000906606	  -13.4177	-0.000876262	  -13.4972	-0.000898689	  -13.4972	  -22.4672	
  -13.4331	-0.00091382	  -13.3936	-0.000907304	  -13.2926	-0.000877097	  -13.3731	-0.000899407	  -13.3731	  -22.4852	
  -13.3082	-0.000914421	  -13.2701	-0.000907899	  -13.1674	-0.000877897	  -13.2486	-0.000900072	  -13.2486	  -22.5018	
  -13.1824	-0.000914992	  -13.1458	-0.000908424	  -13.0423	-0.000878646	  -13.1235	-0.000900687	  -13.1235	  -22.5172	
  -13.0566	-0.000915533	  -13.0205	-0.000908921	  -12.9162	-0.000879271	  -12.9978	-0.000901242	  -12.9978	   -22.531	
  -12.9302	-0.000916041	  -12.8949	-0.000909431	  -12.7894	-0.000879779	  -12.8715	-0.00090175	  -12.8715	  -22.5438	
  -12.8032	-0.000916514	  -12.7693	-0.000909983	   -12.662	-0.000880179	  -12.7448	-0.000902225	  -12.7448	  -22.5556	
  -12.6765	-0.000916955	  -12.6421	-0.000910592	   -12.534	-0.000880529	  -12.6175	-0.000902692	  -12.6175	  -22.5673	
  -12.5494	-0.000917367	  -12.5143	-0.000911251	  -12.4062	-0.000880853	    -12.49	-0.000903157	    -12.49	  -22.5789	
   -12.422	-0.000917749	   -12.386	-0.000911941	  -12.2777	-0.000881183	  -12.3619	-0.000903625	  -12.3619	  -22.5906	
   -12.294	-0.00091811	  -12.2578	-0.000912626	  -12.1488	-0.000881592	  -12.2335	-0.000904109	  -12.2335	  -22.6027	
  -12.1661	-0.000918448	  -12.1288	-0.000913271	  -12.0189	-0.000882106	  -12.1046	-0.000904608	  -12.1046	  -22.6152	
   -12.038	-0.000918761	   -11.999	-0.000913843	  -11.8887	-0.000882713	  -11.9752	-0.000905106	  -11.9752	  -22.6276	
  -11.9093	-0.00091905	   -11.869	-0.00091432	  -11.7574	-0.000883394	  -11.8452	-0.000905588	  -11.8452	  -22.6397	
  -11.7798	-0.000919307	  -11.7391	-0.000914704	  -11.6262	-0.000884093	   -11.715	-0.000906035	   -11.715	  -22.6509	
  -11.6501	-0.000919528	  -11.6092	-0.00091501	  -11.4944	-0.000884751	  -11.5846	-0.00090643	  -11.5846	  -22.6607	
  -11.5196	-0.000919709	  -11.4783	-0.000915271	   -11.362	-0.000885309	  -11.4533	-0.000906763	  -11.4533	  -22.6691	
  -11.3882	-0.000919849	  -11.3469	-0.00091553	    -11.23	-0.00088572	  -11.3217	-0.000907033	  -11.3217	  -22.6758	
  -11.2565	-0.000919952	  -11.2146	-0.000915813	  -11.0978	-0.000885979	  -11.1896	-0.000907248	  -11.1896	  -22.6812	
  -11.1238	-0.000920016	  -11.0817	-0.000916135	  -10.9649	-0.000886092	  -11.0568	-0.000907414	  -11.0568	  -22.6854	
  -10.9907	-0.000920049	  -10.9476	-0.000916491	  -10.8316	-0.000886086	  -10.9233	-0.000907542	  -10.9233	  -22.6885	
  -10.8572	-0.000920054	  -10.8124	-0.000916858	  -10.6975	-0.000886021	   -10.789	-0.000907644	   -10.789	  -22.6911	
  -10.7232	-0.000920037	  -10.6765	-0.000917207	  -10.5629	-0.000885959	  -10.6542	-0.000907734	  -10.6542	  -22.6934	
  -10.5892	-0.000920001	  -10.5411	-0.000917513	  -10.4279	-0.00088594	  -10.5194	-0.000907818	  -10.5194	  -22.6955	
   -10.455	-0.000919945	  -10.4055	-0.000917753	   -10.292	-0.000885985	  -10.3842	-0.000907894	  -10.3842	  -22.6974	
  -10.3197	-0.000919866	  -10.2691	-0.000917911	  -10.1561	-0.000886095	  -10.2483	-0.000907957	  -10.2483	  -22.6989	
  -10.1836	-0.000919764	   -10.132	-0.000917986	  -10.0205	-0.00088625	   -10.112	 -0.000908	   -10.112	     -22.7	
  -10.0469	-0.00091963	  -9.99453	-0.000917982	  -9.88529	-0.000886395	  -9.97556	-0.000908002	  -9.97556	  -22.7001	
  -9.90891	-0.000919463	  -9.85678	-0.000917935	  -9.74988	-0.000886486	  -9.83853	-0.000907962	  -9.83853	   -22.699	
  -9.77084	-0.000919259	  -9.71869	-0.00091787	   -9.6137	-0.000886483	  -9.70108	-0.000907871	  -9.70108	  -22.6968	
   -9.6326	-0.000919014	  -9.58073	-0.000917812	  -9.47725	-0.000886357	  -9.56353	-0.000907728	  -9.56353	  -22.6932	
   -9.4931	-0.000918727	  -9.44231	-0.000917787	  -9.34049	-0.000886103	   -9.4253	-0.000907539	   -9.4253	  -22.6885	
  -9.35289	-0.0009184	  -9.30341	-0.000917803	   -9.2039	-0.000885741	  -9.28673	-0.000907315	  -9.28673	  -22.6829	
  -9.21239	-0.000918033	  -9.16439	-0.000917843	  -9.06648	-0.000885302	  -9.14775	-0.000907059	  -9.14775	  -22.6765	
  -9.07221	-0.000917632	  -9.02587	-0.000917899	  -8.92809	-0.000884834	  -9.00872	-0.000906789	  -9.00872	  -22.6697	
  -8.93278	-0.000917196	  -8.88564	-0.000917935	  -8.78929	-0.000884378	  -8.86924	-0.000906503	  -8.86924	  -22.6626	
  -8.79295	-0.000916728	  -8.74536	-0.000917913	  -8.65056	-0.000883971	  -8.72963	-0.000906204	  -8.72963	  -22.6551	
  -8.65269	-0.000916235	  -8.60446	-0.000917809	  -8.51133	-0.000883622	  -8.58949	-0.000905889	  -8.58949	  -22.6472	
  -8.51199	-0.000915716	  -8.46345	-0.000917602	  -8.37104	-0.000883322	  -8.44882	-0.000905547	  -8.44882	  -22.6387	
  -8.37029	-0.000915169	  -8.32229	-0.000917286	  -8.23025	-0.000883047	  -8.30761	-0.000905167	  -8.30761	  -22.6292	
  -8.22815	-0.00091459	  -8.18041	-0.000916884	  -8.08947	-0.000882754	  -8.16601	-0.000904743	  -8.16601	  -22.6186	
   -8.0853	-0.000913976	  -8.03849	-0.000916357	  -7.94839	-0.000882397	  -8.02406	-0.000904243	  -8.02406	  -22.6061	
  -7.94201	-0.000913326	  -7.89633	-0.000915757	  -7.80724	-0.000881938	  -7.88186	-0.000903674	  -7.88186	  -22.5918	
  -7.79931	-0.000912636	  -7.75391	-0.000915155	  -7.66596	-0.000881347	  -7.73973	-0.000903046	  -7.73973	  -22.5762	
  -7.65607	-0.000911907	  -7.61068	-0.00091459	  -7.52452	-0.000880627	  -7.59709	-0.000902375	  -7.59709	  -22.5594	
   -7.5128	-0.000911144	  -7.46614	-0.000914095	  -7.38341	-0.000879803	  -7.45411	-0.000901681	  -7.45411	   -22.542	
  -7.36946	-0.000910346	   -7.3193	-0.000913747	  -7.24201	-0.000878914	  -7.31026	-0.000901002	  -7.31026	  -22.5251	
  -7.22548	-0.000909518	  -7.16927	-0.000913516	  -7.09926	-0.000878016	  -7.16467	-0.00090035	  -7.16467	  -22.5088	
  -7.08194	-0.000908664	  -7.01942	-0.000913351	  -6.95575	-0.000877153	  -7.01903	-0.000899723	  -7.01903	  -22.4931	
  -6.93807	-0.00090777	  -6.87051	-0.000913163	    -6.812	-0.000876353	  -6.87353	-0.000899095	  -6.87353	  -22.4774	
  -6.79349	-0.000906812	  -6.71851	-0.000912894	    -6.668	-0.000875632	  -6.72667	-0.000898446	  -6.72667	  -22.4611	
   -6.6482	-0.000905821	  -6.56993	-0.000912497	  -6.52424	-0.000874971	  -6.58079	-0.000897763	  -6.58079	  -22.4441	
  -6.50223	-0.000904797	  -6.42551	-0.000911898	  -6.37962	-0.000874335	  -6.43578	-0.00089701	  -6.43578	  -22.4253	
  -6.35558	-0.000903755	  -6.27807	-0.000911074	  -6.23468	-0.000873671	  -6.28944	-0.000896167	  -6.28944	  -22.4042	
  -6.20934	-0.000902731	  -6.12991	-0.000910062	  -6.09047	-0.000872924	  -6.14324	-0.000895239	  -6.14324	   -22.381	
  -6.06238	-0.000901729	  -5.98683	-0.000908929	  -5.94583	-0.000872063	  -5.99835	-0.00089424	  -5.99835	   -22.356	
  -5.91526	-0.00090074	  -5.84522	-0.000907767	  -5.80127	-0.000871071	  -5.85392	-0.000893193	  -5.85392	  -22.3298	
  -5.76847	-0.000899745	  -5.70229	-0.000906622	   -5.6565	-0.000869954	  -5.70909	-0.000892107	  -5.70909	  -22.3027	
  -5.62144	-0.00089872	  -5.56072	-0.000905614	  -5.51173	-0.000868734	  -5.56463	-0.000891023	  -5.56463	  -22.2756	
  -5.47309	-0.000897641	  -5.41721	-0.000904772	  -5.36642	-0.000867454	  -5.41891	-0.000889955	  -5.41891	  -22.2489	
  -5.32403	-0.000896462	  -5.27186	-0.000904059	  -5.22056	-0.000866176	  -5.27215	-0.000888899	  -5.27215	  -22.2225	
  -5.17534	-0.000895146	  -5.12794	-0.000903439	  -5.07312	-0.000864943	  -5.12546	-0.000887842	  -5.12546	  -22.1961	
  -5.02749	-0.000893701	  -4.98213	-0.000902834	  -4.92419	-0.000863784	  -4.97794	-0.000886773	  -4.97794	  -22.1693	
   -4.8788	-0.000892149	  -4.83509	-0.000902147	  -4.77491	-0.000862716	   -4.8296	-0.00088567	   -4.8296	  -22.1418	
  -4.73036	-0.000890526	  -4.68791	-0.000901308	  -4.62634	-0.000861716	  -4.68154	-0.000884517	  -4.68154	  -22.1129	
  -4.58161	-0.000888884	   -4.5398	-0.00090027	  -4.47708	-0.000860748	  -4.53283	-0.000883301	  -4.53283	  -22.0825	
  -4.43254	-0.00088729	  -4.39055	-0.000899057	  -4.32741	-0.000859748	   -4.3835	-0.000882032	   -4.3835	  -22.0508	
  -4.28314	-0.000885779	  -4.24231	-0.000897693	  -4.17684	-0.000858659	   -4.2341	-0.00088071	   -4.2341	  -22.0178	
   -4.1329	-0.000884334	  -4.09444	-0.000896311	  -4.02592	-0.000857583	  -4.08442	-0.000879409	  -4.08442	  -21.9852	
  -3.98291	-0.000883014	  -3.94533	-0.000895015	  -3.87416	-0.000856438	  -3.93413	-0.000878156	  -3.93413	  -21.9539	
  -3.83313	-0.000881743	  -3.79607	-0.000893804	  -3.72159	-0.000855183	   -3.7836	-0.00087691	   -3.7836	  -21.9228	
  -3.68351	-0.000880407	  -3.64668	-0.000892683	  -3.56933	-0.00085381	  -3.63317	-0.000875633	  -3.63317	  -21.8908	
   -3.5335	-0.000878912	  -3.49713	-0.000891586	  -3.41733	-0.00085233	  -3.48265	-0.000874276	  -3.48265	  -21.8569	
