# User: ACHyster
# File name: C:/ACHYSTER/ACHyster SENS/SHAMS/CoFe2O4-1gl-water-80 Glycerol-Sens-08-03-2023/CoFe2O4-1gl-water-80 Glycerol- 10_100F-24 kAm -Sens-08-03-20230005#1.txt
# Saved at: mi. mar. 8 16:27:40 2023
# Hyster Loop (3 iterations). Intensity: 24.0 kA/m; Tuned frequency: 59.9 kHz
# Units x axis: (kA/m)
# Units y axis: "Repeats y" & "Average y" (10^(-3)Am^2); "Mass avg y" (Am^2/kg)
# Magnetic mass: 4e-05 g
# Parameter      	Repeat   1	Repeat   2	Repeat   3	Average   	Sigma     
# H_C (kA/m)     	      13.6	      13.9	      13.0	      13.5	       0.4
# M_R (Am^2/kg)  	       9.0	       9.3	       8.2	       8.8	       0.4
# M_max (Am^2/kg)	      12.7	      13.2	      13.0	      13.0	       0.2
# Area (mJ/kg)   	     772.6	     801.7	     705.8	     760.0	      40.1
# SAR (W/g)      	      46.3	      48.0	      42.3	      45.5	       2.4
#Repeat 1 x	Repeat 1 y	Repeat 2 x	Repeat 2 y	Repeat 3 x	Repeat 3 y	Average x 	Average y 	Mass avg x 	Mass avg y 
  -3.54613	-0.000416173	  -3.50458	-0.000423995	  -3.53656	-0.000384912	  -3.52909	-0.00040836	  -3.52909	   -10.209	
  -3.39418	-0.000414233	  -3.35202	-0.000421996	   -3.3854	-0.000382667	   -3.3772	-0.000406299	   -3.3772	  -10.1575	
   -3.2426	-0.000412193	   -3.1999	-0.000419968	  -3.23403	-0.000380464	  -3.22551	-0.000404208	  -3.22551	  -10.1052	
  -3.09085	-0.000410037	  -3.04767	-0.000417926	  -3.08235	-0.000378334	  -3.07363	-0.000402099	  -3.07363	  -10.0525	
  -2.93889	-0.000407792	  -2.89531	-0.00041582	  -2.93036	-0.000376276	  -2.92152	-0.000399963	  -2.92152	  -9.99907	
  -2.78647	-0.000405508	  -2.74333	-0.000413691	  -2.77778	-0.000374239	  -2.76919	-0.000397813	  -2.76919	  -9.94532	
  -2.63374	-0.00040324	  -2.59221	-0.000411545	  -2.62517	-0.000372158	  -2.61704	-0.000395648	  -2.61704	   -9.8912	
  -2.48122	-0.000401022	  -2.44158	-0.000409437	  -2.47305	-0.000369986	  -2.46529	-0.000393482	  -2.46529	  -9.83705	
  -2.32903	-0.00039886	  -2.29153	-0.000407334	  -2.32071	-0.000367702	  -2.31376	-0.000391299	  -2.31376	  -9.78246	
  -2.17693	-0.000396721	   -2.1411	-0.000405217	  -2.16804	-0.000365308	  -2.16202	-0.000389082	  -2.16202	  -9.72705	
  -2.02456	-0.000394556	  -1.99104	-0.000403032	  -2.01581	-0.00036287	  -2.01047	-0.000386819	  -2.01047	  -9.67048	
  -1.87245	-0.00039231	  -1.84026	-0.000400761	  -1.86372	-0.000360445	  -1.85881	-0.000384505	  -1.85881	  -9.61263	
  -1.72069	-0.000389949	  -1.68894	-0.000398358	  -1.71186	-0.000358082	  -1.70716	-0.00038213	  -1.70716	  -9.55325	
  -1.56858	-0.00038748	  -1.53721	-0.000395858	  -1.55994	-0.000355799	  -1.55525	-0.000379712	  -1.55525	  -9.49281	
  -1.41658	-0.000384946	  -1.38556	-0.000393296	  -1.40831	-0.000353565	  -1.40348	-0.000377269	  -1.40348	  -9.43172	
  -1.26409	-0.000382416	  -1.23415	-0.000390741	  -1.25643	-0.000351336	  -1.25156	-0.000374831	  -1.25156	  -9.37078	
  -1.11166	-0.000379888	  -1.08269	-0.000388247	  -1.10522	-0.000349052	  -1.09986	-0.000372396	  -1.09986	  -9.30989	
 -0.958607	-0.000377402	 -0.931303	-0.000385867	 -0.953167	-0.000346669	 -0.947692	-0.000369979	 -0.947692	  -9.24948	
 -0.805103	-0.000374949	 -0.779692	-0.000383573	 -0.800456	-0.000344163	 -0.795083	-0.000367562	 -0.795083	  -9.18905	
 -0.652088	-0.000372502	 -0.627601	-0.000381293	 -0.648039	-0.000341572	 -0.642576	-0.000365122	 -0.642576	  -9.12806	
 -0.499482	-0.000370052	 -0.475809	-0.000378912	 -0.495223	-0.000338931	 -0.490171	-0.000362632	 -0.490171	  -9.06579	
  -0.34713	-0.000367553	 -0.324167	-0.000376358	 -0.341767	-0.000336291	 -0.337688	-0.000360067	 -0.337688	  -9.00168	
 -0.194349	-0.000364976	 -0.172777	-0.000373613	 -0.188234	-0.000333683	  -0.18512	-0.000357424	  -0.18512	  -8.93559	
-0.0412833	-0.000362316	-0.0217331	-0.000370742	-0.0355338	-0.000331121	  -0.03285	-0.000354726	  -0.03285	  -8.86816	
  0.111533	-0.000359581	    0.1281	-0.000367828	  0.117072	-0.000328588	  0.118902	-0.000351999	  0.118902	  -8.79998	
  0.264002	-0.000356779	  0.277891	-0.000364945	  0.269865	-0.000326049	  0.270586	-0.000349258	  0.270586	  -8.73145	
  0.415876	-0.000353962	  0.427693	-0.000362169	  0.422479	-0.000323463	  0.422016	-0.000346531	  0.422016	  -8.66328	
  0.568035	-0.000351175	  0.578418	-0.000359495	   0.57505	-0.0003208	  0.573834	-0.000343823	  0.573834	  -8.59559	
  0.720339	-0.000348408	  0.730276	-0.000356902	  0.727463	-0.000318055	  0.726026	-0.000341121	  0.726026	  -8.52804	
  0.872271	-0.0003457	  0.882668	-0.000354309	  0.879224	-0.000315238	  0.878054	-0.000338416	  0.878054	  -8.46039	
   1.02453	-0.000342982	   1.03543	-0.000351634	   1.03106	-0.000312394	   1.03034	-0.00033567	   1.03034	  -8.39176	
   1.17698	-0.000340204	   1.18921	-0.000348815	   1.18246	-0.000309545	   1.18288	-0.000332854	   1.18288	  -8.32136	
   1.32862	-0.000337316	   1.34278	-0.000345839	   1.33357	-0.000306717	   1.33499	-0.000329957	   1.33499	  -8.24893	
   1.48105	-0.000334306	   1.49667	-0.000342723	   1.48486	-0.000303897	   1.48753	-0.000326975	   1.48753	  -8.17438	
   1.63371	-0.000331178	   1.65072	-0.000339528	   1.63543	-0.000301067	   1.63995	-0.000323924	   1.63995	  -8.09811	
   1.78645	-0.000328019	   1.80284	-0.000336345	   1.78599	-0.000298184	   1.79176	-0.000320849	   1.79176	  -8.02124	
   1.93836	-0.000324898	   1.95583	-0.000333247	   1.93685	-0.000295225	   1.94368	-0.00031779	   1.94368	  -7.94475	
   2.09012	-0.000321887	   2.10642	-0.000330242	   2.08747	-0.000292182	   2.09467	-0.00031477	   2.09467	  -7.86926	
   2.24208	-0.000318986	   2.25817	-0.000327306	   2.23776	-0.000289076	   2.24601	-0.000311789	   2.24601	  -7.79473	
   2.39373	-0.000316145	   2.40968	-0.000324371	   2.38803	-0.000285936	   2.39715	-0.000308817	   2.39715	  -7.72043	
   2.54498	-0.00031327	   2.56244	-0.000321359	   2.53857	-0.000282797	   2.54867	-0.000305809	   2.54867	  -7.64521	
   2.69536	-0.000310265	   2.71544	-0.000318206	   2.68924	-0.000279672	   2.70002	-0.000302714	   2.70002	  -7.56786	
   2.84523	-0.000307085	   2.86737	-0.000314895	   2.83954	-0.000276558	   2.85071	-0.000299513	   2.85071	  -7.48781	
    2.9949	-0.000303729	   3.02023	-0.000311461	   2.99009	-0.000273432	   3.00174	-0.000296207	   3.00174	  -7.40518	
   3.14469	-0.00030027	    3.1722	-0.000307981	   3.14006	-0.000270265	   3.15232	-0.000292839	   3.15232	  -7.32097	
   3.29525	-0.000296793	    3.3244	-0.00030453	   3.29057	-0.000267029	   3.30341	-0.000289451	   3.30341	  -7.23627	
   3.44525	-0.000293384	   3.47592	-0.000301163	   3.44145	-0.000263715	   3.45421	-0.000286087	   3.45421	  -7.15219	
   3.59579	-0.000290072	    3.6271	-0.000297876	   3.59218	-0.000260329	   3.60503	-0.000282759	   3.60503	  -7.06897	
   3.74594	-0.000286833	   3.77823	-0.000294635	   3.74267	-0.000256897	   3.75561	-0.000279455	   3.75561	  -6.98638	
   3.89602	-0.000283598	   3.92891	-0.00029137	   3.89289	-0.000253453	   3.90594	-0.00027614	   3.90594	  -6.90351	
   4.04631	-0.000280304	   4.07975	-0.000288018	   4.04269	-0.000250018	   4.05625	-0.00027278	   4.05625	   -6.8195	
   4.19669	-0.000276894	   4.23065	-0.000284539	   4.19238	-0.000246603	   4.20657	-0.000269345	   4.20657	  -6.73363	
   4.34665	-0.000273352	   4.38109	-0.000280953	   4.34187	-0.000243203	   4.35653	-0.000265836	   4.35653	   -6.6459	
   4.49612	-0.000269706	     4.531	-0.000277294	   4.49106	-0.000239792	   4.50606	-0.000262264	   4.50606	   -6.5566	
   4.64543	-0.000266016	   4.67993	-0.00027366	   4.64067	-0.000236345	   4.65534	-0.000258674	   4.65534	  -6.46684	
   4.79456	-0.000262333	   4.82934	-0.00027007	   4.78992	-0.000232848	   4.80461	-0.000255084	   4.80461	   -6.3771	
   4.94256	-0.000258706	   4.97839	-0.000266575	   4.93937	-0.000229303	   4.95344	-0.000251528	   4.95344	   -6.2882	
   5.09098	-0.000255146	   5.12778	-0.00026311	   5.08851	-0.00022573	   5.10242	-0.000247995	   5.10242	  -6.19988	
   5.23931	-0.000251629	   5.27699	-0.000259626	   5.23763	-0.000222159	   5.25131	-0.000244471	   5.25131	  -6.11179	
   5.38744	-0.0002481	   5.42631	-0.000256037	   5.38665	-0.000218596	   5.40013	-0.000240911	   5.40013	  -6.02278	
   5.53553	-0.000244506	   5.57548	-0.000252298	    5.5354	-0.000215032	    5.5488	-0.000237279	    5.5488	  -5.93196	
   5.68364	-0.000240802	   5.72417	-0.000248406	   5.68464	-0.000211444	   5.69748	-0.000233551	   5.69748	  -5.83877	
   5.83244	-0.000236993	   5.87231	-0.000244463	   5.83385	-0.000207814	    5.8462	-0.000229757	    5.8462	  -5.74393	
   5.98061	-0.000233111	   6.01946	-0.000240548	   5.98292	-0.000204132	   5.99433	-0.00022593	   5.99433	  -5.64826	
   6.12848	-0.000229216	     6.166	-0.000236789	   6.13176	-0.000200405	   6.14208	-0.000222137	   6.14208	  -5.55341	
   6.27598	-0.000225359	   6.31226	-0.000233191	   6.27989	-0.000196639	   6.28938	-0.000218396	   6.28938	  -5.45991	
   6.42335	-0.000221569	   6.45818	-0.000229714	   6.42829	-0.000192879	   6.43661	-0.000214721	   6.43661	  -5.36802	
   6.56981	-0.00021783	    6.6037	-0.000226253	   6.57659	-0.000189136	   6.58337	-0.000211073	   6.58337	  -5.27682	
   6.71572	-0.000214104	   6.74913	-0.000222684	   6.72432	-0.000185412	   6.72972	-0.0002074	   6.72972	    -5.185	
   6.86142	-0.000210338	   6.89402	-0.000218874	   6.87141	-0.000181692	   6.87562	-0.000203635	   6.87562	  -5.09087	
   7.00723	-0.000206485	   7.03908	-0.000214816	   7.01822	-0.000177983	   7.02151	-0.000199761	   7.02151	  -4.99403	
   7.15266	-0.000202537	   7.18384	-0.000210553	   7.16468	-0.000174262	   7.16706	-0.000195784	   7.16706	   -4.8946	
   7.29804	-0.000198516	   7.32798	-0.000206227	    7.3111	-0.000170528	   7.31238	-0.000191757	   7.31238	  -4.79392	
   7.44368	-0.000194465	    7.4721	-0.000201989	    7.4574	-0.000166764	   7.45773	-0.000187739	   7.45773	  -4.69349	
   7.58866	-0.000190426	   7.61534	-0.000197944	   7.60349	-0.000162965	    7.6025	-0.000183778	    7.6025	  -4.59446	
   7.73414	-0.000186435	   7.75845	-0.000194106	   7.74851	-0.000159123	   7.74703	-0.000179888	   7.74703	  -4.49721	
   7.87841	-0.00018249	   7.90097	-0.000190418	   7.89285	-0.00015527	   7.89074	-0.000176059	   7.89074	  -4.40148	
   8.02266	-0.000178564	   8.04365	-0.000186737	   8.03725	-0.000151394	   8.03452	-0.000172232	   8.03452	  -4.30579	
   8.16594	-0.00017462	   8.18617	-0.000182942	   8.18108	-0.000147514	   8.17773	-0.000168358	   8.17773	  -4.20896	
   8.30871	-0.000170619	   8.32829	-0.000178938	   8.32445	-0.000143623	   8.32048	-0.000164393	   8.32048	  -4.10983	
   8.45094	-0.000166537	   8.46997	-0.000174738	   8.46693	-0.000139723	   8.46261	-0.000160333	   8.46261	  -4.00831	
   8.59258	-0.000162381	   8.61155	-0.000170401	   8.60928	-0.0001358	   8.60447	-0.000156194	   8.60447	  -3.90485	
   8.73399	-0.000158184	   8.75337	-0.000166042	   8.75104	-0.000131852	   8.74613	-0.000152026	   8.74613	  -3.80064	
   8.87544	-0.000153988	    8.8946	-0.000161758	   8.89258	-0.000127875	   8.88754	-0.000147874	   8.88754	  -3.69684	
   9.01613	-0.000149829	   9.03593	-0.000157624	   9.03423	-0.000123882	   9.02876	-0.000143778	   9.02876	  -3.59446	
   9.15722	-0.000145723	   9.17727	-0.00015363	    9.1755	-0.000119883	      9.17	-0.000139745	      9.17	  -3.49363	
   9.29822	-0.000141654	   9.31776	-0.000149711	   9.31635	-0.000115886	   9.31078	-0.00013575	   9.31078	  -3.39376	
   9.43867	-0.000137587	   9.45778	-0.000145764	   9.45712	-0.000111892	   9.45119	-0.000131748	   9.45119	  -3.29369	
   9.57852	-0.000133476	    9.5973	-0.000141699	   9.59658	-0.000107906	    9.5908	-0.000127694	    9.5908	  -3.19235	
   9.71854	-0.000129293	   9.73644	-0.000137466	   9.73507	-0.00010391	   9.73001	-0.000123556	   9.73001	  -3.08891	
   9.85786	-0.00012503	   9.87461	-0.000133082	   9.87306	-9.98799e-05	   9.86851	-0.000119331	   9.86851	  -2.98327	
   9.99724	-0.000120711	   10.0126	-0.000128606	   10.0101	-9.58062e-05	   10.0067	-0.000115041	   10.0067	  -2.87603	
   10.1358	-0.000116376	     10.15	-0.000124137	   10.1467	-9.1691e-05	   10.1442	-0.000110735	   10.1442	  -2.76836	
   10.2736	-0.000112071	   10.2868	-0.000119749	   10.2832	-8.75417e-05	   10.2812	-0.000106454	   10.2812	  -2.66135	
    10.411	-0.000107818	   10.4229	-0.000115483	    10.419	-8.33831e-05	   10.4176	-0.000102228	   10.4176	   -2.5557	
   10.5482	-0.00010362	   10.5583	-0.000111314	   10.5546	-7.92327e-05	   10.5537	-9.80555e-05	   10.5537	  -2.45139	
   10.6852	-9.94443e-05	   10.6931	-0.000107172	   10.6899	-7.50949e-05	   10.6894	-9.39036e-05	   10.6894	  -2.34759	
   10.8218	-9.52454e-05	   10.8273	-0.000102968	   10.8246	-7.09692e-05	   10.8246	-8.97275e-05	   10.8246	  -2.24319	
   10.9577	-9.0983e-05	   10.9611	-9.8629e-05	    10.959	-6.68487e-05	   10.9593	-8.54869e-05	   10.9593	  -2.13717	
   11.0927	-8.65993e-05	   11.0951	-9.41278e-05	   11.0927	-6.2715e-05	   11.0935	-8.11474e-05	   11.0935	  -2.02868	
   11.2268	-8.21455e-05	   11.2291	-8.9508e-05	   11.2257	-5.85582e-05	   11.2272	-7.67372e-05	   11.2272	  -1.91843	
   11.3601	-7.76937e-05	   11.3624	-8.48579e-05	   11.3585	-5.4376e-05	   11.3603	-7.23092e-05	   11.3603	  -1.80773	
   11.4928	-7.33545e-05	   11.4954	-8.02893e-05	    11.491	-5.01715e-05	   11.4931	-6.79384e-05	   11.4931	  -1.69846	
   11.6247	-6.91557e-05	   11.6279	-7.5873e-05	   11.6231	-4.59476e-05	   11.6252	-6.36588e-05	   11.6252	  -1.59147	
    11.756	-6.50609e-05	   11.7595	-7.16143e-05	   11.7544	-4.1712e-05	   11.7566	-5.94624e-05	   11.7566	  -1.48656	
   11.8873	-6.09743e-05	   11.8907	-6.74488e-05	   11.8854	-3.74718e-05	   11.8878	-5.52983e-05	   11.8878	  -1.38246	
    12.018	-5.67965e-05	   12.0215	-6.32801e-05	   12.0157	-3.32346e-05	   12.0184	-5.11037e-05	   12.0184	  -1.27759	
   12.1473	-5.24376e-05	   12.1523	-5.89773e-05	   12.1468	  -2.9e-05	   12.1488	-4.6805e-05	   12.1488	  -1.17012	
   12.2754	-4.79069e-05	   12.2829	-5.45189e-05	   12.2778	-2.47642e-05	   12.2787	-4.23967e-05	   12.2787	  -1.05992	
    12.402	-4.32488e-05	   12.4126	-4.98928e-05	   12.4084	-2.05194e-05	   12.4077	-3.7887e-05	   12.4077	 -0.947175	
   12.5286	-3.85664e-05	   12.5419	-4.51918e-05	   12.5388	-1.62583e-05	   12.5364	-3.33389e-05	   12.5364	 -0.833472	
   12.6541	-3.40135e-05	   12.6711	-4.05093e-05	   12.6687	-1.19721e-05	   12.6646	-2.88316e-05	   12.6646	 -0.720791	
   12.7807	-2.96561e-05	   12.7995	-3.59258e-05	   12.7985	-7.66101e-06	   12.7929	-2.44143e-05	   12.7929	 -0.610357	
   12.9066	-2.55167e-05	   12.9283	-3.14651e-05	   12.9277	-3.33129e-06	   12.9209	-2.01044e-05	   12.9209	 -0.502609	
   13.0321	-2.15138e-05	    13.057	-2.71214e-05	   13.0564	1.00158e-06	   13.0485	-1.58779e-05	   13.0485	 -0.396947	
   13.1584	-1.75474e-05	    13.185	-2.28279e-05	   13.1842	5.36093e-06	   13.1758	-1.16715e-05	   13.1758	 -0.291787	
   13.2854	-1.34693e-05	   13.3125	-1.85074e-05	   13.3118	9.71032e-06	   13.3032	-7.4221e-06	   13.3032	 -0.185553	
   13.4119	-9.20775e-06	   13.4398	-1.40963e-05	   13.4385	1.40803e-05	   13.4301	-3.0746e-06	   13.4301	-0.0768649	
   13.5388	-4.73876e-06	   13.5659	-9.57514e-06	   13.5647	1.8442e-05	   13.5565	1.37602e-06	   13.5565	 0.0344005	
   13.6647	-1.44079e-07	    13.692	-4.95992e-06	   13.6912	2.27904e-05	   13.6826	5.89547e-06	   13.6826	  0.147387	
   13.7897	4.45635e-06	   13.8179	-3.04534e-07	   13.8172	2.71108e-05	   13.8083	1.04209e-05	   13.8083	  0.260522	
   13.9147	8.93375e-06	   13.9432	4.33637e-06	   13.9423	3.14187e-05	   13.9334	1.48963e-05	   13.9334	  0.372407	
   14.0363	1.32268e-05	   14.0677	8.92338e-06	   14.0669	3.57099e-05	    14.057	1.92867e-05	    14.057	  0.482167	
   14.1585	1.73266e-05	   14.1924	1.34428e-05	   14.1911	4.00424e-05	   14.1807	2.36039e-05	   14.1807	  0.590098	
    14.279	2.13175e-05	   14.3168	1.78983e-05	   14.3147	4.44287e-05	   14.3035	2.78815e-05	   14.3035	  0.697037	
   14.4001	2.53173e-05	   14.4404	2.23394e-05	   14.4371	4.88887e-05	   14.4258	3.21818e-05	   14.4258	  0.804545	
   14.5202	2.94418e-05	    14.563	2.68285e-05	   14.5587	5.34006e-05	   14.5473	3.65569e-05	   14.5473	  0.913923	
   14.6397	3.37495e-05	   14.6849	3.13831e-05	   14.6805	5.79282e-05	   14.6684	4.10202e-05	   14.6684	   1.02551	
   14.7591	3.8234e-05	    14.806	3.60047e-05	   14.8008	6.24136e-05	   14.7886	4.55508e-05	   14.7886	   1.13877	
   14.8775	4.28068e-05	   14.9257	4.06674e-05	   14.9206	6.68321e-05	   14.9079	5.01021e-05	   14.9079	   1.25255	
    14.996	4.73518e-05	   15.0448	4.53096e-05	   15.0395	7.11596e-05	   15.0268	5.4607e-05	   15.0268	   1.36517	
   15.1124	5.17614e-05	   15.1631	4.99009e-05	    15.158	7.54212e-05	   15.1445	5.90278e-05	   15.1445	    1.4757	
   15.2286	5.59962e-05	   15.2804	5.44165e-05	   15.2757	7.96556e-05	   15.2616	6.33561e-05	   15.2616	    1.5839	
   15.3449	6.00853e-05	   15.3974	5.88724e-05	   15.3929	8.39157e-05	   15.3784	6.76245e-05	   15.3784	   1.69061	
   15.4598	6.41315e-05	   15.5136	6.33073e-05	   15.5099	8.8225e-05	   15.4944	7.18879e-05	   15.4944	    1.7972	
   15.5743	6.82504e-05	   15.6292	6.77739e-05	   15.6262	9.2601e-05	   15.6099	7.62084e-05	   15.6099	   1.90521	
   15.6882	 7.253e-05	   15.7442	7.22914e-05	   15.7422	9.70178e-05	   15.7249	8.06131e-05	   15.7249	   2.01533	
   15.8022	7.6985e-05	   15.8586	7.68724e-05	   15.8576	0.000101438	   15.8395	8.50983e-05	   15.8395	   2.12746	
   15.9158	8.1561e-05	   15.9721	8.14878e-05	   15.9717	0.000105812	   15.9532	8.96202e-05	   15.9532	    2.2405	
   16.0286	8.61561e-05	   16.0852	8.61056e-05	   16.0857	0.000110112	   16.0665	9.41246e-05	   16.0665	   2.35312	
   16.1411	9.06634e-05	   16.1975	9.06808e-05	   16.1993	0.000114331	   16.1793	9.85583e-05	   16.1793	   2.46396	
   16.2527	9.5014e-05	   16.3095	9.5195e-05	   16.3125	0.000118494	   16.2915	0.000102901	   16.2915	   2.57252	
   16.3645	9.92114e-05	   16.4204	9.96438e-05	   16.4245	0.000122638	   16.4031	0.000107164	   16.4031	   2.67911	
   16.4754	0.00010332	   16.5308	0.000104057	    16.536	0.000126805	   16.5141	0.000111394	   16.5141	   2.78486	
   16.5855	0.000107434	   16.6399	0.000108476	   16.6477	0.000131019	   16.6244	0.000115643	   16.6244	   2.89108	
   16.6945	0.000111644	   16.7483	0.000112928	   16.7588	0.000135273	   16.7339	0.000119948	   16.7339	   2.99871	
   16.8024	  0.000116	   16.8561	0.000117449	   16.8687	0.000139532	   16.8424	0.000124327	   16.8424	   3.10817	
   16.9101	0.000120487	   16.9633	0.000121994	   16.9784	0.000143764	   16.9506	0.000128748	   16.9506	    3.2187	
   17.0169	0.000125041	   17.0704	0.000126558	   17.0871	0.000147937	   17.0581	0.000133179	   17.0581	   3.32946	
    17.123	0.000129563	   17.1763	0.000131059	   17.1951	0.000152051	   17.1648	0.000137558	   17.1648	   3.43894	
   17.2285	0.000134025	   17.2819	0.000135466	   17.3019	0.000156134	   17.2708	0.000141875	   17.2708	   3.54688	
   17.3335	0.000138371	   17.3869	0.000139753	   17.4075	0.000160218	    17.376	0.000146114	    17.376	   3.65285	
   17.4383	0.000142642	   17.4918	0.00014395	   17.5126	0.000164328	   17.4809	0.000150307	   17.4809	   3.75766	
   17.5427	0.000146833	   17.5957	0.000148121	   17.6169	0.000168482	   17.5851	0.000154479	   17.5851	   3.86197	
   17.6471	0.000151002	   17.6993	0.000152363	   17.7205	0.000172659	   17.6889	0.000158675	   17.6889	   3.96686	
   17.7516	0.000155176	   17.8015	0.00015673	   17.8233	0.000176831	   17.7921	0.000162913	   17.7921	   4.07281	
   17.8562	0.000159373	   17.9023	0.000161244	   17.9251	0.000180963	   17.8946	0.000167193	   17.8946	   4.17982	
   17.9611	0.000163562	   18.0029	0.000165851	   18.0261	0.000185041	   17.9967	0.000171485	   17.9967	   4.28711	
   18.0649	0.000167779	   18.1024	0.000170455	    18.127	0.000189065	   18.0981	0.000175766	   18.0981	   4.39416	
    18.169	0.000171995	    18.201	0.000174961	   18.2267	0.000193047	   18.1989	0.000180001	   18.1989	   4.50002	
   18.2696	0.000176222	   18.2993	0.000179288	   18.3256	0.00019702	   18.2982	0.000184177	   18.2982	   4.60442	
   18.3685	0.000180458	   18.3969	0.000183438	   18.4233	0.000201004	   18.3963	 0.0001883	   18.3963	    4.7075	
   18.4656	0.000184688	    18.494	0.000187466	   18.5201	0.000205024	   18.4932	0.000192393	   18.4932	   4.80982	
   18.5591	0.000188876	   18.5899	0.000191478	   18.6152	0.000209082	   18.5881	0.000196479	   18.5881	   4.91197	
   18.6527	0.000193017	    18.685	0.000195565	   18.7092	0.000213161	   18.6823	0.000200581	   18.6823	   5.01453	
   18.7448	0.000197077	   18.7793	0.000199786	    18.802	0.000217233	   18.7754	0.000204699	   18.7754	   5.11747	
   18.8362	0.000201079	   18.8728	0.000204123	   18.8942	0.000221274	   18.8677	0.000208825	   18.8677	   5.22063	
   18.9284	0.000205037	   18.9661	0.000208514	   18.9858	0.000225253	   18.9601	0.000212935	   18.9601	   5.32337	
   19.0194	0.000208988	   19.0585	0.000212877	   19.0769	0.000229177	   19.0516	0.000217014	   19.0516	   5.42535	
    19.111	0.000212956	   19.1501	0.000217108	   19.1671	0.000233066	   19.1427	0.000221043	   19.1427	   5.52608	
   19.2022	0.000216964	   19.2408	0.000221184	   19.2566	0.000236951	   19.2332	0.000225033	   19.2332	   5.62583	
   19.2933	0.000220982	   19.3306	0.000225097	    19.345	0.000240863	    19.323	0.000228981	    19.323	   5.72452	
   19.3837	  0.000225	   19.4194	0.000228934	   19.4332	0.000244813	   19.4121	0.000232916	   19.4121	   5.82289	
   19.4739	0.000228984	   19.5077	0.000232782	   19.5202	0.000248793	   19.5006	0.000236853	   19.5006	   5.92133	
   19.5624	0.000232944	   19.5957	0.000236743	    19.607	0.000252772	   19.5884	0.00024082	   19.5884	   6.02049	
   19.6503	0.000236873	   19.6831	0.000240864	    19.694	0.000256719	   19.6758	0.000244819	   19.6758	   6.12047	
   19.7373	0.000240807	     19.77	0.000245133	   19.7802	0.000260604	   19.7625	0.000248848	   19.7625	    6.2212	
   19.8231	0.000244752	   19.8565	0.000249441	   19.8649	0.000264423	   19.8482	0.000252872	   19.8482	   6.32179	
   19.9089	0.000248703	   19.9421	0.000253666	   19.9489	0.000268192	   19.9333	0.000256854	   19.9333	   6.42135	
   19.9946	0.000252639	   20.0269	0.000257699	   20.0318	0.000271943	   20.0178	0.000260761	   20.0178	   6.51902	
   20.0796	0.000256552	   20.1103	0.000261516	   20.1135	0.000275711	   20.1011	0.000264593	   20.1011	   6.61483	
   20.1648	0.000260398	   20.1927	0.000265139	   20.1947	0.000279518	   20.1841	0.000268352	   20.1841	   6.70879	
   20.2495	0.00026418	   20.2746	0.000268689	   20.2746	0.000283357	   20.2662	0.000272075	   20.2662	   6.80188	
   20.3332	0.000267967	   20.3552	0.000272277	   20.3543	0.000287209	   20.3476	0.000275818	   20.3476	   6.89545	
    20.416	0.000271749	   20.4353	0.000275999	   20.4328	0.000291041	    20.428	0.000279597	    20.428	   6.98991	
   20.4981	0.00027554	   20.5146	0.000279881	   20.5106	0.00029482	   20.5078	0.000283414	   20.5078	   7.08534	
   20.5785	0.000279308	   20.5929	0.000283877	    20.588	0.00029853	   20.5865	0.000287238	   20.5865	   7.18096	
   20.6578	0.00028304	   20.6703	0.000287884	   20.6645	0.000302175	   20.6642	0.000291033	   20.6642	   7.27582	
   20.7362	0.000286715	   20.7467	0.000291788	   20.7407	0.000305777	   20.7412	0.00029476	   20.7412	     7.369	
   20.8133	0.000290362	   20.8219	0.000295516	   20.8161	0.00030937	   20.8171	0.000298416	   20.8171	    7.4604	
   20.8892	0.000293942	   20.8963	0.000299051	   20.8906	0.000312985	    20.892	0.000301993	    20.892	   7.54981	
   20.9642	0.000297527	   20.9695	0.000302446	   20.9645	0.000316627	   20.9661	0.000305533	   20.9661	   7.63833	
   21.0386	0.000301105	    21.042	0.000305803	   21.0372	0.000320288	   21.0392	0.000309065	   21.0392	   7.72663	
   21.1119	0.000304715	    21.114	0.000309228	   21.1092	0.000323938	   21.1117	0.000312627	   21.1117	   7.81568	
    21.185	0.000308341	   21.1852	0.000312771	   21.1804	0.000327542	   21.1836	0.000316218	   21.1836	   7.90545	
   21.2577	0.000311986	   21.2558	0.000316432	   21.2514	0.00033108	    21.255	0.000319833	    21.255	   7.99582	
   21.3296	0.000315585	   21.3256	0.000320145	   21.3217	0.000334546	   21.3256	0.000323425	   21.3256	   8.08563	
   21.3999	0.000319133	   21.3949	0.000323813	   21.3913	0.000337954	   21.3954	0.000326967	   21.3954	   8.17417	
   21.4692	0.000322592	    21.463	0.000327359	   21.4599	0.000341332	    21.464	0.000330428	    21.464	   8.26069	
    21.538	0.000325974	   21.5306	0.000330741	   21.5276	0.000344713	   21.5321	0.000333809	   21.5321	   8.34523	
   21.6056	0.000329289	   21.5975	0.000333977	   21.5947	0.00034811	   21.5993	0.000337125	   21.5993	   8.42813	
   21.6721	0.000332586	   21.6632	0.000337139	    21.661	0.000351522	   21.6654	0.000340416	   21.6654	   8.51039	
   21.7375	0.000335881	   21.7283	0.000340319	   21.7266	0.00035493	   21.7308	0.00034371	   21.7308	   8.59275	
   21.8023	 0.0003392	   21.7927	0.000343583	    21.792	0.000358302	   21.7957	0.000347028	   21.7957	   8.67571	
   21.8666	0.000342524	   21.8567	0.000346964	   21.8563	0.000361611	   21.8599	0.000350366	   21.8599	   8.75916	
   21.9301	0.000345857	   21.9197	0.000350428	   21.9199	0.00036485	   21.9232	0.000353712	   21.9232	   8.84279	
   21.9925	0.000349164	   21.9818	0.000353904	   21.9823	0.000368023	   21.9855	0.00035703	   21.9855	   8.92576	
   22.0538	0.000352432	    22.043	0.000357311	   22.0437	0.00037116	   22.0468	0.000360301	   22.0468	   9.00752	
   22.1147	0.000355644	   22.1031	0.000360586	   22.1037	0.00037427	   22.1072	 0.0003635	   22.1072	    9.0875	
   22.1745	0.000358812	   22.1617	0.000363716	   22.1625	0.000377345	   22.1662	0.000366624	   22.1662	   9.16561	
   22.2333	0.00036194	   22.2191	0.000366741	   22.2208	0.000380398	   22.2244	0.000369693	   22.2244	   9.24232	
   22.2908	0.000365055	   22.2748	0.000369731	   22.2782	0.000383445	   22.2813	0.000372743	   22.2813	   9.31859	
   22.3474	0.000368164	   22.3302	0.000372767	   22.3344	0.000386518	   22.3373	0.000375816	   22.3373	    9.3954	
   22.4038	0.000371284	   22.3853	0.000375902	   22.3901	0.000389622	   22.3931	0.000378936	   22.3931	    9.4734	
   22.4593	0.000374404	   22.4394	0.000379139	   22.4453	0.000392767	    22.448	0.000382103	    22.448	   9.55258	
   22.5135	0.000377509	   22.4929	0.000382425	   22.4994	0.000395934	   22.5019	0.000385289	   22.5019	   9.63223	
   22.5669	0.000380573	   22.5453	0.00038568	   22.5529	0.000399065	    22.555	0.000388439	    22.555	   9.71098	
   22.6188	0.000383584	   22.5967	0.000388824	   22.6058	0.000402108	   22.6071	0.000391505	   22.6071	   9.78763	
   22.6695	0.000386537	   22.6477	0.000391814	   22.6577	0.000405027	   22.6583	0.00039446	   22.6583	   9.86149	
   22.7186	0.000389449	   22.6979	0.000394665	   22.7084	0.000407806	   22.7083	0.000397307	   22.7083	   9.93267	
   22.7671	0.000392338	   22.7469	0.000397437	   22.7583	0.000410492	   22.7574	0.000400089	   22.7574	   10.0022	
   22.8143	0.000395228	   22.7947	0.000400214	   22.8072	0.000413167	   22.8054	0.000402869	   22.8054	   10.0717	
   22.8597	0.000398123	   22.8411	0.000403077	   22.8552	0.00041589	    22.852	0.000405697	    22.852	   10.1424	
   22.9043	0.000401022	   22.8866	0.000406048	   22.9026	0.000418713	   22.8978	0.000408594	   22.8978	   10.2149	
   22.9475	0.000403906	   22.9314	0.00040911	   22.9483	0.000421624	   22.9424	0.000411547	   22.9424	   10.2887	
   22.9902	0.000406756	    22.975	0.00041219	   22.9932	0.000424576	   22.9862	0.000414507	   22.9862	   10.3627	
   23.0321	0.000409554	   23.0179	0.000415213	   23.0367	0.000427494	   23.0289	0.000417421	   23.0289	   10.4355	
   23.0731	0.000412299	   23.0597	0.000418101	   23.0794	0.00043031	   23.0707	0.000420237	   23.0707	   10.5059	
   23.1131	0.000414992	   23.1005	0.000420842	   23.1211	0.000432974	   23.1116	0.000422936	   23.1116	   10.5734	
    23.152	0.000417644	   23.1404	0.00042345	   23.1616	0.000435512	   23.1513	0.000425535	   23.1513	   10.6384	
   23.1902	0.000420275	   23.1792	0.000426018	    23.201	0.000437961	   23.1902	0.000428085	   23.1902	   10.7021	
   23.2276	0.000422895	    23.217	0.000428635	   23.2393	0.000440398	    23.228	0.000430643	    23.228	   10.7661	
   23.2638	0.000425504	    23.254	0.000431377	   23.2759	0.000442888	   23.2646	0.000433256	   23.2646	   10.8314	
   23.2997	0.000428097	   23.2906	0.000434249	   23.3121	0.000445463	   23.3008	0.000435936	   23.3008	   10.8984	
   23.3343	0.000430663	   23.3259	0.000437206	    23.347	0.000448099	   23.3357	0.000438656	   23.3357	   10.9664	
   23.3679	0.000433193	   23.3603	0.00044015	   23.3814	0.00045075	   23.3699	0.000441364	   23.3699	   11.0341	
   23.4005	0.000435679	   23.3942	0.000442999	   23.4144	0.000453341	    23.403	0.000444007	    23.403	   11.1002	
   23.4324	0.000438119	    23.427	0.000445678	   23.4461	0.000455822	   23.4352	0.00044654	   23.4352	   11.1635	
   23.4637	0.000440521	   23.4597	0.000448198	   23.4772	0.00045816	   23.4669	0.00044896	   23.4669	    11.224	
   23.4938	0.000442897	   23.4915	0.000450604	   23.5079	0.000460376	   23.4978	0.000451292	   23.4978	   11.2823	
   23.5228	0.000445259	   23.5226	0.00045299	   23.5383	0.00046252	   23.5279	0.00045359	   23.5279	   11.3397	
   23.5511	0.000447614	   23.5529	0.000455429	   23.5675	0.000464665	   23.5572	0.000455903	   23.5572	   11.3976	
   23.5786	0.00044996	   23.5819	0.000457972	    23.596	0.000466852	   23.5855	0.000458262	   23.5855	   11.4565	
   23.6052	0.000452288	   23.6094	0.000460613	   23.6232	0.000469105	   23.6126	0.000460669	   23.6126	   11.5167	
   23.6306	0.00045459	   23.6356	0.000463302	   23.6493	0.000471393	   23.6385	0.000463095	   23.6385	   11.5774	
   23.6555	0.000456857	    23.661	0.000465962	   23.6745	0.000473662	   23.6637	0.000465494	   23.6637	   11.6373	
   23.6791	0.000459089	   23.6859	0.000468516	   23.6985	0.000475851	   23.6878	0.000467818	   23.6878	   11.6955	
   23.7015	0.000461288	   23.7101	0.000470923	   23.7217	0.000477926	   23.7111	0.000470046	   23.7111	   11.7511	
   23.7234	0.000463465	   23.7329	0.000473196	   23.7438	0.000479883	   23.7334	0.000472181	   23.7334	   11.8045	
   23.7441	0.000465632	   23.7542	0.000475387	    23.765	0.000481759	   23.7545	0.000474259	   23.7545	   11.8565	
    23.764	0.000467793	   23.7743	0.000477571	   23.7859	0.000483607	   23.7747	0.000476323	   23.7747	   11.9081	
   23.7834	0.000469951	   23.7932	0.000479809	   23.8053	0.000485478	   23.7939	0.000478413	   23.7939	   11.9603	
   23.8019	0.000472107	   23.8114	0.000482135	   23.8234	0.000487399	   23.8123	0.000480547	   23.8123	   12.0137	
   23.8192	0.00047425	   23.8293	0.000484529	   23.8409	0.000489366	   23.8298	0.000482715	   23.8298	   12.0679	
    23.836	0.000476374	   23.8469	0.000486935	    23.858	0.000491338	    23.847	0.000484883	    23.847	   12.1221	
   23.8517	0.000478469	   23.8641	0.000489281	    23.874	0.00049327	   23.8633	0.000487007	   23.8633	   12.1752	
   23.8663	0.000480534	   23.8803	0.000491508	   23.8892	0.000495118	   23.8786	0.000489053	   23.8786	   12.2263	
   23.8805	0.000482566	   23.8954	0.000493596	   23.9033	0.000496866	   23.8931	0.000491009	   23.8931	   12.2752	
   23.8936	0.000484566	   23.9094	0.000495571	    23.916	0.000498533	   23.9063	0.00049289	   23.9063	   12.3222	
    23.906	0.000486556	    23.923	0.000497494	   23.9276	0.00050016	   23.9189	0.000494737	   23.9189	   12.3684	
   23.9181	0.000488505	    23.936	0.000499435	   23.9384	0.000501788	   23.9308	0.000496576	   23.9308	   12.4144	
   23.9291	0.000490401	   23.9478	0.000501443	   23.9482	0.000503454	   23.9417	0.000498433	   23.9417	   12.4608	
   23.9395	0.000492272	    23.959	0.000503524	   23.9575	0.000505166	    23.952	0.000500321	    23.952	    12.508	
   23.9495	0.000494112	   23.9687	0.000505636	    23.966	0.000506898	   23.9614	0.000502215	   23.9614	   12.5554	
   23.9586	0.000495985	   23.9778	0.000507718	   23.9737	0.000508608	     23.97	0.000504104	     23.97	   12.6026	
   23.9671	0.000497878	   23.9853	0.00050971	   23.9798	0.000510259	   23.9774	0.000505949	   23.9774	   12.6487	
   23.9746	0.000499779	   23.9915	0.000511577	   23.9849	0.000511822	   23.9837	0.000507726	   23.9837	   12.6931	
   23.9813	0.000501692	   23.9966	0.00051333	   23.9894	 0.0005133	   23.9891	0.00050944	   23.9891	    12.736	
   23.9874	0.000503597	   24.0014	0.000515012	    23.993	0.00051472	   23.9939	0.00051111	   23.9939	   12.7777	
   23.9919	0.000505452	   24.0055	0.000516679	   23.9957	0.000516125	   23.9977	0.000512752	   23.9977	   12.8188	
   23.9957	0.000507238	    24.009	0.000518381	   23.9976	0.00051755	   24.0008	0.00051439	   24.0008	   12.8597	
    23.998	0.000508904	    24.012	0.00052014	   23.9984	0.000519017	   24.0028	0.00051602	   24.0028	   12.9005	
   23.9991	0.000510458	   24.0144	0.000521936	   23.9984	0.000520511	    24.004	0.000517635	    24.004	   12.9409	
   23.9992	0.000511891	    24.016	0.000523726	   23.9975	0.000521994	   24.0042	0.000519204	   24.0042	   12.9801	
   23.9984	0.00051325	   24.0164	0.000525462	   23.9955	0.00052342	   24.0034	0.000520711	   24.0034	   13.0178	
   23.9965	0.00051457	   24.0154	0.000527103	   23.9926	0.000524764	   24.0015	0.000522146	   24.0015	   13.0536	
   23.9932	0.000515905	   24.0134	0.00052864	   23.9882	0.000526025	   23.9982	0.000523524	   23.9982	   13.0881	
   23.9894	0.000517272	   24.0108	0.000530094	   23.9828	0.000527234	   23.9943	0.000524867	   23.9943	   13.1217	
   23.9848	0.000518684	    24.007	0.000531507	   23.9769	0.000528428	   23.9896	0.000526206	   23.9896	   13.1552	
   23.9793	0.000520111	   24.0025	0.000532928	   23.9701	0.000529645	    23.984	0.000527561	    23.984	    13.189	
   23.9732	0.000521526	   23.9967	0.00053439	   23.9617	0.000530897	   23.9772	0.000528938	   23.9772	   13.2234	
   23.9666	0.000522886	   23.9898	0.000535897	   23.9528	0.000532167	   23.9697	0.000530317	   23.9697	   13.2579	
   23.9582	0.000524154	   23.9814	0.000537427	   23.9429	0.00053341	   23.9608	0.000531664	   23.9608	   13.2916	
   23.9491	0.000525312	   23.9723	0.000538935	   23.9319	0.000534597	   23.9511	0.000532948	   23.9511	   13.3237	
   23.9394	0.000526395	   23.9622	0.000540374	   23.9202	0.00053569	   23.9406	0.000534153	   23.9406	   13.3538	
   23.9288	0.000527438	   23.9512	0.000541723	   23.9082	0.000536696	   23.9294	0.000535286	   23.9294	   13.3821	
   23.9169	0.000528485	   23.9387	0.00054296	   23.8957	0.000537632	   23.9171	0.000536359	   23.9171	    13.409	
   23.9039	0.000529576	   23.9252	0.00054415	   23.8824	0.000538545	   23.9038	0.000537424	   23.9038	   13.4356	
     23.89	0.00053072	   23.9104	0.000545307	   23.8684	0.00053946	   23.8896	0.000538495	   23.8896	   13.4624	
   23.8752	0.000531893	   23.8941	0.000546501	   23.8534	0.00054042	   23.8743	0.000539605	   23.8743	   13.4901	
   23.8602	0.000533052	    23.877	0.000547781	   23.8375	0.000541415	   23.8582	0.000540749	   23.8582	   13.5187	
   23.8445	0.000534152	   23.8585	0.000549115	   23.8205	0.00054243	   23.8412	0.000541899	   23.8412	   13.5475	
   23.8284	0.000535162	   23.8386	0.000550481	   23.8028	0.000543419	   23.8233	0.000543021	   23.8233	   13.5755	
    23.811	0.000536081	   23.8179	0.000551785	   23.7842	0.000544351	   23.8044	0.000544072	   23.8044	   13.6018	
   23.7933	0.000536937	   23.7969	0.000552943	   23.7642	0.000545191	   23.7848	0.000545024	   23.7848	   13.6256	
   23.7747	0.000537765	   23.7749	0.00055391	   23.7435	0.000545952	   23.7644	0.000545876	   23.7644	   13.6469	
   23.7555	0.000538605	    23.752	0.000554706	   23.7221	0.000546658	   23.7432	0.000546656	   23.7432	   13.6664	
   23.7353	0.000539478	   23.7282	0.000555389	      23.7	0.000547358	   23.7211	0.000547408	   23.7211	   13.6852	
   23.7141	0.000540389	   23.7034	0.000556076	   23.6769	0.000548088	   23.6981	0.000548184	   23.6981	   13.7046	
    23.692	0.000541316	   23.6774	0.000556855	   23.6526	0.000548865	    23.674	0.000549012	    23.674	   13.7253	
   23.6685	0.000542223	   23.6497	0.000557783	   23.6281	0.000549676	   23.6488	0.000549894	   23.6488	   13.7474	
   23.6445	0.000543079	   23.6216	0.000558837	   23.6027	0.000550492	   23.6229	0.000550803	   23.6229	   13.7701	
   23.6196	0.000543865	   23.5927	0.000559942	   23.5764	0.000551268	   23.5962	0.000551692	   23.5962	   13.7923	
    23.594	0.000544588	    23.563	0.000560985	   23.5491	0.00055197	   23.5687	0.000552514	   23.5687	   13.8129	
   23.5668	0.000545264	   23.5322	0.000561879	   23.5206	0.000552592	   23.5398	0.000553245	   23.5398	   13.8311	
   23.5385	0.000545931	   23.5009	0.000562561	   23.4911	0.000553154	   23.5102	0.000553882	   23.5102	   13.8471	
   23.5087	0.000546616	   23.4692	0.000563069	   23.4607	0.000553689	   23.4795	0.000554458	   23.4795	   13.8614	
   23.4778	0.000547327	    23.437	0.000563472	   23.4289	0.000554239	   23.4479	0.000555013	   23.4479	   13.8753	
   23.4461	0.000548058	   23.4036	 0.0005639	   23.3964	0.000554826	   23.4154	0.000555595	   23.4154	   13.8899	
   23.4138	0.000548783	   23.3693	0.000564436	   23.3632	0.00055545	   23.3821	0.000556223	   23.3821	   13.9056	
   23.3806	0.000549464	    23.334	0.000565132	   23.3287	0.00055609	   23.3478	0.000556895	   23.3478	   13.9224	
   23.3466	0.000550074	   23.2978	0.000565937	    23.294	0.000556708	   23.3128	0.000557573	   23.3128	   13.9393	
   23.3114	0.000550628	   23.2614	0.000566776	   23.2587	0.000557273	   23.2772	0.000558225	   23.2772	   13.9556	
   23.2755	0.000551154	    23.224	0.000567527	   23.2226	0.000557763	   23.2407	0.000558815	   23.2407	   13.9704	
   23.2383	0.000551706	   23.1854	0.000568135	   23.1853	0.000558181	    23.203	0.00055934	    23.203	   13.9835	
   23.1992	0.000552316	   23.1461	0.000568575	   23.1476	0.00055855	   23.1643	0.000559813	   23.1643	   13.9953	
   23.1589	0.000552991	   23.1055	0.000568906	   23.1089	0.000558909	   23.1245	0.000560269	   23.1245	   14.0067	
   23.1177	0.000553695	   23.0643	0.000569209	   23.0695	0.000559286	   23.0839	0.00056073	   23.0839	   14.0182	
   23.0758	0.000554382	   23.0227	0.000569573	   23.0291	0.000559691	   23.0425	0.000561215	   23.0425	   14.0304	
   23.0329	0.000554971	     22.98	0.000570043	   22.9875	0.000560117	   23.0001	0.000561711	   23.0001	   14.0428	
   22.9891	0.000555472	   22.9367	0.00057062	   22.9447	0.000560532	   22.9568	0.000562208	   22.9568	   14.0552	
   22.9453	0.000555865	   22.8924	0.000571247	   22.9003	0.000560905	   22.9127	0.000562673	   22.9127	   14.0668	
   22.9007	0.000556215	   22.8477	0.00057185	   22.8552	0.000561215	   22.8679	0.000563094	   22.8679	   14.0773	
   22.8559	0.000556572	    22.802	0.000572351	   22.8095	0.000561453	   22.8225	0.000563459	   22.8225	   14.0865	
   22.8105	0.000556996	   22.7555	0.000572716	   22.7631	0.000561631	   22.7763	0.000563781	   22.7763	   14.0945	
   22.7647	0.000557483	   22.7079	0.000572956	   22.7155	0.000561779	   22.7294	0.000564073	   22.7294	   14.1018	
   22.7187	0.000558053	   22.6596	0.000573123	   22.6669	0.000561936	   22.6817	0.000564371	   22.6817	   14.1093	
   22.6716	0.000558638	     22.61	0.000573287	    22.617	0.000562092	   22.6329	0.000564673	   22.6329	   14.1168	
   22.6226	0.000559201	   22.5595	0.000573518	   22.5661	0.000562279	   22.5827	0.000564999	   22.5827	    14.125	
   22.5732	0.00055969	   22.5082	0.000573843	    22.515	0.00056245	   22.5321	0.000565328	   22.5321	   14.1332	
   22.5217	0.000560102	   22.4556	0.000574246	   22.4633	0.000562622	   22.4802	0.000565657	   22.4802	   14.1414	
   22.4691	0.000560437	   22.4024	0.000574671	   22.4103	0.000562767	   22.4273	0.000565958	   22.4273	    14.149	
    22.415	0.000560752	   22.3485	0.000575045	   22.3566	0.000562887	   22.3734	0.000566228	   22.3734	   14.1557	
   22.3604	0.000561075	   22.2936	0.000575301	   22.3019	0.000562974	   22.3186	0.00056645	   22.3186	   14.1612	
   22.3048	0.000561461	   22.2376	0.000575419	   22.2457	0.000563041	   22.2627	0.00056664	   22.2627	    14.166	
    22.248	0.000561907	   22.1809	0.000575423	   22.1883	0.00056306	   22.2057	0.000566796	   22.2057	   14.1699	
   22.1906	0.000562403	   22.1236	0.000575378	     22.13	0.000563041	   22.1481	0.000566941	   22.1481	   14.1735	
    22.133	0.000562909	    22.065	0.00057537	   22.0706	0.000562971	   22.0895	0.000567083	   22.0895	   14.1771	
   22.0741	0.00056339	   22.0057	0.000575452	   22.0108	0.00056286	   22.0302	0.000567234	   22.0302	   14.1808	
    22.014	0.000563796	   21.9454	0.000575642	   21.9498	0.000562713	   21.9697	0.000567384	   21.9697	   14.1846	
   21.9524	0.000564117	   21.8848	0.000575905	   21.8878	0.000562554	   21.9083	0.000567525	   21.9083	   14.1881	
   21.8901	0.000564359	   21.8234	0.000576169	   21.8255	0.00056239	   21.8464	0.00056764	   21.8464	    14.191	
   21.8267	0.000564562	   21.7619	0.000576369	   21.7627	0.000562237	   21.7838	0.000567723	   21.7838	   14.1931	
   21.7624	0.000564766	   21.6997	0.000576452	   21.6992	0.000562088	   21.7204	0.000567769	   21.7204	   14.1942	
   21.6974	0.000565012	   21.6359	0.000576412	   21.6349	0.000561938	   21.6561	0.000567787	   21.6561	   14.1947	
   21.6314	0.000565303	   21.5708	0.00057628	   21.5697	0.000561757	   21.5906	0.00056778	   21.5906	   14.1945	
   21.5653	0.000565624	   21.5047	0.000576118	   21.5044	0.000561529	   21.5248	0.000567757	   21.5248	   14.1939	
   21.4986	0.000565918	    21.438	0.000575988	   21.4388	0.000561246	   21.4585	0.000567717	   21.4585	   14.1929	
   21.4309	0.000566143	   21.3705	0.000575937	   21.3721	0.000560913	   21.3912	0.000567664	   21.3912	   14.1916	
   21.3627	0.000566275	   21.3025	0.000575974	   21.3045	0.000560543	   21.3233	0.000567598	   21.3233	   14.1899	
   21.2941	0.000566337	   21.2339	0.000576064	   21.2354	0.000560167	   21.2545	0.000567523	   21.2545	   14.1881	
   21.2239	0.000566369	   21.1642	0.000576147	   21.1653	0.000559801	   21.1845	0.000567439	   21.1845	    14.186	
   21.1531	0.000566421	   21.0936	0.000576166	   21.0944	0.000559457	   21.1137	0.000567348	   21.1137	   14.1837	
   21.0815	0.000566511	   21.0226	0.000576085	   21.0227	0.000559126	   21.0422	0.000567241	   21.0422	    14.181	
   21.0081	0.000566641	   20.9507	0.000575902	   20.9501	0.000558792	   20.9696	0.000567112	   20.9696	   14.1778	
   20.9338	0.000566794	   20.8777	0.000575662	   20.8766	0.000558436	    20.896	0.000566964	    20.896	   14.1741	
   20.8582	0.000566917	   20.8039	0.000575416	   20.8016	0.000558041	   20.8212	0.000566791	   20.8212	   14.1698	
   20.7823	0.000566961	   20.7293	0.000575216	   20.7263	0.000557596	    20.746	0.000566591	    20.746	   14.1648	
   20.7054	0.000566905	   20.6541	0.000575089	   20.6505	0.000557112	     20.67	0.000566369	     20.67	   14.1592	
   20.6276	0.000566744	   20.5779	0.000575026	   20.5742	0.000556605	   20.5932	0.000566125	   20.5932	   14.1531	
   20.5495	0.000566522	   20.5012	0.000574986	   20.4968	0.000556096	   20.5158	0.000565868	   20.5158	   14.1467	
   20.4704	0.00056627	   20.4237	0.000574921	   20.4183	0.000555598	   20.4375	0.000565596	   20.4375	   14.1399	
   20.3904	0.00056604	   20.3454	0.000574782	   20.3391	0.000555119	   20.3583	0.000565313	   20.3583	   14.1328	
   20.3097	0.000565857	   20.2657	0.000574556	    20.259	0.000554649	   20.2782	0.00056502	   20.2782	   14.1255	
   20.2287	0.000565728	   20.1852	0.000574257	   20.1786	0.000554174	   20.1975	0.00056472	   20.1975	    14.118	
   20.1472	0.000565614	    20.104	0.000573926	   20.0979	0.000553682	   20.1164	0.000564408	   20.1164	   14.1102	
   20.0645	0.000565467	   20.0218	0.000573608	   20.0166	0.000553169	   20.0343	0.000564081	   20.0343	    14.102	
   19.9804	0.000565265	   19.9385	0.000573341	   19.9341	0.000552632	    19.951	0.000563746	    19.951	   14.0936	
   19.8955	0.000564952	    19.854	0.000573127	   19.8501	0.000552068	   19.8665	0.000563382	   19.8665	   14.0846	
   19.8104	0.000564566	   19.7685	0.00057295	   19.7653	0.000551471	   19.7814	0.000562995	   19.7814	   14.0749	
   19.7242	0.000564104	   19.6822	0.000572769	   19.6794	0.000550825	   19.6952	0.000562566	   19.6952	   14.0642	
   19.6373	0.000563601	    19.595	0.000572545	   19.5923	0.000550136	   19.6082	0.000562094	   19.6082	   14.0523	
   19.5501	0.000563088	   19.5072	0.000572245	   19.5041	0.000549408	   19.5205	0.00056158	   19.5205	   14.0395	
   19.4616	0.000562594	   19.4188	0.000571871	    19.416	0.000548678	   19.4321	0.000561048	   19.4321	   14.0262	
   19.3724	0.000562109	   19.3291	0.00057145	   19.3269	0.000547961	   19.3428	0.000560507	   19.3428	   14.0127	
   19.2823	0.000561647	   19.2389	0.00057102	   19.2369	0.000547302	   19.2527	0.00055999	   19.2527	   13.9997	
   19.1914	0.000561153	   19.1482	0.000570621	   19.1463	0.00054667	    19.162	0.000559481	    19.162	    13.987	
   19.0997	0.000560651	   19.0568	0.000570273	   19.0555	0.000546065	   19.0707	0.000558997	   19.0707	   13.9749	
   19.0075	0.000560141	   18.9645	0.000569967	   18.9645	0.000545433	   18.9788	0.000558514	   18.9788	   13.9628	
   18.9151	0.000559645	   18.8718	0.000569675	   18.8727	0.000544776	   18.8865	0.000558032	   18.8865	   13.9508	
   18.8214	0.000559162	   18.7785	0.000569355	   18.7801	0.000544063	   18.7933	0.000557526	   18.7933	   13.9382	
   18.7271	0.000558696	   18.6847	0.000568974	   18.6871	0.000543322	   18.6996	0.000556997	   18.6996	   13.9249	
   18.6321	0.00055821	    18.591	0.000568522	   18.5937	0.000542531	   18.6056	0.000556421	   18.6056	   13.9105	
   18.5364	0.000557693	   18.4967	0.000568013	   18.4991	0.000541726	   18.5107	0.000555811	   18.5107	   13.8953	
     18.44	0.00055709	   18.4026	0.000567479	   18.4043	0.000540903	   18.4156	0.000555157	   18.4156	   13.8789	
   18.3429	0.000556407	   18.3075	0.000566955	   18.3082	0.000540086	   18.3195	0.000554483	   18.3195	   13.8621	
   18.2448	0.000555643	   18.2118	0.000566467	   18.2113	0.00053927	   18.2226	0.000553793	   18.2226	   13.8448	
   18.1464	0.000554844	   18.1154	0.000566016	   18.1142	0.000538471	   18.1253	0.000553111	   18.1253	   13.8278	
   18.0469	0.000554045	    18.018	0.000565583	   18.0162	0.000537668	    18.027	0.000552432	    18.027	   13.8108	
   17.9464	0.000553291	     17.92	0.000565131	   17.9173	0.000536851	   17.9279	0.000551758	   17.9279	   13.7939	
   17.8457	0.000552579	   17.8214	0.000564629	   17.8183	0.000535993	   17.8284	0.000551067	   17.8284	   13.7767	
   17.7439	0.000551905	   17.7225	0.000564062	   17.7183	0.000535092	   17.7282	0.000550353	   17.7282	   13.7588	
   17.6414	0.000551231	   17.6232	0.000563433	   17.6177	0.000534144	   17.6275	0.000549603	   17.6275	   13.7401	
   17.5383	0.000550524	   17.5233	0.000562766	   17.5161	0.000533173	   17.5259	0.000548821	   17.5259	   13.7205	
   17.4346	0.000549755	   17.4226	0.000562097	   17.4144	0.000532194	   17.4239	0.000548015	   17.4239	   13.7004	
   17.3303	0.000548927	    17.321	0.000561452	   17.3117	0.000531231	    17.321	0.000547204	    17.321	   13.6801	
   17.2251	0.000548051	   17.2191	0.000560843	   17.2079	0.000530284	   17.2174	0.000546393	   17.2174	   13.6598	
   17.1192	0.000547167	   17.1161	0.000560258	   17.1033	0.000529352	   17.1129	0.000545592	   17.1129	   13.6398	
   17.0124	0.000546297	   17.0123	0.000559674	   16.9982	0.000528415	   17.0076	0.000544795	   17.0076	   13.6199	
   16.9046	0.000545471	   16.9075	0.00055906	   16.8921	0.000527451	   16.9014	0.000543994	   16.9014	   13.5998	
   16.7959	0.00054468	   16.8026	0.000558394	   16.7856	0.000526441	   16.7947	0.000543172	   16.7947	   13.5793	
   16.6867	0.00054391	   16.6962	0.000557674	   16.6782	0.000525387	    16.687	0.000542324	    16.687	   13.5581	
   16.5771	0.000543135	   16.5893	0.000556908	   16.5703	0.000524299	   16.5789	0.000541447	   16.5789	   13.5362	
   16.4667	0.000542322	   16.4813	0.000556122	   16.4624	0.000523198	   16.4701	0.000540547	   16.4701	   13.5137	
   16.3558	0.000541456	   16.3728	0.000555342	   16.3537	0.000522103	   16.3608	0.000539634	   16.3608	   13.4908	
   16.2442	0.000540546	   16.2638	0.000554553	   16.2446	0.000521027	   16.2509	0.000538708	   16.2509	   13.4677	
    16.132	0.000539607	   16.1541	0.00055379	   16.1342	0.000519932	   16.1401	0.000537776	   16.1401	   13.4444	
   16.0187	0.000538672	   16.0439	0.000553019	   16.0227	0.000518806	   16.0284	0.000536833	   16.0284	   13.4208	
   15.9051	0.000537769	   15.9328	0.000552258	   15.9105	0.000517693	   15.9162	0.000535907	   15.9162	   13.3977	
    15.791	0.000536915	   15.8209	0.000551489	   15.7981	0.000516597	   15.8033	  0.000535	   15.8033	    13.375	
    15.677	0.000536099	   15.7087	0.000550728	   15.6851	0.000515593	   15.6903	0.00053414	   15.6903	   13.3535	
   15.5624	0.000535292	   15.5953	0.000549962	    15.572	0.000514687	   15.5765	0.000533314	   15.5765	   13.3328	
   15.4469	0.000534454	   15.4812	0.000549199	   15.4579	0.00051385	    15.462	0.000532501	    15.462	   13.3125	
    15.332	0.000533561	   15.3665	0.000548412	   15.3437	0.00051303	   15.3474	0.000531667	   15.3474	   13.2917	
   15.2162	0.000532601	   15.2516	0.000547589	   15.2281	0.000512171	    15.232	0.000530787	    15.232	   13.2697	
   15.1003	0.00053159	   15.1362	0.00054671	   15.1126	0.000511157	   15.1164	0.000529819	   15.1164	   13.2455	
   14.9835	0.000530554	   15.0206	0.000545795	   14.9962	0.000509997	   15.0001	0.000528782	   15.0001	   13.2196	
   14.8662	0.000529528	   14.9044	0.000544798	   14.8791	0.000508701	   14.8832	0.000527675	   14.8832	   13.1919	
   14.7484	0.000528526	   14.7876	0.000543822	   14.7612	0.000507349	   14.7657	0.000526566	   14.7657	   13.1641	
   14.6299	0.000527565	   14.6707	0.000542899	   14.6422	0.00050604	   14.6476	0.000525501	   14.6476	   13.1375	
   14.5114	0.000526655	    14.553	0.000542117	   14.5231	0.000504852	   14.5292	0.000524541	   14.5292	   13.1135	
   14.3923	0.000525788	   14.4345	0.000541489	   14.4039	0.000503793	   14.4102	0.00052369	   14.4102	   13.0922	
   14.2729	0.000524914	   14.3149	0.000540992	   14.2842	0.000502859	   14.2907	0.000522922	   14.2907	    13.073	
   14.1532	0.000523991	   14.1948	0.000540526	   14.1639	0.000501968	   14.1706	0.000522162	   14.1706	    13.054	
    14.033	0.000522968	    14.074	0.00054002	   14.0433	0.000501038	   14.0501	0.000521342	   14.0501	   13.0336	
   13.9126	0.000521849	   13.9536	0.000539347	   13.9227	0.000500013	   13.9296	0.000520403	   13.9296	   13.0101	
   13.7914	0.000520655	   13.8318	0.00053849	   13.8025	0.000498873	   13.8086	0.000519339	   13.8086	   12.9835	
   13.6693	0.000519462	   13.7097	0.000537474	   13.6815	0.000497643	   13.6868	0.000518193	   13.6868	   12.9548	
   13.5473	0.00051829	   13.5872	0.000536391	   13.5594	0.000496389	   13.5646	0.000517023	   13.5646	   12.9256	
   13.4245	0.000517197	   13.4642	0.000535346	   13.4372	0.000495168	    13.442	0.000515904	    13.442	   12.8976	
   13.3014	0.000516172	   13.3399	0.00053445	   13.3141	0.000494028	   13.3185	0.000514883	   13.3185	   12.8721	
   13.1774	0.000515182	   13.2146	0.000533716	   13.1905	0.000492975	   13.1942	0.000513958	   13.1942	   12.8489	
   13.0533	0.000514183	   13.0885	0.000533118	   13.0664	0.000491974	   13.0694	0.000513092	   13.0694	   12.8273	
   12.9286	0.000513111	   12.9626	0.000532559	   12.9424	0.000490971	   12.9445	0.000512214	   12.9445	   12.8053	
    12.804	0.000511965	   12.8363	0.000531929	   12.8176	0.000489907	   12.8193	0.000511267	   12.8193	   12.7817	
   12.6791	0.000510751	   12.7089	0.000531136	   12.6923	0.000488742	   12.6934	0.00051021	   12.6934	   12.7552	
   12.5538	0.00050951	   12.5806	0.000530164	   12.5668	0.000487477	   12.5671	0.00050905	   12.5671	   12.7263	
   12.4275	0.000508279	   12.4516	0.000529056	   12.4408	0.000486141	   12.4399	0.000507826	   12.4399	   12.6956	
    12.301	0.000507097	   12.3218	0.000527907	   12.3139	0.000484788	   12.3122	0.000506597	   12.3122	   12.6649	
    12.174	0.000505954	   12.1919	0.000526805	   12.1862	0.000483479	    12.184	0.000505413	    12.184	   12.6353	
   12.0469	0.000504825	   12.0614	0.000525818	   12.0578	0.000482243	   12.0554	0.000504295	   12.0554	   12.6074	
   11.9191	0.000503701	   11.9305	0.000524936	   11.9292	0.000481067	   11.9263	0.000503235	   11.9263	   12.5809	
   11.7906	0.000502486	   11.7992	0.000524112	   11.8001	0.000479916	   11.7967	0.000502172	   11.7967	   12.5543	
   11.6615	0.000501183	   11.6677	0.000523269	   11.6702	0.000478711	   11.6665	0.000501054	   11.6665	   12.5264	
   11.5315	0.000499773	   11.5351	0.000522332	   11.5395	0.000477411	   11.5354	0.000499839	   11.5354	    12.496	
   11.4014	0.000498302	   11.4021	0.000521273	   11.4086	0.000475988	    11.404	0.000498521	    11.404	    12.463	
   11.2706	0.000496841	   11.2688	0.000520095	    11.278	0.000474476	   11.2725	0.000497137	   11.2725	   12.4284	
   11.1394	0.000495474	   11.1349	0.000518839	   11.1468	0.000472942	   11.1404	0.000495752	   11.1404	   12.3938	
   11.0081	0.00049423	   11.0007	0.000517558	   11.0144	0.000471458	   11.0077	0.000494416	   11.0077	   12.3604	
   10.8762	0.000493123	    10.866	0.000516312	   10.8813	0.000470069	   10.8745	0.000493168	   10.8745	   12.3292	
   10.7439	0.000492054	   10.7312	0.000515109	   10.7468	0.000468776	   10.7407	0.00049198	   10.7407	   12.2995	
   10.6109	0.000490922	   10.5953	0.000513961	   10.6119	0.000467519	    10.606	0.000490801	    10.606	     12.27	
   10.4774	0.000489629	    10.459	0.000512837	   10.4758	0.000466219	   10.4707	0.000489562	   10.4707	    12.239	
   10.3434	0.000488149	   10.3225	0.000511682	   10.3388	0.000464802	   10.3349	0.000488211	   10.3349	   12.2053	
   10.2097	0.000486517	    10.186	0.00051046	    10.201	0.000463242	   10.1989	0.00048674	   10.1989	   12.1685	
   10.0752	0.000484852	   10.0495	0.000509151	   10.0628	0.00046157	   10.0625	0.000485191	   10.0625	   12.1298	
   9.93997	0.000483262	    9.9127	0.000507753	    9.9241	0.000459861	   9.92559	0.000483625	   9.92559	   12.0906	
    9.8042	0.000481854	   9.77604	0.000506312	   9.78449	0.000458194	   9.78825	0.00048212	   9.78825	    12.053	
   9.66742	0.000480634	   9.63896	0.000504873	   9.64502	0.000456636	   9.65047	0.000480714	   9.65047	   12.0179	
   9.53031	0.000479545	    9.5018	0.000503476	   9.50567	0.000455197	   9.51259	0.000479406	   9.51259	   11.9851	
    9.3918	0.000478453	   9.36463	0.000502117	   9.36532	0.000453838	   9.37391	0.000478136	   9.37391	   11.9534	
   9.25403	0.000477244	   9.22751	0.000500781	    9.2253	0.000452488	   9.23561	0.000476838	   9.23561	   11.9209	
   9.11582	0.000475834	   9.08972	0.000499417	   9.08528	0.000451066	   9.09694	0.000475439	   9.09694	    11.886	
   8.97728	0.000474241	   8.95138	0.000497988	   8.94493	0.00044952	   8.95787	0.000473917	   8.95787	   11.8479	
   8.83789	0.000472532	   8.81268	0.000496479	   8.80413	0.000447891	   8.81823	0.000472301	   8.81823	   11.8075	
   8.69801	0.000470838	   8.67364	0.000494903	    8.6636	0.000446176	   8.67842	0.000470639	   8.67842	    11.766	
   8.55777	0.000469256	   8.53436	0.000493293	   8.52263	0.000444486	   8.53825	0.000469011	   8.53825	   11.7253	
   8.41726	0.000467839	   8.39454	0.00049169	   8.38171	0.000442811	   8.39784	0.000467447	   8.39784	   11.6862	
   8.27619	0.000466562	   8.25429	0.000490115	   8.24132	0.000441179	   8.25727	0.000465952	   8.25727	   11.6488	
    8.1346	0.000465344	   8.11396	0.000488573	   8.10124	0.000439539	    8.1166	0.000464486	    8.1166	   11.6121	
   7.99231	0.000464067	   7.97262	0.000487044	   7.96256	0.000437866	   7.97583	0.000462993	   7.97583	   11.5748	
   7.84983	0.000462654	   7.83081	0.000485458	   7.82325	0.000436128	   7.83463	0.000461413	   7.83463	   11.5353	
   7.70689	0.00046108	   7.68866	0.000483795	   7.68463	0.000434378	   7.69339	0.000459751	   7.69339	   11.4938	
    7.5636	0.000459376	   7.54627	0.000482059	   7.54552	0.000432631	    7.5518	0.000458022	    7.5518	   11.4506	
   7.41968	0.000457638	   7.40375	0.000480274	    7.4037	0.000430956	   7.40904	0.00045629	   7.40904	   11.4072	
   7.27582	0.000455947	   7.26102	0.000478503	   7.26195	0.000429356	   7.26626	0.000454602	   7.26626	   11.3651	
   7.13155	0.000454338	   7.11875	0.000476781	   7.11669	0.000427809	   7.12233	0.000452976	   7.12233	   11.3244	
   6.98622	0.000452815	   6.97618	0.000475109	    6.9714	0.000426268	   6.97793	0.000451397	   6.97793	   11.2849	
   6.84077	0.000451319	   6.83343	0.000473474	   6.82542	0.00042467	   6.83321	0.000449821	   6.83321	   11.2455	
   6.69532	0.000449771	   6.69059	0.000471822	   6.67889	0.000422967	   6.68827	0.000448187	   6.68827	   11.2047	
   6.54956	0.000448135	   6.54737	0.000470094	   6.53312	0.000421156	   6.54335	0.000446461	   6.54335	   11.1615	
   6.40346	0.000446389	   6.40403	0.00046826	   6.38783	0.000419261	   6.39844	0.000444637	   6.39844	   11.1159	
    6.2569	0.000444561	   6.26013	0.000466321	     6.243	0.000417334	   6.25334	0.000442739	   6.25334	   11.0685	
   6.11041	0.000442718	   6.11579	0.000464303	   6.09868	0.00041544	   6.10829	0.00044082	   6.10829	   11.0205	
   5.96447	0.000440916	   5.97075	0.000462275	   5.95413	0.000413615	   5.96311	0.000438935	   5.96311	   10.9734	
   5.81834	0.000439178	   5.82475	0.000460288	   5.80867	0.000411869	   5.81726	0.000437112	   5.81726	   10.9278	
   5.67253	0.000437512	   5.67759	0.000458368	   5.66365	0.000410177	   5.67126	0.000435352	   5.67126	   10.8838	
    5.5268	0.000435873	   5.53008	0.000456514	   5.51818	0.000408476	   5.52502	0.000433621	   5.52502	   10.8405	
   5.38035	0.000434208	   5.38251	0.000454686	   5.37177	0.000406697	   5.37821	0.000431863	   5.37821	   10.7966	
   5.23375	0.000432464	   5.23498	0.000452818	   5.22536	0.000404798	   5.23136	0.000430026	   5.23136	   10.7507	
    5.0871	0.000430622	   5.08759	0.000450859	   5.07906	0.000402766	   5.08458	0.000428082	   5.08458	   10.7021	
   4.94049	0.000428692	   4.94003	0.000448793	   4.93255	0.000400641	   4.93769	0.000426042	   4.93769	    10.651	
   4.79402	0.000426722	   4.79241	0.000446638	   4.78596	0.000398495	    4.7908	0.000423952	    4.7908	   10.5988	
   4.64715	0.000424738	   4.64492	0.000444439	   4.63915	0.000396392	   4.64374	0.000421856	   4.64374	   10.5464	
   4.49986	0.000422816	   4.49757	0.000442255	   4.49247	0.000394393	   4.49663	0.000419821	   4.49663	   10.4955	
   4.35226	0.00042097	   4.35005	0.000440129	   4.34561	0.000392485	   4.34931	0.000417861	   4.34931	   10.4465	
   4.20372	0.000419226	   4.20169	0.000438072	   4.19829	0.000390622	   4.20123	0.000415974	   4.20123	   10.3993	
   4.05478	0.000417548	   4.05306	0.000436058	   4.05065	0.000388723	   4.05283	0.00041411	   4.05283	   10.3527	
   3.90591	0.00041588	   3.90396	0.000434035	   3.90313	0.000386726	   3.90433	0.000412214	   3.90433	   10.3053	
   3.75689	0.000414149	   3.75485	0.000431948	   3.75471	0.000384604	   3.75548	0.000410233	   3.75548	   10.2558	
   3.60822	0.000412316	   3.60466	0.000429767	   3.60597	0.000382374	   3.60628	0.000408153	   3.60628	   10.2038	
   3.45959	0.000410343	   3.45437	0.000427491	   3.45665	0.000380078	   3.45687	0.000405971	   3.45687	   10.1493	
   3.31071	0.000408277	   3.30449	0.000425152	   3.30689	0.000377783	   3.30737	0.000403737	   3.30737	   10.0934	
    3.1621	0.000406164	   3.15549	0.000422797	   3.15724	0.000375504	   3.15828	0.000401488	   3.15828	   10.0372	
   3.01336	0.000404073	   3.00654	0.000420472	    3.0074	0.000373299	    3.0091	0.000399281	    3.0091	   9.98203	
   2.86469	0.000402049	   2.85703	0.000418196	   2.85788	0.000371158	   2.85987	0.000397134	   2.85987	   9.92836	
    2.7158	0.000400103	    2.7075	0.000415965	   2.70758	0.000369083	   2.71029	0.00039505	   2.71029	   9.87626	
    2.5668	0.000398188	   2.55768	0.00041374	   2.55746	0.000367033	   2.56065	0.000392987	   2.56065	   9.82467	
   2.41742	0.000396253	   2.40768	0.000411476	   2.40723	0.00036496	   2.41078	0.000390896	   2.41078	   9.77241	
   2.26819	0.000394226	   2.25725	0.000409143	   2.25621	0.000362806	   2.26055	0.000388725	   2.26055	   9.71813	
   2.11872	0.000392074	   2.10651	0.000406725	   2.10497	0.000360554	   2.11007	0.000386451	   2.11007	   9.66128	
   1.96843	 0.0003898	   1.95523	0.000404234	   1.95364	0.000358179	    1.9591	0.000384071	    1.9591	   9.60177	
   1.81791	0.000387446	   1.80394	0.000401709	   1.80196	0.000355717	   1.80793	0.000381624	   1.80793	   9.54059	
   1.66686	0.00038507	   1.65314	0.000399188	   1.65045	0.00035321	   1.65682	0.000379156	   1.65682	    9.4789	
   1.51625	0.000382728	   1.50253	0.000396699	   1.49881	0.000350722	   1.50586	0.000376716	   1.50586	   9.41791	
   1.36574	0.000380436	   1.35179	0.000394249	   1.34679	0.000348289	   1.35478	0.000374325	   1.35478	   9.35812	
   1.21435	0.00037819	   1.20066	0.000391816	   1.19484	0.000345925	   1.20328	0.000371977	   1.20328	   9.29943	
   1.06295	0.000375945	   1.04967	0.000389364	   1.04276	0.000343591	   1.05179	0.000369633	   1.05179	   9.24083	
  0.911663	0.00037365	  0.898522	0.000386855	  0.890266	0.000341251	   0.90015	0.000367252	   0.90015	    9.1813	
  0.760203	0.000371263	  0.746956	0.000384268	  0.738307	0.000338851	  0.748489	0.000364794	  0.748489	   9.11985	
  0.607909	0.000368767	  0.596295	0.000381603	  0.585772	0.000336363	  0.596659	0.000362244	  0.596659	   9.05611	
  0.455515	0.000366169	  0.445867	0.000378887	  0.433686	0.000333788	  0.445023	0.000359615	  0.445023	   8.99037	
  0.303377	0.000363505	  0.295685	0.000376154	  0.281658	0.00033116	  0.293574	0.00035694	  0.293574	   8.92349	
  0.151982	0.000360819	  0.145838	0.00037339	  0.129792	0.000328514	  0.142538	0.000354241	  0.142538	   8.85602	
0.000985647	0.000358144	-0.00359929	0.000370642	-0.0221991	0.000325892	-0.00827093	0.000351559	-0.00827093	   8.78898	
 -0.149923	 0.0003555	 -0.152944	0.00036791	   -0.1738	0.000323297	 -0.158889	0.000348902	 -0.158889	   8.72255	
 -0.301037	0.000352872	 -0.302494	0.000365191	 -0.325326	0.00032072	 -0.309619	0.000346261	 -0.309619	   8.65652	
 -0.452147	0.000350224	 -0.452986	0.000362486	   -0.4769	0.000318123	 -0.460678	0.000343611	 -0.460678	   8.59027	
 -0.602829	0.000347516	 -0.603372	0.000359762	  -0.62896	0.000315477	  -0.61172	0.000340919	  -0.61172	   8.52296	
 -0.753795	0.000344728	 -0.753947	0.000356981	 -0.780563	0.00031275	 -0.762769	0.000338153	 -0.762769	   8.45382	
 -0.904122	0.000341865	 -0.904195	0.000354143	 -0.932029	0.000309935	 -0.913449	0.000335314	 -0.913449	   8.38286	
  -1.05454	0.000338963	  -1.05403	0.000351235	  -1.08365	0.000307045	  -1.06407	0.000332414	  -1.06407	   8.31035	
  -1.20454	0.000336053	  -1.20456	0.000348252	   -1.2353	0.000304115	   -1.2148	0.000329473	   -1.2148	   8.23683	
  -1.35507	0.000333161	  -1.35452	0.000345225	  -1.38678	0.000301184	  -1.36545	0.000326523	  -1.36545	   8.16308	
  -1.50574	0.000330297	  -1.50455	0.000342177	  -1.53807	0.000298278	  -1.51612	0.000323584	  -1.51612	    8.0896	
  -1.65604	0.000327436	  -1.65493	0.000339122	  -1.68909	0.000295405	  -1.66668	0.000320654	  -1.66668	   8.01636	
  -1.80628	0.000324558	  -1.80514	0.000336081	  -1.83894	0.000292552	  -1.81679	0.00031773	  -1.81679	   7.94326	
  -1.95597	0.000321614	  -1.95547	0.000333048	  -1.98881	0.000289682	  -1.96675	0.000314781	  -1.96675	   7.86953	
  -2.10544	0.000318574	   -2.1058	0.000330009	  -2.13819	0.000286757	  -2.11648	0.00031178	  -2.11648	    7.7945	
    -2.255	0.000315426	  -2.25666	0.000326946	  -2.28709	0.000283753	  -2.26625	0.000308708	  -2.26625	   7.71771	
  -2.40453	0.000312191	  -2.40764	0.000323833	  -2.43654	0.000280666	  -2.41624	0.000305563	  -2.41624	   7.63908	
  -2.55471	0.000308908	  -2.55903	0.000320655	  -2.58561	0.000277513	  -2.56645	0.000302359	  -2.56645	   7.55896	
  -2.70538	0.000305629	  -2.71069	0.000317415	  -2.73502	0.000274337	  -2.71703	0.000299127	  -2.71703	   7.47818	
  -2.85639	0.000302382	  -2.86168	0.000314125	  -2.88463	0.000271176	  -2.86757	0.000295894	  -2.86757	   7.39736	
  -3.00768	0.000299179	  -3.01252	0.000310807	  -3.03408	0.000268048	  -3.01809	0.000292678	  -3.01809	   7.31694	
  -3.15865	0.000296004	  -3.16254	0.000307482	  -3.18313	0.000264951	   -3.1681	0.000289479	   -3.1681	   7.23698	
   -3.3092	0.000292816	  -3.31288	0.000304161	  -3.33169	0.000261856	  -3.31793	0.000286278	  -3.31793	   7.15694	
  -3.45928	0.00028958	  -3.46301	0.000300836	  -3.48011	0.000258722	  -3.46747	0.000283046	  -3.46747	   7.07615	
  -3.60919	0.000286253	  -3.61325	0.000297495	  -3.62829	0.000255519	  -3.61691	0.000279756	  -3.61691	   6.99389	
  -3.75846	0.000282843	  -3.76347	0.00029411	  -3.77615	0.000252244	  -3.76602	0.000276399	  -3.76602	   6.90998	
  -3.90765	0.000279362	  -3.91372	0.000290662	  -3.92353	0.000248913	  -3.91497	0.000272979	  -3.91497	   6.82448	
  -4.05682	0.000275851	  -4.06374	0.000287149	  -4.07046	0.000245559	  -4.06367	0.00026952	  -4.06367	   6.73799	
  -4.20549	0.00027234	  -4.21382	0.000283588	  -4.21649	0.000242211	  -4.21193	0.000266046	  -4.21193	   6.65116	
  -4.35319	0.000268846	  -4.36347	0.000279995	  -4.36276	0.000238888	  -4.35981	0.000262576	  -4.35981	   6.56441	
  -4.50109	0.000265367	  -4.51339	0.000276396	  -4.50916	0.000235587	  -4.50788	0.000259117	  -4.50788	   6.47792	
  -4.64906	0.000261883	  -4.66268	0.000272806	   -4.6556	0.000232286	  -4.65578	0.000255658	  -4.65578	   6.39145	
  -4.79693	0.000258359	   -4.8119	0.000269224	  -4.80219	0.000228947	  -4.80367	0.000252177	  -4.80367	   6.30442	
  -4.94507	0.000254772	  -4.96072	0.000265638	  -4.94861	0.000225544	  -4.95147	0.000248652	  -4.95147	   6.21629	
  -5.09296	0.000251121	  -5.10947	0.000262027	  -5.09517	0.000222068	   -5.0992	0.000245072	   -5.0992	    6.1268	
   -5.2417	0.000247418	  -5.25883	0.000258357	  -5.24175	0.000218498	  -5.24743	0.000241424	  -5.24743	   6.03561	
  -5.39034	0.000243681	  -5.40786	0.000254692	  -5.38865	0.000214879	  -5.39561	0.000237751	  -5.39561	   5.94376	
  -5.53839	0.000239939	  -5.55648	0.000250993	  -5.53535	0.000211245	  -5.54341	0.000234059	  -5.54341	   5.85147	
   -5.6865	0.000236206	  -5.70463	0.000247309	  -5.68178	0.000207655	  -5.69097	0.00023039	  -5.69097	   5.75975	
  -5.83386	0.000232485	  -5.85263	0.000243581	  -5.82864	0.000204133	  -5.83838	0.000226733	  -5.83838	   5.66833	
  -5.98162	0.000228767	  -6.00001	0.000239802	  -5.97502	0.000200686	  -5.98555	0.000223085	  -5.98555	   5.57712	
  -6.12845	0.000225029	  -6.14671	0.000235928	  -6.12086	0.000197267	  -6.13201	0.000219408	  -6.13201	    5.4852	
  -6.27435	0.000221246	  -6.29113	0.000231972	  -6.26651	0.000193817	  -6.27733	0.000215678	  -6.27733	   5.39196	
  -6.42023	0.000217404	  -6.43611	0.000227956	  -6.41267	0.000190263	    -6.423	0.000211874	    -6.423	   5.29686	
  -6.56545	0.000213503	  -6.57916	0.000223963	  -6.55882	0.000186577	  -6.56781	0.000208014	  -6.56781	   5.20036	
  -6.71037	0.000209555	   -6.7227	0.000220042	  -6.70448	0.000182774	  -6.71252	0.000204124	  -6.71252	   5.10309	
  -6.85492	0.000205581	  -6.86936	0.000216241	  -6.84997	0.000178927	  -6.85808	0.00020025	  -6.85808	   5.00625	
  -6.99984	0.000201609	  -7.01408	0.000212543	  -6.99483	0.000175097	  -7.00291	0.000196417	  -7.00291	   4.91041	
   -7.1442	0.000197655	  -7.16241	0.000208877	  -7.13941	0.000171318	  -7.14867	0.000192616	  -7.14867	   4.81541	
  -7.28828	0.000193723	   -7.3109	0.000205121	  -7.28388	0.000167583	  -7.29436	0.000188809	  -7.29436	   4.72022	
  -7.43171	0.000189805	  -7.45976	0.000201223	  -7.42831	0.000163859	  -7.43993	0.000184962	  -7.43993	   4.62406	
  -7.57524	0.000185875	  -7.60885	0.000197172	  -7.57263	0.000160109	  -7.58557	0.000181052	  -7.58557	    4.5263	
  -7.71916	0.000181942	  -7.75529	0.000193032	  -7.71675	 0.0001563	   -7.7304	0.000177091	   -7.7304	   4.42728	
  -7.86258	0.000177981	  -7.90157	0.000188899	    -7.861	0.000152394	  -7.87505	0.000173091	  -7.87505	   4.32728	
  -8.00544	0.000174002	  -8.04642	0.000184848	  -8.00487	0.00014842	  -8.01891	0.00016909	  -8.01891	   4.22725	
   -8.1481	0.000169995	  -8.19034	0.000180914	  -8.14863	0.000144427	  -8.16236	0.000165112	  -8.16236	    4.1278	
   -8.2905	0.000165958	  -8.33364	0.000177069	  -8.29229	0.000140458	  -8.30548	0.000161162	  -8.30548	   4.02904	
  -8.43297	0.00016188	  -8.47667	0.000173228	  -8.43575	0.000136574	  -8.44846	0.000157227	  -8.44846	   3.93068	
  -8.57502	0.000157766	  -8.62015	0.000169297	  -8.57896	0.000132764	  -8.59137	0.000153276	  -8.59137	   3.83189	
    -8.717	0.000153616	  -8.76279	0.000165212	  -8.72185	0.00012903	  -8.73388	0.000149286	  -8.73388	   3.73215	
  -8.85805	0.000149471	  -8.90575	0.000160965	  -8.86397	0.00012529	  -8.87592	0.000145242	  -8.87592	   3.63106	
  -8.99873	0.000145357	  -9.04821	0.000156627	  -9.00546	0.000121484	  -9.01746	0.000141156	  -9.01746	    3.5289	
  -9.13882	0.000141293	  -9.19044	0.000152307	  -9.14653	0.000117551	  -9.15859	0.00013705	  -9.15859	   3.42626	
  -9.27908	0.000137274	  -9.33239	0.000148088	  -9.28713	0.000113506	  -9.29953	0.000132956	  -9.29953	    3.3239	
  -9.41904	0.000133275	  -9.47359	0.000143995	  -9.42762	0.000109378	  -9.44008	0.000128883	  -9.44008	   3.22207	
  -9.55825	0.000129257	  -9.61444	0.000140001	  -9.56832	0.000105248	  -9.58033	0.000124835	  -9.58033	   3.12088	
  -9.69646	0.00012516	  -9.75417	0.000136003	  -9.70898	0.000101182	  -9.71987	0.000120782	  -9.71987	   3.01955	
  -9.83472	0.00012098	  -9.89311	0.000131928	   -9.8489	9.72247e-05	  -9.85891	0.000116711	  -9.85891	   2.91777	
  -9.97294	0.000116705	  -10.0313	0.000127716	  -9.98846	 9.336e-05	  -9.99756	0.000112594	  -9.99756	   2.81484	
  -10.1111	 0.0001124	  -10.1682	0.000123363	   -10.128	8.95471e-05	  -10.1358	0.000108437	  -10.1358	   2.71092	
  -10.2487	0.000108116	  -10.3048	0.000118913	  -10.2667	8.57034e-05	  -10.2734	0.000104244	  -10.2734	    2.6061	
  -10.3857	0.00010391	   -10.441	0.000114477	  -10.4053	8.17611e-05	  -10.4107	0.00010005	  -10.4107	   2.50124	
  -10.5222	9.98078e-05	  -10.5775	0.000110133	  -10.5441	7.76814e-05	  -10.5479	9.5874e-05	  -10.5479	   2.39685	
  -10.6582	9.58009e-05	  -10.7138	0.000105957	  -10.6822	7.35209e-05	  -10.6848	9.17598e-05	  -10.6848	   2.29399	
  -10.7943	9.18015e-05	    -10.85	0.000101918	  -10.8198	6.92976e-05	  -10.8214	8.76725e-05	  -10.8214	   2.19181	
  -10.9305	8.77233e-05	  -10.9859	9.79838e-05	   -10.957	6.51117e-05	  -10.9578	8.36062e-05	  -10.9578	   2.09016	
  -11.0671	8.34807e-05	  -11.1208	9.40162e-05	  -11.0936	6.09797e-05	  -11.0939	7.94922e-05	  -11.0939	    1.9873	
  -11.2033	7.90575e-05	  -11.2551	8.99333e-05	  -11.2295	5.68757e-05	  -11.2293	7.52888e-05	  -11.2293	   1.88222	
  -11.3392	7.44943e-05	   -11.389	8.56668e-05	  -11.3648	5.27615e-05	  -11.3643	7.09742e-05	  -11.3643	   1.77435	
  -11.4745	6.9895e-05	  -11.5218	8.12473e-05	  -11.4995	4.86236e-05	  -11.4986	6.65886e-05	  -11.4986	   1.66472	
  -11.6093	6.5384e-05	  -11.6544	7.67492e-05	  -11.6335	4.44195e-05	  -11.6324	6.21842e-05	  -11.6324	   1.55461	
  -11.7439	6.10352e-05	   -11.786	7.2295e-05	  -11.7667	4.02095e-05	  -11.7655	5.78465e-05	  -11.7655	   1.44616	
   -11.878	5.68777e-05	  -11.9177	6.79646e-05	  -11.8996	3.59924e-05	  -11.8984	5.36116e-05	  -11.8984	   1.34029	
  -12.0118	5.28388e-05	  -12.0496	6.37946e-05	   -12.031	3.17954e-05	  -12.0308	4.94762e-05	  -12.0308	   1.23691	
   -12.145	4.88046e-05	  -12.1808	5.97437e-05	  -12.1625	2.76233e-05	  -12.1627	4.53905e-05	  -12.1627	   1.13476	
  -12.2776	4.46483e-05	  -12.3112	5.57311e-05	  -12.2936	2.34426e-05	  -12.2941	4.1274e-05	  -12.2941	   1.03185	
  -12.4088	4.03254e-05	   -12.441	5.16432e-05	   -12.424	1.92025e-05	  -12.4246	3.7057e-05	  -12.4246	  0.926426	
  -12.5394	3.58211e-05	  -12.5709	4.7406e-05	  -12.5537	1.49082e-05	  -12.5547	3.27117e-05	  -12.5547	  0.817793	
  -12.6694	3.11939e-05	  -12.7001	4.29843e-05	  -12.6831	1.05326e-05	  -12.6842	2.82369e-05	  -12.6842	  0.705923	
  -12.7985	2.65524e-05	  -12.8288	3.84285e-05	  -12.8125	6.11462e-06	  -12.8133	2.36985e-05	  -12.8133	  0.592462	
  -12.9271	2.20201e-05	  -12.9565	3.38325e-05	  -12.9418	1.68757e-06	  -12.9418	 1.918e-05	  -12.9418	  0.479501	
  -13.0556	1.76502e-05	  -13.0834	2.93027e-05	  -13.0704	-2.71167e-06	  -13.0698	1.47471e-05	  -13.0698	  0.368677	
  -13.1839	1.34798e-05	  -13.2098	2.49064e-05	  -13.1983	-7.06425e-06	  -13.1973	1.04407e-05	  -13.1973	  0.261017	
  -13.3117	9.43145e-06	  -13.3355	2.06616e-05	  -13.3254	-1.13605e-05	  -13.3242	6.24416e-06	  -13.3242	  0.156104	
  -13.4389	5.40635e-06	  -13.4611	1.65097e-05	  -13.4522	-1.56326e-05	  -13.4507	2.09449e-06	  -13.4507	 0.0523622	
   -13.566	1.30866e-06	  -13.5859	1.23507e-05	  -13.5782	-1.99149e-05	  -13.5767	-2.08519e-06	  -13.5767	-0.0521298	
  -13.6922	-2.95147e-06	  -13.7101	8.08783e-06	  -13.7035	-2.42542e-05	  -13.7019	-6.37261e-06	  -13.7019	 -0.159315	
  -13.8182	-7.39914e-06	  -13.8338	3.64358e-06	  -13.8286	-2.86741e-05	  -13.8269	-1.08099e-05	  -13.8269	 -0.270248	
  -13.9438	-1.19615e-05	  -13.9574	-9.63098e-07	   -13.953	-3.31612e-05	  -13.9514	-1.5362e-05	  -13.9514	 -0.384049	
  -14.0687	-1.65477e-05	    -14.08	-5.63827e-06	  -14.0772	-3.76746e-05	  -14.0753	-1.99535e-05	  -14.0753	 -0.498838	
  -14.1925	-2.10463e-05	  -14.2022	-1.02765e-05	     -14.2	-4.21551e-05	  -14.1982	-2.44926e-05	  -14.1982	 -0.612316	
  -14.3158	-2.53821e-05	  -14.3236	-1.47506e-05	  -14.3227	-4.65352e-05	  -14.3207	-2.88893e-05	  -14.3207	 -0.722232	
  -14.4383	-2.95561e-05	  -14.4447	-1.9031e-05	  -14.4456	-5.07548e-05	  -14.4428	-3.3114e-05	  -14.4428	  -0.82785	
    -14.56	-3.36355e-05	  -14.5646	-2.31607e-05	  -14.5683	-5.4816e-05	  -14.5643	-3.72041e-05	  -14.5643	 -0.930101	
  -14.6807	-3.77071e-05	  -14.6842	-2.7242e-05	  -14.6905	-5.88503e-05	  -14.6851	-4.12665e-05	  -14.6851	  -1.03166	
  -14.8012	-4.1876e-05	  -14.8035	-3.13936e-05	  -14.8125	-6.29543e-05	  -14.8058	-4.5408e-05	  -14.8058	   -1.1352	
  -14.9206	-4.61893e-05	  -14.9223	-3.57367e-05	  -14.9341	-6.7293e-05	  -14.9256	-4.97396e-05	  -14.9256	  -1.24349	
  -15.0395	-5.06376e-05	  -15.0403	-4.02889e-05	   -15.054	-7.18839e-05	  -15.0446	-5.42701e-05	  -15.0446	  -1.35675	
  -15.1578	-5.51615e-05	  -15.1578	  -4.5e-05	   -15.172	-7.66495e-05	  -15.1625	-5.8937e-05	  -15.1625	  -1.47343	
  -15.2757	-5.96641e-05	  -15.2748	-4.97577e-05	  -15.2858	-8.14436e-05	  -15.2788	-6.36218e-05	  -15.2788	  -1.59054	
  -15.3925	-6.40601e-05	   -15.391	-5.44375e-05	  -15.3998	-8.61491e-05	  -15.3944	-6.82156e-05	  -15.3944	  -1.70539	
  -15.5081	-6.83147e-05	  -15.5067	-5.89415e-05	  -15.5116	-9.05646e-05	  -15.5088	-7.26069e-05	  -15.5088	  -1.81517	
  -15.6231	-7.24383e-05	   -15.621	-6.326e-05	  -15.6241	-9.46974e-05	  -15.6227	-7.67986e-05	  -15.6227	  -1.91996	
  -15.7371	-7.64912e-05	  -15.7351	-6.74467e-05	  -15.7387	-9.85993e-05	   -15.737	-8.08457e-05	   -15.737	  -2.02114	
  -15.8502	-8.05669e-05	  -15.8495	-7.16151e-05	  -15.8524	-0.000102427	  -15.8507	-8.48696e-05	  -15.8507	  -2.12174	
   -15.963	-8.4738e-05	  -15.9629	-7.58787e-05	   -15.969	-0.00010633	   -15.965	-8.89823e-05	   -15.965	  -2.22456	
  -16.0751	-8.90344e-05	  -16.0758	-8.03119e-05	  -16.0848	-0.000110461	  -16.0785	-9.3269e-05	  -16.0785	  -2.33173	
  -16.1869	-9.3457e-05	  -16.1878	-8.4904e-05	   -16.201	-0.000114828	  -16.1919	-9.77297e-05	  -16.1919	  -2.44324	
  -16.2983	-9.79233e-05	  -16.2993	-8.95728e-05	   -16.316	-0.000119383	  -16.3045	-0.000102293	  -16.3045	  -2.55732	
  -16.4088	-0.000102365	  -16.4105	-9.42178e-05	  -16.4299	-0.000123976	  -16.4164	-0.000106853	  -16.4164	  -2.67132	
  -16.5192	-0.000106706	  -16.5207	-9.87557e-05	  -16.5421	-0.000128459	  -16.5273	-0.000111307	  -16.5273	  -2.78267	
  -16.6284	-0.000110923	  -16.6308	-0.000103155	  -16.6535	-0.000132729	  -16.6376	-0.000115602	  -16.6376	  -2.89006	
  -16.7374	-0.000115037	    -16.74	-0.000107445	  -16.7642	-0.000136776	  -16.7472	-0.000119753	  -16.7472	  -2.99381	
  -16.8453	-0.000119122	  -16.8492	-0.000111693	  -16.8736	-0.000140657	   -16.856	-0.000123824	   -16.856	   -3.0956	
  -16.9528	-0.000123236	  -16.9575	-0.000115985	  -16.9827	-0.000144503	  -16.9643	-0.000127908	  -16.9643	  -3.19771	
  -17.0598	-0.000127427	  -17.0655	-0.0001204	  -17.0907	-0.000148447	   -17.072	-0.000132091	   -17.072	  -3.30229	
  -17.1661	-0.000131691	  -17.1733	-0.000124935	  -17.1976	-0.000152565	   -17.179	-0.000136397	   -17.179	  -3.40992	
  -17.2721	-0.000135991	  -17.2802	-0.000129549	  -17.3043	-0.000156852	  -17.2855	-0.000140797	  -17.2855	  -3.51993	
  -17.3776	-0.000140282	  -17.3867	-0.000134163	  -17.4105	-0.000161233	  -17.3916	-0.000145226	  -17.3916	  -3.63064	
  -17.4825	-0.000144532	  -17.4928	-0.000138684	  -17.5158	-0.000165591	   -17.497	-0.000149602	   -17.497	  -3.74005	
   -17.587	-0.000148727	  -17.5979	-0.00014307	  -17.6202	-0.000169806	  -17.6017	-0.000153868	  -17.6017	   -3.8467	
  -17.6915	-0.00015288	  -17.7021	-0.000147319	  -17.7231	-0.000173832	  -17.7056	-0.00015801	  -17.7056	  -3.95025	
  -17.7953	-0.000157011	  -17.8059	-0.000151496	  -17.8256	-0.000177698	  -17.8089	-0.000162068	  -17.8089	  -4.05171	
  -17.8986	-0.000161153	  -17.9089	-0.000155692	   -17.927	-0.000181489	  -17.9115	-0.000166111	  -17.9115	  -4.15279	
  -18.0009	-0.000165315	  -18.0117	-0.000159989	  -18.0279	-0.000185328	  -18.0135	-0.000170211	  -18.0135	  -4.25526	
  -18.1021	-0.000169509	  -18.1135	-0.000164409	  -18.1282	-0.000189314	  -18.1146	-0.000174411	  -18.1146	  -4.36027	
  -18.2027	-0.000173709	  -18.2145	-0.000168929	  -18.2274	-0.000193467	  -18.2149	-0.000178702	  -18.2149	  -4.46754	
  -18.3024	-0.000177888	  -18.3144	-0.000173472	  -18.3261	-0.000197744	  -18.3143	-0.000183035	  -18.3143	  -4.57586	
  -18.4017	-0.000182009	  -18.4126	-0.000177956	  -18.4238	-0.000202039	  -18.4127	-0.000187335	  -18.4127	  -4.68337	
     -18.5	-0.00018607	  -18.5104	-0.000182312	  -18.5211	-0.000206237	  -18.5105	-0.00019154	  -18.5105	   -4.7885	
  -18.5973	-0.000190063	  -18.6076	-0.000186532	  -18.6182	-0.000210252	  -18.6077	-0.000195616	  -18.6077	   -4.8904	
  -18.6939	-0.000194028	  -18.7043	-0.00019065	  -18.7144	-0.000214057	  -18.7042	-0.000199578	  -18.7042	  -4.98946	
  -18.7899	-0.000197994	  -18.8002	-0.000194744	  -18.8101	-0.000217716	  -18.8001	-0.000203485	  -18.8001	  -5.08712	
   -18.885	-0.000202002	   -18.895	-0.000198892	  -18.9052	-0.000221354	  -18.8951	-0.000207416	  -18.8951	   -5.1854	
  -18.9789	-0.000206057	   -18.989	-0.00020314	       -19	-0.000225092	  -18.9893	-0.00021143	  -18.9893	  -5.28575	
  -19.0722	-0.00021015	  -19.0818	-0.00020748	  -19.0944	-0.000229005	  -19.0828	-0.000215545	  -19.0828	  -5.38862	
  -19.1651	-0.000214238	  -19.1736	-0.000211869	  -19.1876	-0.000233082	  -19.1754	-0.00021973	  -19.1754	  -5.49324	
  -19.2577	-0.000218287	  -19.2644	-0.00021623	  -19.2802	-0.000237258	  -19.2674	-0.000223925	  -19.2674	  -5.59813	
  -19.3488	-0.000222266	   -19.355	-0.000220496	  -19.3716	-0.000241398	  -19.3585	-0.000228053	  -19.3585	  -5.70134	
  -19.4387	-0.000226165	  -19.4443	-0.000224634	  -19.4624	-0.000245418	  -19.4485	-0.000232072	  -19.4485	   -5.8018	
   -19.528	-0.000230001	  -19.5329	-0.000228664	  -19.5522	-0.000249181	  -19.5377	-0.000235948	  -19.5377	  -5.89871	
  -19.6165	-0.000233816	   -19.621	-0.000232643	  -19.6405	-0.000252727	   -19.626	-0.000239728	   -19.626	  -5.99321	
  -19.7038	-0.000237647	  -19.7086	-0.000236644	  -19.7275	-0.000256135	  -19.7133	-0.000243475	  -19.7133	  -6.08688	
  -19.7904	-0.000241519	   -19.795	-0.000240721	  -19.8138	-0.000259543	  -19.7998	-0.000247261	  -19.7998	  -6.18152	
  -19.8759	-0.000245428	   -19.881	-0.000244887	  -19.9001	-0.000263078	  -19.8857	-0.000251131	  -19.8857	  -6.27828	
  -19.9609	-0.000249343	  -19.9663	-0.000249115	  -19.9855	-0.000266845	  -19.9709	-0.000255101	  -19.9709	  -6.37753	
  -20.0451	-0.000253222	  -20.0502	-0.000253341	  -20.0695	-0.000270803	  -20.0549	-0.000259122	  -20.0549	  -6.47805	
  -20.1283	-0.000257036	  -20.1334	-0.0002575	  -20.1526	-0.000274879	  -20.1381	-0.000263138	  -20.1381	  -6.57845	
  -20.2111	-0.000260764	  -20.2153	-0.000261547	  -20.2348	-0.000278912	  -20.2204	-0.000267074	  -20.2204	  -6.67686	
   -20.293	-0.000264422	  -20.2967	-0.000265476	  -20.3156	-0.000282758	  -20.3018	-0.000270886	  -20.3018	  -6.77214	
  -20.3742	-0.000268042	  -20.3771	-0.000269324	  -20.3947	-0.000286347	   -20.382	-0.000274571	   -20.382	  -6.86427	
  -20.4542	-0.000271661	  -20.4568	-0.000273154	  -20.4739	-0.00028971	  -20.4616	-0.000278175	  -20.4616	  -6.95437	
  -20.5339	-0.000275303	  -20.5355	-0.000277021	  -20.5521	-0.000292947	  -20.5405	-0.000281757	  -20.5405	  -7.04392	
  -20.6128	-0.000278977	  -20.6131	-0.000280965	  -20.6295	-0.000296219	  -20.6185	-0.000285387	  -20.6185	  -7.13467	
  -20.6906	-0.000282665	  -20.6905	-0.000284983	  -20.7056	-0.000299647	  -20.6956	-0.000289098	  -20.6956	  -7.22746	
  -20.7673	-0.000286337	  -20.7671	-0.000289032	  -20.7811	-0.00030329	  -20.7718	-0.000292886	  -20.7718	  -7.32216	
  -20.8427	-0.000289965	  -20.8428	-0.000293055	   -20.856	-0.00030711	  -20.8472	-0.00029671	  -20.8472	  -7.41775	
  -20.9176	-0.000293527	  -20.9173	-0.000297003	  -20.9302	-0.000311001	  -20.9217	-0.00030051	  -20.9217	  -7.51276	
  -20.9918	-0.000297022	  -20.9918	-0.000300848	  -21.0038	-0.000314812	  -20.9958	-0.000304228	  -20.9958	  -7.60569	
  -21.0649	-0.000300465	  -21.0656	-0.000304598	   -21.076	-0.000318436	  -21.0688	-0.000307833	  -21.0688	  -7.69582	
  -21.1374	-0.000303885	  -21.1382	-0.00030828	  -21.1473	-0.000321824	   -21.141	-0.00031133	   -21.141	  -7.78324	
  -21.2089	-0.000307307	  -21.2101	-0.000311944	  -21.2181	-0.000325029	  -21.2124	-0.00031476	  -21.2124	    -7.869	
  -21.2794	-0.000310753	  -21.2816	-0.000315643	  -21.2876	-0.00032815	  -21.2829	-0.000318182	  -21.2829	  -7.95456	
  -21.3497	-0.000314224	   -21.352	-0.000319411	  -21.3563	-0.00033132	  -21.3527	-0.000321652	  -21.3527	   -8.0413	
  -21.4191	-0.0003177	  -21.4216	-0.000323247	  -21.4242	-0.000334633	  -21.4216	-0.000325193	  -21.4216	  -8.12983	
  -21.4875	-0.000321156	  -21.4903	-0.000327112	  -21.4916	-0.00033812	  -21.4898	-0.000328796	  -21.4898	   -8.2199	
  -21.5556	-0.000324559	  -21.5577	-0.000330951	  -21.5582	-0.000341725	  -21.5572	-0.000332412	  -21.5572	  -8.31029	
  -21.6229	-0.000327892	  -21.6239	-0.000334709	  -21.6244	-0.000345342	  -21.6237	-0.000335981	  -21.6237	  -8.39952	
    -21.69	-0.000331159	  -21.6891	-0.000338377	  -21.6895	-0.000348892	  -21.6895	-0.000339476	  -21.6895	   -8.4869	
  -21.7559	-0.000334375	  -21.7532	-0.000341952	  -21.7539	-0.000352268	  -21.7544	-0.000342865	  -21.7544	  -8.57163	
  -21.8218	-0.000337567	  -21.8169	-0.000345475	  -21.8171	-0.000355436	  -21.8186	-0.000346159	  -21.8186	  -8.65398	
  -21.8865	-0.000340761	  -21.8791	-0.000348978	  -21.8792	-0.000358425	  -21.8816	-0.000349388	  -21.8816	   -8.7347	
  -21.9498	-0.000343971	  -21.9412	-0.000352503	  -21.9406	-0.000361327	  -21.9439	-0.0003526	  -21.9439	    -8.815	
  -22.0122	-0.000347192	  -22.0025	-0.00035606	  -22.0015	-0.000364252	  -22.0054	-0.000355835	  -22.0054	  -8.89587	
  -22.0739	-0.000350405	  -22.0626	-0.00035962	  -22.0621	-0.000367298	  -22.0662	-0.000359108	  -22.0662	  -8.97769	
  -22.1344	-0.000353585	  -22.1217	-0.000363181	  -22.1219	-0.000370479	   -22.126	-0.000362415	   -22.126	  -9.06037	
   -22.194	-0.000356713	  -22.1798	-0.000366687	  -22.1811	-0.000373771	   -22.185	-0.000365723	   -22.185	  -9.14308	
  -22.2521	-0.00035978	  -22.2372	-0.000370163	  -22.2394	-0.000377081	  -22.2429	-0.000369008	  -22.2429	   -9.2252	
  -22.3091	-0.000362795	  -22.2938	-0.000373614	  -22.2969	-0.000380311	     -22.3	-0.00037224	     -22.3	    -9.306	
  -22.3657	-0.000365776	  -22.3496	-0.000377063	  -22.3534	-0.000383389	  -22.3563	-0.000375409	  -22.3563	  -9.38523	
  -22.4213	-0.000368746	  -22.4048	-0.00038051	  -22.4089	-0.000386293	  -22.4117	-0.000378516	  -22.4117	  -9.46291	
  -22.4763	-0.000371722	  -22.4597	-0.000383956	   -22.464	-0.000389062	  -22.4666	-0.00038158	  -22.4666	   -9.5395	
    -22.53	-0.000374709	  -22.5137	-0.000387325	  -22.5177	-0.000391786	  -22.5204	-0.000384607	  -22.5204	  -9.61517	
  -22.5835	-0.0003777	  -22.5667	-0.000390594	  -22.5705	-0.000394541	  -22.5736	-0.000387612	  -22.5736	  -9.69029	
  -22.6363	-0.000380674	  -22.6195	-0.00039374	  -22.6222	-0.000397385	   -22.626	-0.0003906	   -22.626	  -9.76499	
   -22.688	-0.000383608	  -22.6719	-0.000396795	  -22.6735	-0.000400319	  -22.6778	-0.000393574	  -22.6778	  -9.83935	
  -22.7384	-0.000386489	  -22.7236	-0.000399797	  -22.7235	-0.000403305	  -22.7285	-0.00039653	  -22.7285	  -9.91325	
  -22.7882	-0.000389314	  -22.7742	-0.000402852	  -22.7728	-0.000406268	  -22.7784	-0.000399478	  -22.7784	  -9.98695	
  -22.8374	-0.000392094	  -22.8237	-0.000405956	  -22.8211	-0.000409145	  -22.8274	-0.000402398	  -22.8274	    -10.06	
  -22.8858	-0.000394852	  -22.8712	-0.000409145	  -22.8691	-0.000411896	  -22.8754	-0.000405298	  -22.8754	  -10.1324	
  -22.9333	-0.000397611	  -22.9179	-0.000412355	  -22.9162	-0.000414505	  -22.9225	-0.000408157	  -22.9225	  -10.2039	
  -22.9802	-0.00040038	  -22.9633	-0.000415552	  -22.9623	-0.000417044	  -22.9686	-0.000410992	  -22.9686	  -10.2748	
  -23.0261	-0.000403163	  -23.0081	-0.000418663	  -23.0081	-0.000419587	  -23.0141	-0.000413804	  -23.0141	  -10.3451	
  -23.0712	-0.00040594	  -23.0521	-0.000421675	  -23.0531	-0.000422196	  -23.0588	-0.000416604	  -23.0588	  -10.4151	
  -23.1151	-0.000408688	   -23.095	-0.000424562	  -23.0972	-0.000424946	  -23.1025	-0.000419399	  -23.1025	   -10.485	
   -23.158	-0.000411391	  -23.1369	-0.000427372	  -23.1405	-0.000427777	  -23.1451	-0.00042218	  -23.1451	  -10.5545	
  -23.2004	-0.000414039	  -23.1782	-0.000430137	  -23.1823	-0.000430645	   -23.187	-0.00042494	   -23.187	  -10.6235	
  -23.2417	-0.000416635	  -23.2178	-0.000432923	  -23.2231	-0.000433443	  -23.2275	-0.000427667	  -23.2275	  -10.6917	
  -23.2819	-0.000419232	  -23.2572	-0.000435755	  -23.2628	-0.000436114	  -23.2673	-0.000430367	  -23.2673	  -10.7592	
  -23.3214	-0.000421842	  -23.2959	-0.000438652	  -23.3008	-0.000438632	  -23.3061	-0.000433042	  -23.3061	  -10.8261	
  -23.3596	-0.00042445	  -23.3346	-0.000441576	  -23.3382	-0.000441067	  -23.3441	-0.000435698	  -23.3441	  -10.8924	
  -23.3965	-0.000427055	  -23.3723	-0.000444481	  -23.3748	-0.000443478	  -23.3812	-0.000438338	  -23.3812	  -10.9585	
  -23.4325	-0.000429618	  -23.4091	-0.000447307	  -23.4101	-0.000445967	  -23.4172	-0.000440964	  -23.4172	  -11.0241	
  -23.4673	-0.000432137	  -23.4453	-0.000450023	  -23.4445	-0.000448553	  -23.4524	-0.000443571	  -23.4524	  -11.0893	
  -23.5012	-0.000434604	    -23.48	-0.000452614	  -23.4783	-0.000451217	  -23.4865	-0.000446145	  -23.4865	  -11.1536	
  -23.5337	-0.000437038	   -23.514	-0.000455129	  -23.5115	-0.00045388	  -23.5198	-0.000448682	  -23.5198	  -11.2171	
  -23.5654	-0.000439425	  -23.5464	-0.000457619	   -23.544	-0.000456465	  -23.5519	-0.00045117	  -23.5519	  -11.2792	
  -23.5969	-0.000441827	  -23.5781	-0.000460144	  -23.5762	-0.000458908	  -23.5837	-0.000453626	  -23.5837	  -11.3407	
  -23.6273	-0.000444218	  -23.6086	-0.000462726	   -23.608	-0.000461215	  -23.6146	-0.000456053	  -23.6146	  -11.4013	
   -23.657	-0.000446601	   -23.638	-0.000465362	  -23.6385	-0.000463426	  -23.6445	-0.000458463	  -23.6445	  -11.4616	
  -23.6855	-0.000448978	  -23.6663	-0.000467989	  -23.6685	-0.000465626	  -23.6734	-0.000460864	  -23.6734	  -11.5216	
  -23.7138	-0.000451351	  -23.6937	-0.000470566	  -23.6968	-0.000467886	  -23.7014	-0.000463268	  -23.7014	  -11.5817	
  -23.7412	-0.000453729	  -23.7204	-0.000473057	  -23.7235	-0.000470254	  -23.7284	-0.00046568	  -23.7284	   -11.642	
  -23.7674	-0.000456129	  -23.7459	-0.000475468	  -23.7494	-0.000472702	  -23.7543	-0.000468099	  -23.7543	  -11.7025	
  -23.7928	-0.000458542	  -23.7713	-0.000477823	  -23.7741	-0.000475176	  -23.7794	-0.000470514	  -23.7794	  -11.7628	
   -23.817	-0.000460943	  -23.7955	-0.000480165	  -23.7975	-0.000477588	  -23.8033	-0.000472899	  -23.8033	  -11.8225	
  -23.8403	-0.000463297	  -23.8192	-0.000482523	    -23.82	-0.000479879	  -23.8265	-0.000475233	  -23.8265	  -11.8808	
  -23.8625	-0.000465585	   -23.842	-0.000484937	  -23.8417	-0.000482022	  -23.8487	-0.000477515	  -23.8487	  -11.9379	
  -23.8835	-0.000467779	  -23.8636	-0.000487378	  -23.8626	-0.000484045	  -23.8699	-0.000479734	  -23.8699	  -11.9934	
  -23.9029	-0.000469905	  -23.8839	-0.000489816	  -23.8827	-0.000486013	  -23.8898	-0.000481911	  -23.8898	  -12.0478	
  -23.9217	-0.000471979	  -23.9034	-0.000492203	  -23.9019	-0.000488004	   -23.909	-0.000484062	   -23.909	  -12.1015	
  -23.9393	-0.000474039	  -23.9225	-0.000494494	  -23.9198	-0.000490071	  -23.9272	-0.000486201	  -23.9272	   -12.155	
  -23.9558	-0.000476099	  -23.9402	-0.000496682	   -23.937	-0.000492219	  -23.9444	-0.000488333	  -23.9444	  -12.2083	
  -23.9717	-0.00047818	  -23.9568	-0.000498785	   -23.953	-0.000494403	  -23.9605	-0.000490456	  -23.9605	  -12.2614	
  -23.9863	-0.000480259	  -23.9723	-0.000500857	  -23.9676	-0.000496548	  -23.9754	-0.000492555	  -23.9754	  -12.3139	
  -23.9999	-0.000482325	   -23.987	-0.000502949	  -23.9811	-0.000498579	  -23.9894	-0.000494618	  -23.9894	  -12.3654	
   -24.013	-0.000484353	  -24.0006	-0.000505102	  -23.9937	-0.000500452	  -24.0024	-0.000496636	  -24.0024	  -12.4159	
  -24.0247	-0.000486322	  -24.0131	-0.000507315	  -24.0056	-0.000502184	  -24.0145	-0.000498607	  -24.0145	  -12.4652	
  -24.0355	-0.00048822	   -24.025	-0.000509552	  -24.0173	-0.00050382	  -24.0259	-0.000500531	  -24.0259	  -12.5133	
  -24.0456	-0.000490056	  -24.0357	-0.000511757	  -24.0284	-0.000505447	  -24.0365	-0.00050242	  -24.0365	  -12.5605	
  -24.0544	-0.000491837	  -24.0457	-0.000513879	  -24.0385	-0.00050712	  -24.0462	-0.000504279	  -24.0462	   -12.607	
  -24.0621	-0.000493583	  -24.0545	-0.000515884	  -24.0477	-0.000508894	  -24.0548	-0.00050612	  -24.0548	   -12.653	
  -24.0687	-0.000495319	  -24.0624	-0.000517777	  -24.0556	-0.00051075	  -24.0622	-0.000507949	  -24.0622	  -12.6987	
  -24.0743	-0.000497054	  -24.0703	-0.000519601	  -24.0626	-0.00051265	  -24.0691	-0.000509768	  -24.0691	  -12.7442	
  -24.0786	-0.000498791	  -24.0773	-0.000521408	  -24.0685	-0.000514497	  -24.0748	-0.000511565	  -24.0748	  -12.7891	
  -24.0822	-0.000500509	  -24.0839	-0.00052325	  -24.0738	-0.000516232	    -24.08	-0.000513331	    -24.08	  -12.8333	
   -24.085	-0.000502173	  -24.0894	-0.00052515	  -24.0776	-0.00051781	   -24.084	-0.000515044	   -24.084	  -12.8761	
   -24.087	-0.00050377	  -24.0941	-0.000527088	  -24.0801	-0.000519252	  -24.0871	-0.000516703	  -24.0871	  -12.9176	
  -24.0872	-0.000505311	   -24.097	-0.000529023	  -24.0809	-0.000520598	  -24.0884	-0.000518311	  -24.0884	  -12.9578	
  -24.0872	-0.000506817	   -24.099	-0.000530903	  -24.0806	-0.000521934	   -24.089	-0.000519885	   -24.089	  -12.9971	
  -24.0863	-0.000508323	  -24.0998	-0.000532687	   -24.079	-0.000523303	  -24.0883	-0.000521438	  -24.0883	  -13.0359	
  -24.0845	-0.000509838	  -24.0993	-0.000534372	  -24.0766	-0.00052475	  -24.0868	-0.000522986	  -24.0868	  -13.0747	
   -24.083	-0.000511357	  -24.0974	-0.000535979	  -24.0734	-0.000526189	  -24.0846	-0.000524508	  -24.0846	  -13.1127	
  -24.0808	-0.000512864	  -24.0946	-0.000537546	  -24.0699	-0.000527622	  -24.0818	-0.000526011	  -24.0818	  -13.1503	
  -24.0779	-0.000514347	  -24.0913	-0.000539119	  -24.0652	-0.000528992	  -24.0782	-0.000527486	  -24.0782	  -13.1872	
  -24.0739	-0.000515764	  -24.0869	-0.000540728	  -24.0599	-0.000530312	  -24.0736	-0.000528935	  -24.0736	  -13.2234	
  -24.0686	-0.000517113	  -24.0818	-0.000542372	  -24.0545	-0.00053157	  -24.0683	-0.000530352	  -24.0683	  -13.2588	
  -24.0622	-0.000518393	   -24.076	-0.000544026	  -24.0482	-0.000532794	  -24.0621	-0.000531738	  -24.0621	  -13.2934	
  -24.0554	-0.00051962	  -24.0697	-0.000545654	   -24.041	-0.000533982	  -24.0554	-0.000533086	  -24.0554	  -13.3271	
  -24.0476	-0.00052083	  -24.0621	-0.000547213	  -24.0336	-0.000535175	  -24.0478	-0.000534406	  -24.0478	  -13.3601	
  -24.0393	-0.000522048	  -24.0542	-0.000548682	  -24.0254	-0.000536333	  -24.0396	-0.000535688	  -24.0396	  -13.3922	
  -24.0301	-0.000523287	  -24.0453	-0.000550069	  -24.0163	-0.000537464	  -24.0305	-0.00053694	  -24.0305	  -13.4235	
  -24.0195	-0.000524554	  -24.0351	-0.000551401	  -24.0064	-0.000538547	  -24.0203	-0.000538167	  -24.0203	  -13.4542	
  -24.0084	-0.000525832	  -24.0241	-0.000552715	  -23.9949	-0.000539577	  -24.0091	-0.000539375	  -24.0091	  -13.4844	
  -23.9963	-0.000527092	   -24.012	-0.000554046	  -23.9825	-0.000540565	  -23.9969	-0.000540568	  -23.9969	  -13.5142	
  -23.9838	-0.00052831	  -23.9986	-0.000555407	  -23.9691	-0.00054154	  -23.9838	-0.000541752	  -23.9838	  -13.5438	
  -23.9706	-0.000529465	  -23.9839	-0.00055679	   -23.955	-0.000542508	  -23.9698	-0.000542921	  -23.9698	   -13.573	
  -23.9563	-0.000530554	  -23.9685	-0.000558165	  -23.9402	-0.000543497	   -23.955	-0.000544072	   -23.955	  -13.6018	
  -23.9405	-0.000531591	  -23.9518	-0.000559489	  -23.9245	-0.000544496	  -23.9389	-0.000545192	  -23.9389	  -13.6298	
  -23.9239	-0.000532607	  -23.9339	-0.000560734	  -23.9087	-0.000545491	  -23.9222	-0.000546277	  -23.9222	  -13.6569	
  -23.9064	-0.000533625	  -23.9154	-0.000561904	  -23.8913	-0.000546463	  -23.9044	-0.000547331	  -23.9044	  -13.6833	
   -23.888	-0.00053467	  -23.8956	-0.000563028	  -23.8734	-0.000547394	  -23.8857	-0.000548364	  -23.8857	  -13.7091	
  -23.8688	-0.000535741	  -23.8742	-0.00056415	  -23.8543	-0.000548266	  -23.8658	-0.000549386	  -23.8658	  -13.7346	
  -23.8491	-0.000536817	  -23.8515	-0.000565301	   -23.834	-0.000549088	  -23.8449	-0.000550402	  -23.8449	    -13.76	
  -23.8277	-0.000537871	  -23.8282	-0.000566489	  -23.8135	-0.000549869	  -23.8231	-0.000551409	  -23.8231	  -13.7852	
  -23.8052	-0.000538878	  -23.8038	-0.000567594	  -23.7919	-0.000550661	  -23.8003	-0.000552378	  -23.8003	  -13.8094	
   -23.781	-0.000539823	  -23.7785	-0.000568665	  -23.7695	-0.000551483	  -23.7763	-0.000553324	  -23.7763	  -13.8331	
  -23.7562	-0.000540713	   -23.753	-0.00056968	  -23.7458	-0.000552322	  -23.7517	-0.000554238	  -23.7517	   -13.856	
  -23.7304	-0.000541571	  -23.7257	-0.000570676	  -23.7218	-0.000553146	  -23.7259	-0.000555131	  -23.7259	  -13.8783	
  -23.7035	-0.000542427	  -23.6972	-0.000571706	  -23.6959	-0.000553903	  -23.6989	-0.000556012	  -23.6989	  -13.9003	
  -23.6759	-0.000543302	  -23.6678	-0.000572775	  -23.6692	-0.000554568	   -23.671	-0.000556882	   -23.671	   -13.922	
  -23.6474	-0.000544204	  -23.6345	-0.00057384	  -23.6426	-0.000555181	  -23.6415	-0.000557742	  -23.6415	  -13.9435	
  -23.6175	-0.000545114	  -23.5997	-0.000574899	  -23.6163	-0.000555725	  -23.6112	-0.000558579	  -23.6112	  -13.9645	
  -23.5864	-0.000546009	  -23.5648	-0.000575866	  -23.5891	-0.000556227	  -23.5801	-0.000559367	  -23.5801	  -13.9842	
  -23.5547	-0.000546857	  -23.5263	-0.000576695	  -23.5611	-0.000556725	  -23.5474	-0.000560092	  -23.5474	  -14.0023	
  -23.5222	-0.00054764	  -23.4911	-0.000577397	  -23.5311	-0.00055722	  -23.5148	-0.000560752	  -23.5148	  -14.0188	
   -23.489	-0.000548359	  -23.4539	-0.000577999	  -23.4995	-0.000557739	  -23.4808	-0.000561366	  -23.4808	  -14.0341	
  -23.4545	-0.000549031	  -23.4176	-0.000578561	  -23.4675	-0.000558275	  -23.4465	-0.000561956	  -23.4465	  -14.0489	
  -23.4193	-0.000549682	  -23.3831	-0.000579163	  -23.4329	-0.000558829	  -23.4118	-0.000562558	  -23.4118	   -14.064	
  -23.3836	-0.00055034	  -23.3465	-0.000579831	  -23.3955	-0.000559385	  -23.3752	-0.000563186	  -23.3752	  -14.0796	
  -23.3475	-0.000551021	  -23.3095	-0.000580576	  -23.3573	-0.000559919	  -23.3381	-0.000563838	  -23.3381	   -14.096	
  -23.3104	-0.000551718	  -23.2705	-0.000581361	  -23.3172	-0.000560396	  -23.2994	-0.000564492	  -23.2994	  -14.1123	
  -23.2722	-0.00055242	  -23.2304	-0.000582121	  -23.2768	-0.000560817	  -23.2598	-0.000565119	  -23.2598	   -14.128	
   -23.233	-0.000553097	  -23.1888	-0.000582799	  -23.2358	-0.000561178	  -23.2192	-0.000565691	  -23.2192	  -14.1423	
   -23.193	-0.000553726	  -23.1458	-0.000583382	  -23.1929	-0.000561507	  -23.1773	-0.000566205	  -23.1773	  -14.1551	
  -23.1521	-0.000554298	  -23.1022	-0.000583864	  -23.1515	-0.000561826	  -23.1353	-0.000566663	  -23.1353	  -14.1666	
  -23.1104	-0.000554825	  -23.0573	-0.000584289	   -23.108	-0.000562164	  -23.0919	-0.000567093	  -23.0919	  -14.1773	
  -23.0678	-0.000555329	  -23.0124	-0.000584698	  -23.0646	-0.000562534	  -23.0483	-0.00056752	  -23.0483	   -14.188	
  -23.0233	-0.000555834	  -22.9659	-0.000585133	  -23.0184	-0.000562931	  -23.0025	-0.000567966	  -23.0025	  -14.1991	
   -22.978	-0.000556352	  -22.9188	-0.000585612	  -22.9722	-0.000563321	  -22.9563	-0.000568428	  -22.9563	  -14.2107	
  -22.9317	-0.000556885	   -22.871	-0.000586134	  -22.9249	-0.00056367	  -22.9092	-0.000568896	  -22.9092	  -14.2224	
  -22.8838	-0.000557412	  -22.8226	-0.000586664	  -22.8757	-0.000563954	  -22.8607	-0.000569343	  -22.8607	  -14.2336	
  -22.8351	-0.000557913	  -22.7746	-0.000587164	  -22.8264	-0.000564165	  -22.8121	-0.000569747	  -22.8121	  -14.2437	
  -22.7854	-0.000558365	  -22.7257	-0.000587601	  -22.7757	-0.000564331	  -22.7623	-0.000570099	  -22.7623	  -14.2525	
   -22.735	-0.000558769	   -22.676	-0.000587967	   -22.725	-0.000564481	   -22.712	-0.000570405	   -22.712	  -14.2601	
  -22.6832	-0.000559135	  -22.6262	-0.000588248	  -22.6729	-0.000564634	  -22.6607	-0.000570672	  -22.6607	  -14.2668	
  -22.6303	-0.000559485	  -22.5752	-0.000588545	  -22.6196	-0.000564761	  -22.6084	-0.00057093	  -22.6084	  -14.2733	
  -22.5763	-0.000559843	  -22.5234	-0.00058883	  -22.5655	-0.000564869	  -22.5551	-0.000571181	  -22.5551	  -14.2795	
  -22.5219	-0.000560226	  -22.4702	-0.000589185	    -22.51	-0.000564971	  -22.5007	-0.000571461	  -22.5007	  -14.2865	
  -22.4673	-0.000560629	  -22.4162	-0.000589527	  -22.4542	-0.000565072	  -22.4459	-0.000571743	  -22.4459	  -14.2936	
  -22.4113	-0.000561035	   -22.361	-0.000589841	  -22.3971	-0.000565212	  -22.3898	-0.000572029	  -22.3898	  -14.3007	
  -22.3544	-0.00056142	  -22.3052	-0.000590035	   -22.339	-0.000565389	  -22.3329	-0.000572281	  -22.3329	   -14.307	
  -22.2968	-0.000561754	   -22.249	-0.000590092	  -22.2802	-0.000565587	  -22.2754	-0.000572478	  -22.2754	  -14.3119	
  -22.2383	-0.000562027	  -22.1923	-0.000589992	  -22.2202	-0.000565776	   -22.217	-0.000572598	   -22.217	   -14.315	
  -22.1791	-0.000562246	  -22.1344	-0.000589837	  -22.1595	-0.00056591	  -22.1577	-0.000572664	  -22.1577	  -14.3166	
  -22.1196	-0.00056243	  -22.0758	-0.000589702	  -22.0973	-0.000565921	  -22.0975	-0.000572685	  -22.0975	  -14.3171	
  -22.0591	-0.000562607	  -22.0166	-0.000589683	   -22.034	-0.00056582	  -22.0366	-0.000572703	  -22.0366	  -14.3176	
  -21.9977	-0.000562806	  -21.9571	-0.000589774	  -21.9698	-0.000565628	  -21.9749	-0.000572736	  -21.9749	  -14.3184	
  -21.9355	-0.000563029	  -21.8967	-0.000589949	  -21.9047	-0.000565405	  -21.9123	-0.000572794	  -21.9123	  -14.3199	
  -21.8725	-0.000563271	  -21.8361	-0.000590095	  -21.8394	-0.000565191	  -21.8493	-0.000572853	  -21.8493	  -14.3213	
  -21.8085	-0.00056351	  -21.7743	-0.000590124	  -21.7738	-0.000565033	  -21.7855	-0.000572889	  -21.7855	  -14.3222	
  -21.7434	-0.000563714	  -21.7121	-0.000589964	  -21.7076	-0.000564928	   -21.721	-0.000572868	   -21.721	  -14.3217	
  -21.6771	-0.000563865	  -21.6488	-0.000589629	  -21.6407	-0.000564862	  -21.6556	-0.000572786	  -21.6556	  -14.3196	
  -21.6101	-0.000563962	  -21.5849	-0.000589134	  -21.5731	-0.000564796	  -21.5893	-0.000572631	  -21.5893	  -14.3158	
  -21.5424	-0.000564012	  -21.5201	-0.000588625	  -21.5049	-0.00056469	  -21.5225	-0.000572442	  -21.5225	  -14.3111	
  -21.4738	-0.000564039	   -21.454	-0.00058821	  -21.4361	-0.000564497	  -21.4546	-0.000572249	  -21.4546	  -14.3062	
   -21.404	-0.000564069	  -21.3875	-0.000587978	  -21.3661	-0.000564192	  -21.3859	-0.00057208	  -21.3859	   -14.302	
  -21.3334	-0.000564113	  -21.3198	-0.000587938	  -21.2954	-0.000563784	  -21.3162	-0.000571945	  -21.3162	  -14.2986	
  -21.2619	-0.000564172	  -21.2513	-0.000588022	  -21.2233	-0.000563315	  -21.2455	-0.000571837	  -21.2455	  -14.2959	
  -21.1898	-0.000564234	  -21.1819	-0.000588085	  -21.1495	-0.000562833	  -21.1737	-0.000571717	  -21.1737	  -14.2929	
   -21.117	-0.000564274	  -21.1111	-0.000588028	  -21.0756	-0.000562377	  -21.1012	-0.00057156	  -21.1012	   -14.289	
  -21.0433	-0.000564269	  -21.0392	-0.000587706	  -21.0011	-0.00056199	  -21.0279	-0.000571322	  -21.0279	   -14.283	
  -20.9692	-0.000564207	  -20.9657	-0.000587157	  -20.9259	-0.000561663	  -20.9536	-0.000571009	  -20.9536	  -14.2752	
  -20.8945	-0.000564088	  -20.8912	-0.00058644	  -20.8502	-0.000561364	  -20.8786	-0.000570631	  -20.8786	  -14.2658	
  -20.8184	-0.000563906	  -20.8162	-0.000585729	  -20.7731	-0.000561039	  -20.8026	-0.000570225	  -20.8026	  -14.2556	
  -20.7416	-0.000563653	    -20.74	-0.000585168	  -20.6958	-0.000560645	  -20.7258	-0.000569822	  -20.7258	  -14.2456	
   -20.664	-0.000563421	  -20.6632	-0.000584878	  -20.6178	-0.000560135	  -20.6483	-0.000569478	  -20.6483	  -14.2369	
  -20.5858	-0.000563232	  -20.5854	-0.000584822	  -20.5393	-0.000559536	  -20.5702	-0.000569196	  -20.5702	  -14.2299	
  -20.5063	-0.000563179	  -20.5069	-0.000584892	  -20.4607	-0.000558859	  -20.4913	-0.000568976	  -20.4913	  -14.2244	
  -20.4259	-0.000563246	  -20.4273	-0.000584881	  -20.3811	-0.000558186	  -20.4114	-0.000568771	  -20.4114	  -14.2193	
  -20.3437	-0.00056338	  -20.3469	-0.000584634	  -20.3004	-0.000557555	  -20.3303	-0.000568523	  -20.3303	  -14.2131	
  -20.2578	-0.000563493	  -20.2656	-0.000584064	  -20.2194	-0.000557016	  -20.2476	-0.000568191	  -20.2476	  -14.2048	
  -20.1727	-0.000563516	  -20.1838	-0.000583229	  -20.1368	-0.000556564	  -20.1644	-0.000567769	  -20.1644	  -14.1942	
  -20.0852	-0.000563324	  -20.1017	-0.00058228	  -20.0535	-0.000556171	  -20.0801	-0.000567258	  -20.0801	  -14.1815	
  -19.9988	-0.000562953	  -20.0186	-0.000581411	   -19.969	-0.000555754	  -19.9955	-0.000566706	  -19.9955	  -14.1677	
  -19.9153	-0.000562439	  -19.9343	-0.000580778	  -19.8836	-0.000555257	  -19.9111	-0.000566158	  -19.9111	   -14.154	
  -19.8296	-0.00056189	   -19.849	-0.00058042	  -19.7969	-0.00055462	  -19.8252	-0.000565643	  -19.8252	  -14.1411	
  -19.7465	-0.000561426	  -19.7632	-0.000580265	  -19.7094	-0.000553859	  -19.7397	-0.000565183	  -19.7397	  -14.1296	
  -19.6626	-0.000561136	  -19.6771	-0.000580154	  -19.6213	-0.000553019	  -19.6536	-0.000564769	  -19.6536	  -14.1192	
  -19.5778	-0.000561009	  -19.5902	-0.000579911	  -19.5324	-0.000552172	  -19.5668	-0.000564364	  -19.5668	  -14.1091	
  -19.4918	-0.000560996	  -19.5023	-0.00057942	  -19.4434	-0.000551391	  -19.4792	-0.000563936	  -19.4792	  -14.0984	
  -19.4043	-0.000560982	  -19.4135	-0.000578665	   -19.354	-0.000550711	  -19.3906	-0.000563453	  -19.3906	  -14.0863	
  -19.3156	-0.000560864	  -19.3241	-0.000577727	  -19.2639	-0.000550125	  -19.3012	-0.000562905	  -19.3012	  -14.0726	
  -19.2255	-0.000560587	  -19.2337	-0.000576761	  -19.1733	-0.000549577	  -19.2108	-0.000562308	  -19.2108	  -14.0577	
  -19.1345	-0.00056016	  -19.1422	-0.000575924	  -19.0823	-0.000549004	  -19.1197	-0.000561696	  -19.1197	  -14.0424	
  -19.0416	-0.000559643	  -19.0504	-0.000575308	  -18.9907	-0.000548342	  -19.0276	-0.000561098	  -19.0276	  -14.0274	
  -18.9482	-0.000559125	   -18.957	-0.000574903	  -18.8982	-0.000547575	  -18.9345	-0.000560534	  -18.9345	  -14.0134	
  -18.8536	-0.000558698	  -18.8634	-0.000574626	  -18.8051	-0.000546724	  -18.8407	-0.000560016	  -18.8407	  -14.0004	
  -18.7581	-0.000558385	  -18.7687	-0.000574328	  -18.7118	-0.00054584	  -18.7462	-0.000559518	  -18.7462	  -13.9879	
  -18.6628	-0.000558209	  -18.6728	-0.000573872	  -18.6182	-0.000544979	  -18.6513	-0.00055902	  -18.6513	  -13.9755	
   -18.567	-0.000558063	  -18.5766	-0.000573183	   -18.524	-0.000544187	  -18.5559	-0.000558477	  -18.5559	  -13.9619	
  -18.4714	-0.000557864	  -18.4797	-0.000572282	  -18.4289	-0.000543473	    -18.46	-0.000557873	    -18.46	  -13.9468	
  -18.3742	-0.000557523	  -18.3824	-0.000571268	  -18.3331	-0.00054282	  -18.3633	-0.000557204	  -18.3633	  -13.9301	
  -18.2761	-0.000557008	   -18.284	-0.00057029	  -18.2366	-0.000542184	  -18.2655	-0.000556494	  -18.2655	  -13.9124	
  -18.1773	-0.000556347	  -18.1855	-0.000569463	  -18.1397	-0.000541508	  -18.1675	-0.000555773	  -18.1675	  -13.8943	
  -18.0771	-0.000555638	  -18.0855	-0.000568849	  -18.0419	-0.000540749	  -18.0682	-0.000555079	  -18.0682	   -13.877	
  -17.9768	-0.000554965	  -17.9849	-0.000568414	  -17.9435	-0.000539889	  -17.9684	-0.000554423	  -17.9684	  -13.8606	
  -17.8762	-0.000554431	  -17.8832	-0.00056805	  -17.8443	-0.000538947	  -17.8679	-0.000553809	  -17.8679	  -13.8452	
  -17.7749	-0.000554065	  -17.7807	-0.000567623	  -17.7443	-0.000537961	  -17.7667	-0.000553216	  -17.7667	  -13.8304	
  -17.6726	-0.00055384	  -17.6783	-0.000567035	  -17.6431	-0.000536994	  -17.6647	-0.000552623	  -17.6647	  -13.8156	
  -17.5697	-0.000553658	  -17.5752	-0.00056625	  -17.5414	-0.000536092	  -17.5621	 -0.000552	  -17.5621	     -13.8	
  -17.4657	-0.000553405	  -17.4709	-0.000565309	  -17.4394	-0.00053529	  -17.4587	-0.000551335	  -17.4587	  -13.7834	
  -17.3609	-0.000552974	  -17.3665	-0.000564325	  -17.3363	-0.000534573	  -17.3546	-0.000550624	  -17.3546	  -13.7656	
  -17.2554	-0.000552343	  -17.2614	-0.000563359	   -17.232	-0.000533882	  -17.2496	-0.000549861	  -17.2496	  -13.7465	
  -17.1491	-0.00055156	  -17.1556	-0.000562523	   -17.127	-0.000533132	  -17.1439	-0.000549072	  -17.1439	  -13.7268	
  -17.0418	-0.000550719	  -17.0495	-0.000561851	  -17.0212	-0.00053227	  -17.0375	-0.00054828	  -17.0375	   -13.707	
  -16.9336	-0.000549942	   -16.943	-0.00056131	  -16.9144	-0.000531259	  -16.9303	-0.000547503	  -16.9303	  -13.6876	
   -16.825	-0.000549293	  -16.8354	-0.000560836	  -16.8074	-0.000530149	  -16.8226	-0.00054676	  -16.8226	   -13.669	
  -16.7155	-0.000548784	   -16.727	-0.000560329	  -16.6996	-0.000529005	   -16.714	-0.000546039	   -16.714	   -13.651	
  -16.6059	-0.000548339	  -16.6179	-0.000559692	  -16.5911	-0.000527895	   -16.605	-0.000545309	   -16.605	  -13.6327	
  -16.4956	-0.000547876	  -16.5083	-0.0005589	   -16.482	-0.000526875	  -16.4953	-0.00054455	  -16.4953	  -13.6138	
  -16.3853	-0.000547286	   -16.398	-0.000557957	  -16.3724	-0.000525958	  -16.3852	-0.000543734	  -16.3852	  -13.5933	
  -16.2746	-0.000546546	  -16.2876	-0.000556925	  -16.2618	-0.000525103	  -16.2747	-0.000542858	  -16.2747	  -13.5714	
  -16.1631	-0.000545671	  -16.1765	-0.000555901	  -16.1506	-0.000524258	  -16.1634	-0.000541943	  -16.1634	  -13.5486	
  -16.0508	-0.00054473	  -16.0649	-0.000554962	   -16.039	-0.000523362	  -16.0516	-0.000541018	  -16.0516	  -13.5254	
  -15.9375	-0.000543804	  -15.9527	-0.00055414	  -15.9265	-0.00052237	  -15.9389	-0.000540105	  -15.9389	  -13.5026	
  -15.8236	-0.000542969	  -15.8401	-0.000553419	  -15.8132	-0.00052127	  -15.8256	-0.00053922	  -15.8256	  -13.4805	
  -15.7094	-0.000542233	  -15.7266	-0.00055273	  -15.6987	-0.000520091	  -15.7116	-0.000538351	  -15.7116	  -13.4588	
  -15.5939	-0.000541566	  -15.6123	-0.000551986	  -15.5832	-0.000518873	  -15.5965	-0.000537475	  -15.5965	  -13.4369	
  -15.4781	-0.000540904	  -15.4973	-0.000551126	  -15.4673	-0.00051768	  -15.4809	-0.00053657	  -15.4809	  -13.4142	
  -15.3614	-0.000540176	  -15.3809	-0.00055013	  -15.3504	-0.000516548	  -15.3642	-0.000535618	  -15.3642	  -13.3904	
  -15.2439	-0.000539334	  -15.2635	-0.000549033	   -15.233	-0.000515485	  -15.2468	-0.000534617	  -15.2468	  -13.3654	
  -15.1261	-0.000538376	  -15.1452	-0.000547904	  -15.1148	-0.000514462	  -15.1287	-0.00053358	  -15.1287	  -13.3395	
  -15.0088	-0.000537335	  -15.0256	-0.000546817	  -14.9954	-0.000513441	  -15.0099	-0.000532531	  -15.0099	  -13.3133	
  -14.8903	-0.000536273	  -14.9049	-0.000545823	  -14.8758	-0.000512366	  -14.8903	-0.000531487	  -14.8903	  -13.2872	
  -14.7706	-0.00053525	  -14.7843	-0.000544918	  -14.7549	-0.000511209	    -14.77	-0.000530459	    -14.77	  -13.2615	
  -14.6505	-0.000534298	  -14.6631	-0.000544063	  -14.6343	-0.000509972	  -14.6493	-0.000529444	  -14.6493	  -13.2361	
  -14.5294	-0.000533412	  -14.5413	-0.000543189	  -14.5128	-0.000508684	  -14.5278	-0.000528428	  -14.5278	  -13.2107	
  -14.4083	-0.000532559	  -14.4187	-0.000542232	  -14.3904	-0.000507389	  -14.4058	-0.000527393	  -14.4058	  -13.1848	
  -14.2864	-0.000531677	  -14.2952	-0.000541161	  -14.2677	-0.000506143	  -14.2831	-0.000526327	  -14.2831	  -13.1582	
  -14.1639	-0.000530718	   -14.171	-0.000539992	  -14.1442	-0.000504966	  -14.1597	-0.000525225	  -14.1597	  -13.1306	
  -14.0407	-0.000529661	  -14.0464	-0.000538765	  -14.0198	-0.000503846	  -14.0356	-0.000524091	  -14.0356	  -13.1023	
  -13.9169	-0.000528515	  -13.9217	-0.000537546	  -13.8956	-0.000502747	  -13.9114	-0.000522936	  -13.9114	  -13.0734	
  -13.7926	-0.00052732	  -13.7968	-0.000536383	  -13.7709	-0.000501615	  -13.7868	-0.000521773	  -13.7868	  -13.0443	
  -13.6675	-0.000526134	   -13.671	-0.000535296	  -13.6465	-0.00050041	  -13.6617	-0.000520613	  -13.6617	  -13.0153	
  -13.5421	-0.000525002	  -13.5456	-0.000534264	  -13.5216	-0.000499121	  -13.5364	-0.000519462	  -13.5364	  -12.9866	
  -13.4168	-0.00052394	  -13.4201	-0.000533243	  -13.3961	-0.000497766	   -13.411	-0.000518316	   -13.411	  -12.9579	
  -13.2904	-0.000522928	  -13.2935	-0.00053218	  -13.2703	-0.000496383	  -13.2847	-0.000517164	  -13.2847	  -12.9291	
  -13.1631	-0.000521921	  -13.1662	-0.00053104	  -13.1433	-0.000495024	  -13.1575	-0.000515995	  -13.1575	  -12.8999	
  -13.0353	-0.000520863	   -13.038	-0.000529814	  -13.0166	-0.000493721	    -13.03	-0.000514799	    -13.03	    -12.87	
  -12.9071	-0.000519715	  -12.9101	-0.000528527	  -12.8902	-0.000492478	  -12.9025	-0.000513573	  -12.9025	  -12.8393	
  -12.7783	-0.000518467	  -12.7817	-0.000527224	  -12.7632	-0.000491275	  -12.7744	-0.000512322	  -12.7744	   -12.808	
  -12.6486	-0.000517099	  -12.6526	-0.000525948	  -12.6361	-0.000490072	  -12.6458	-0.000511039	  -12.6458	   -12.776	
  -12.5184	-0.00051568	  -12.5232	-0.000524722	  -12.5077	-0.000488822	  -12.5165	-0.000509741	  -12.5165	  -12.7435	
  -12.3874	-0.000514286	  -12.3929	-0.00052355	  -12.3787	-0.000487507	  -12.3863	-0.000508448	  -12.3863	  -12.7112	
  -12.2561	-0.000512967	  -12.2628	-0.000522406	  -12.2488	-0.000486129	  -12.2559	-0.000507167	  -12.2559	  -12.6792	
   -12.125	-0.000511764	  -12.1319	-0.000521236	  -12.1191	-0.000484711	  -12.1253	-0.000505904	  -12.1253	  -12.6476	
  -11.9924	-0.000510648	  -12.0009	-0.000520034	   -11.989	-0.000483295	  -11.9941	-0.000504659	  -11.9941	  -12.6165	
  -11.8598	-0.000509547	  -11.8693	-0.000518761	  -11.8578	-0.000481913	  -11.8623	-0.000503407	  -11.8623	  -12.5852	
  -11.7268	-0.000508402	  -11.7371	-0.000517452	  -11.7267	-0.00048058	  -11.7302	-0.000502145	  -11.7302	  -12.5536	
  -11.5931	-0.000507142	  -11.6047	-0.000516109	  -11.5943	-0.000479288	  -11.5974	-0.000500847	  -11.5974	  -12.5212	
  -11.4588	-0.000505735	  -11.4711	-0.000514758	  -11.4611	-0.000478012	  -11.4637	-0.000499502	  -11.4637	  -12.4875	
  -11.3244	-0.000504218	  -11.3372	-0.0005134	  -11.3271	-0.000476711	  -11.3296	-0.000498109	  -11.3296	  -12.4527	
    -11.19	-0.000502651	  -11.2027	-0.000512039	  -11.1925	-0.000475364	  -11.1951	-0.000496685	  -11.1951	  -12.4171	
  -11.0549	-0.000501121	   -11.067	-0.000510661	  -11.0574	-0.000473978	  -11.0598	-0.000495253	  -11.0598	  -12.3813	
  -10.9191	-0.000499696	   -10.931	-0.000509255	  -10.9223	-0.00047256	  -10.9241	-0.000493837	  -10.9241	  -12.3459	
  -10.7828	-0.000498397	  -10.7938	-0.000507825	   -10.786	-0.000471124	  -10.7876	-0.000492449	  -10.7876	  -12.3112	
  -10.6461	-0.000497192	  -10.6562	-0.000506416	  -10.6484	-0.000469687	  -10.6503	-0.000491098	  -10.6503	  -12.2775	
  -10.5091	-0.000496013	  -10.5186	-0.000505027	  -10.5104	-0.00046825	  -10.5127	-0.000489763	  -10.5127	  -12.2441	
  -10.3716	-0.000494774	  -10.3805	-0.000503705	  -10.3722	-0.000466826	  -10.3748	-0.000488435	  -10.3748	  -12.2109	
  -10.2336	-0.000493422	  -10.2413	-0.00050242	  -10.2337	-0.000465415	  -10.2362	-0.000487086	  -10.2362	  -12.1771	
  -10.0956	-0.000491948	  -10.1013	-0.000501145	  -10.0944	-0.000463988	  -10.0971	-0.000485694	  -10.0971	  -12.1423	
  -9.95688	-0.000490387	  -9.96095	-0.000499831	  -9.95426	-0.000462548	  -9.95736	-0.000484256	  -9.95736	  -12.1064	
  -9.81793	-0.000488818	  -9.82041	-0.000498445	  -9.81391	-0.000461091	  -9.81742	-0.000482784	  -9.81742	  -12.0696	
  -9.67807	-0.000487305	  -9.67975	-0.000496944	  -9.67343	-0.000459615	  -9.67708	-0.000481288	  -9.67708	  -12.0322	
  -9.53729	-0.000485886	  -9.53875	-0.000495366	   -9.5332	-0.000458127	  -9.53641	-0.000479793	  -9.53641	  -11.9948	
  -9.39668	-0.000484559	  -9.39703	-0.000493742	   -9.3922	-0.000456627	   -9.3953	-0.000478309	   -9.3953	  -11.9577	
  -9.25553	-0.000483284	  -9.25553	-0.00049214	  -9.25094	-0.000455128	    -9.254	-0.00047685	    -9.254	  -11.9213	
  -9.11436	-0.000481995	  -9.11351	-0.000490613	  -9.10954	-0.000453619	  -9.11247	-0.000475409	  -9.11247	  -11.8852	
  -8.97244	-0.000480635	  -8.97071	-0.00048918	  -8.96807	-0.000452088	  -8.97041	-0.000473968	  -8.97041	  -11.8492	
  -8.82994	-0.00047917	  -8.82767	-0.000487809	  -8.82623	-0.000450526	  -8.82795	-0.000472502	  -8.82795	  -11.8125	
  -8.68642	-0.000477612	  -8.68418	-0.000486456	  -8.68414	-0.000448939	  -8.68491	-0.000471002	  -8.68491	  -11.7751	
   -8.5426	-0.000475996	  -8.54067	-0.000485052	  -8.54189	-0.00044733	  -8.54172	-0.000469459	  -8.54172	  -11.7365	
   -8.3986	-0.000474383	  -8.39644	-0.000483555	  -8.39957	-0.000445701	  -8.39821	-0.00046788	  -8.39821	   -11.697	
  -8.25412	-0.000472825	  -8.25283	-0.00048196	  -8.25729	-0.000444059	  -8.25475	-0.000466281	  -8.25475	   -11.657	
  -8.10968	-0.000471346	  -8.10948	-0.000480314	  -8.11431	-0.000442433	  -8.11116	-0.000464697	  -8.11116	  -11.6174	
  -7.96538	-0.000469928	  -7.96566	-0.000478679	  -7.97119	-0.000440825	  -7.96741	-0.000463144	  -7.96741	  -11.5786	
  -7.82089	-0.000468527	  -7.82181	-0.000477083	  -7.82763	-0.000439247	  -7.82344	-0.000461619	  -7.82344	  -11.5405	
  -7.67593	-0.000467083	   -7.6777	-0.000475517	  -7.68374	-0.000437677	  -7.67912	-0.000460092	  -7.67912	  -11.5023	
  -7.53101	-0.00046555	  -7.53385	-0.00047394	  -7.53886	-0.000436083	  -7.53457	-0.000458524	  -7.53457	  -11.4631	
  -7.38506	-0.000463913	  -7.38952	-0.00047231	  -7.39316	-0.000434437	  -7.38925	-0.000456887	  -7.38925	  -11.4222	
  -7.23863	-0.000462195	  -7.24564	-0.000470611	  -7.24679	-0.000432743	  -7.24369	-0.000455183	  -7.24369	  -11.3796	
   -7.0921	-0.000460445	  -7.10256	-0.000468847	  -7.09983	-0.000430989	  -7.09816	-0.000453427	  -7.09816	  -11.3357	
  -6.94455	-0.000458713	  -6.95921	-0.000467012	   -6.9529	-0.000429197	  -6.95222	-0.00045164	  -6.95222	   -11.291	
  -6.79695	-0.000457032	   -6.8153	-0.000465175	  -6.80569	-0.000427391	  -6.80598	-0.000449866	  -6.80598	  -11.2466	
   -6.6494	-0.000455409	  -6.67058	-0.000463364	  -6.65833	-0.000425585	  -6.65944	-0.00044812	  -6.65944	   -11.203	
  -6.50161	-0.000453814	  -6.52519	-0.000461609	  -6.51093	-0.000423792	  -6.51258	-0.000446405	  -6.51258	  -11.1601	
  -6.35409	-0.000452202	  -6.37929	-0.000459925	  -6.36319	-0.000421994	  -6.36552	-0.000444707	  -6.36552	  -11.1177	
  -6.20637	-0.000450532	  -6.23222	-0.000458285	  -6.21572	-0.000420186	   -6.2181	-0.000443001	   -6.2181	   -11.075	
  -6.05832	-0.000448781	  -6.08418	-0.000456637	  -6.06812	-0.000418358	  -6.07021	-0.000441259	  -6.07021	  -11.0315	
  -5.90968	-0.000446949	  -5.93574	-0.000454924	  -5.91972	-0.00041651	  -5.92171	-0.000439461	  -5.92171	  -10.9865	
  -5.76179	-0.000445065	  -5.78703	-0.000453099	  -5.77147	-0.000414632	  -5.77343	-0.000437599	  -5.77343	    -10.94	
   -5.6131	-0.000443166	    -5.637	-0.000451149	  -5.62306	-0.000412736	  -5.62439	-0.000435684	  -5.62439	  -10.8921	
  -5.46379	-0.000441286	  -5.48862	-0.000449126	  -5.47462	-0.000410817	  -5.47568	-0.000433743	  -5.47568	  -10.8436	
  -5.31393	-0.000439443	  -5.33911	-0.000447083	   -5.3257	-0.00040889	  -5.32625	-0.000431805	  -5.32625	  -10.7951	
  -5.16376	-0.000437629	  -5.19101	-0.000445072	  -5.17659	-0.000406927	  -5.17712	-0.000429876	  -5.17712	  -10.7469	
  -5.01302	-0.000435818	  -5.04314	-0.00044313	  -5.02742	-0.000404954	  -5.02786	-0.000427967	  -5.02786	  -10.6992	
  -4.86225	-0.000433974	  -4.89519	-0.000441267	  -4.87829	-0.000402945	  -4.87858	-0.000426062	  -4.87858	  -10.6516	
  -4.71157	-0.000432067	  -4.74726	-0.000439456	   -4.7297	-0.000400944	  -4.72951	-0.000424156	  -4.72951	  -10.6039	
  -4.56108	-0.000430084	  -4.59709	-0.000437667	  -4.58093	-0.000398957	   -4.5797	-0.000422236	   -4.5797	  -10.5559	
  -4.41064	-0.000428075	  -4.44765	-0.000435844	  -4.43186	-0.00039702	  -4.43005	-0.000420313	  -4.43005	  -10.5078	
   -4.2598	-0.000426002	   -4.2967	-0.000433961	  -4.28323	-0.000395127	  -4.27991	-0.000418363	  -4.27991	  -10.4591	
   -4.1087	-0.000423927	  -4.14605	-0.000432019	  -4.13473	-0.000393243	  -4.12983	-0.000416396	  -4.12983	  -10.4099	
  -3.95709	-0.000421905	    -3.995	-0.00043003	  -3.98606	-0.000391301	  -3.97939	-0.000414412	  -3.97939	  -10.3603	
  -3.80552	-0.000419954	  -3.84448	-0.000428019	  -3.83733	-0.000389274	  -3.82911	-0.000412416	  -3.82911	  -10.3104	
  -3.65369	-0.000418059	  -3.69494	-0.000426015	  -3.68826	-0.000387135	  -3.67896	-0.000410403	  -3.67896	  -10.2601	
