# User: ACHyster
# File name: C:/ACHYSTER/ACHyster SENS/SHAMS/CoFe2O4-1gl-water-80 Glycerol-Sens-08-03-2023/CoFe2O4-1gl-water-80 Glycerol- 10_100F-24 kAm -Sens-08-03-20230001#1.txt
# Saved at: mi. mar. 8 16:17:18 2023
# Hyster Loop (3 iterations). Intensity: 24.0 kA/m; Tuned frequency: 19.8 kHz
# Units x axis: (kA/m)
# Units y axis: "Repeats y" & "Average y" (10^(-3)Am^2); "Mass avg y" (Am^2/kg)
# Magnetic mass: 4e-05 g
# Parameter      	Repeat   1	Repeat   2	Repeat   3	Average   	Sigma     
# H_C (kA/m)     	      13.6	      13.8	      13.7	      13.7	       0.1
# M_R (Am^2/kg)  	      13.6	      13.2	      14.2	      13.7	       0.4
# M_max (Am^2/kg)	      17.9	      17.3	      18.8	      18.0	       0.6
# Area (mJ/kg)   	    1153.9	    1129.3	    1197.8	    1160.3	      28.3
# SAR (W/g)      	      22.8	      22.3	      23.7	      22.9	       0.6
#Repeat 1 x	Repeat 1 y	Repeat 2 x	Repeat 2 y	Repeat 3 x	Repeat 3 y	Average x 	Average y 	Mass avg x 	Mass avg y 
   -3.4773	-0.000620233	  -3.47127	-0.000601225	  -3.48365	-0.000647046	  -3.47741	-0.000622835	  -3.47741	  -15.5709	
  -3.32486	-0.000617071	  -3.31986	-0.00059809	  -3.33171	-0.000644086	  -3.32548	-0.000619749	  -3.32548	  -15.4937	
  -3.17272	-0.000613978	  -3.16846	-0.000594959	  -3.17966	-0.000641285	  -3.17361	-0.00061674	  -3.17361	  -15.4185	
  -3.02032	-0.000610805	  -3.01733	-0.000591769	  -3.02754	-0.000638384	  -3.02173	-0.000613653	  -3.02173	  -15.3413	
  -2.86784	-0.000607492	  -2.86673	-0.000588603	  -2.87536	-0.000635379	  -2.86998	-0.000610491	  -2.86998	  -15.2623	
  -2.71506	-0.000604223	  -2.71533	-0.000585427	  -2.72333	-0.000632376	  -2.71791	-0.000607342	  -2.71791	  -15.1836	
  -2.56203	-0.000600902	  -2.56363	-0.000582146	  -2.57142	-0.000629372	   -2.5657	-0.00060414	   -2.5657	  -15.1035	
  -2.40929	-0.000597435	  -2.41202	-0.000578934	  -2.41947	-0.000626244	  -2.41359	-0.000600871	  -2.41359	  -15.0218	
  -2.25648	-0.000593989	  -2.26081	-0.0005758	  -2.26718	-0.000623071	  -2.26149	-0.00059762	  -2.26149	  -14.9405	
  -2.10352	-0.000590519	  -2.10937	-0.000572542	  -2.11536	-0.000619824	  -2.10942	-0.000594295	  -2.10942	  -14.8574	
  -1.95066	-0.000586932	  -1.95794	-0.000569266	  -1.96318	-0.000616527	  -1.95726	-0.000590908	  -1.95726	  -14.7727	
   -1.7977	-0.000583361	  -1.80646	-0.000566076	  -1.81101	-0.000613184	  -1.80506	-0.00058754	  -1.80506	  -14.6885	
  -1.64457	-0.000579771	  -1.65498	-0.000562797	  -1.65901	-0.000609771	  -1.65285	-0.000584113	  -1.65285	  -14.6028	
  -1.49165	-0.000576091	  -1.50373	-0.000559456	  -1.50688	-0.000606273	  -1.50075	-0.000580607	  -1.50075	  -14.5152	
  -1.33848	-0.000572417	  -1.35211	-0.000556186	  -1.35483	-0.000602698	  -1.34847	-0.0005771	  -1.34847	  -14.4275	
  -1.18524	-0.00056873	  -1.20082	-0.000552837	  -1.20277	-0.000599109	  -1.19627	-0.000573559	  -1.19627	   -14.339	
  -1.03191	-0.000564966	    -1.049	-0.000549422	  -1.05067	-0.00059539	  -1.04386	-0.000569926	  -1.04386	  -14.2481	
 -0.878453	-0.000561191	 -0.897456	-0.000546079	 -0.898611	-0.000591568	 -0.891507	-0.000566279	 -0.891507	   -14.157	
 -0.724923	-0.000557414	 -0.746048	-0.000542653	 -0.746363	-0.000587804	 -0.739111	-0.000562624	 -0.739111	  -14.0656	
 -0.571154	-0.000553564	 -0.594627	-0.000539131	 -0.594332	-0.000583941	 -0.586704	-0.000558879	 -0.586704	   -13.972	
   -0.4174	-0.000549701	 -0.443257	-0.000535673	 -0.442286	-0.000579937	 -0.434314	-0.000555104	 -0.434314	  -13.8776	
 -0.263816	-0.000545835	 -0.291694	-0.00053217	 -0.290126	-0.000575985	 -0.281879	-0.00055133	 -0.281879	  -13.7832	
 -0.110039	-0.00054187	 -0.140115	-0.000528533	 -0.138147	-0.000571997	 -0.129434	-0.000547467	 -0.129434	  -13.6867	
 0.0436228	-0.000537952	 0.0115748	-0.000524924	 0.0138978	-0.000567857	 0.0230318	-0.000543578	 0.0230318	  -13.5894	
  0.197288	-0.000534021	  0.163619	-0.000521279	  0.165549	-0.000563729	  0.175485	-0.000539676	  0.175485	  -13.4919	
  0.350659	-0.000529927	   0.31543	-0.000517495	   0.31724	-0.000559604	  0.327776	-0.000535675	  0.327776	  -13.3919	
  0.503858	-0.00052584	  0.467382	-0.000513702	  0.468942	-0.000555344	  0.480061	-0.000531629	  0.480061	  -13.2907	
  0.657132	-0.000521787	  0.619443	-0.000509885	  0.621022	-0.000551063	  0.632532	-0.000527578	  0.632532	  -13.1895	
  0.810179	-0.000517582	  0.771829	-0.000505932	  0.772897	-0.000546744	  0.784968	-0.000523419	  0.784968	  -13.0855	
  0.963239	-0.000513328	  0.923973	-0.000501937	  0.925068	-0.000542391	  0.937427	-0.000519219	  0.937427	  -12.9805	
   1.11656	-0.000509096	   1.07584	-0.000497926	   1.07735	-0.000538033	   1.08991	-0.000515019	   1.08991	  -12.8755	
   1.27006	-0.000504712	   1.22784	-0.000493807	   1.22945	-0.00053361	   1.24245	-0.00051071	   1.24245	  -12.7677	
   1.42332	-0.000500244	   1.37993	-0.000489641	   1.38176	-0.000529122	     1.395	-0.000506336	     1.395	  -12.6584	
   1.57631	-0.000495854	    1.5318	-0.000485439	   1.53379	-0.000524634	    1.5473	-0.000501976	    1.5473	  -12.5494	
   1.72968	-0.000491313	   1.68385	-0.000481129	   1.68571	-0.000520088	   1.69975	-0.00049751	   1.69975	  -12.4378	
   1.88278	-0.000486639	   1.83598	-0.000476783	   1.83715	-0.000515469	   1.85197	-0.000492964	   1.85197	  -12.3241	
   2.03555	-0.000482074	   1.98835	-0.000472403	   1.98836	-0.000510844	   2.00409	-0.00048844	   2.00409	   -12.211	
   2.18837	-0.00047742	   2.14039	-0.000467958	    2.1392	-0.000506181	   2.15599	-0.000483853	   2.15599	  -12.0963	
   2.34115	-0.000472593	    2.2923	-0.000463412	   2.28998	-0.000501434	   2.30781	-0.000479146	   2.30781	  -11.9787	
   2.49379	-0.000467839	   2.44411	-0.000458859	   2.44076	-0.00049668	   2.45955	-0.000474459	   2.45955	  -11.8615	
    2.6464	-0.000463106	   2.59583	-0.000454287	    2.5914	-0.0004919	   2.61121	-0.000469764	   2.61121	  -11.7441	
    2.7989	-0.000458151	   2.74761	-0.000449579	   2.74193	-0.000487031	   2.76281	-0.00046492	   2.76281	   -11.623	
   2.95119	-0.000453208	   2.89937	-0.000444868	   2.89254	-0.000482129	   2.91436	-0.000460068	   2.91436	  -11.5017	
   3.10353	-0.0004483	   3.05107	-0.0004402	    3.0427	-0.000477162	   3.06577	-0.00045522	   3.06577	  -11.3805	
   3.25526	-0.000443246	   3.20262	-0.000435457	   3.19298	-0.000472175	   3.21695	-0.000450293	   3.21695	  -11.2573	
   3.40689	-0.000438105	   3.35409	-0.000430683	   3.34343	-0.000467182	   3.36814	-0.000445323	   3.36814	  -11.1331	
    3.5583	-0.000433005	   3.50559	-0.000425959	   3.49404	-0.000462093	   3.51931	-0.000440352	   3.51931	  -11.0088	
   3.70965	-0.000427787	   3.65686	-0.000421174	   3.64437	-0.000456924	   3.67029	-0.000435295	   3.67029	  -10.8824	
   3.86099	-0.000422457	   3.80826	-0.000416333	   3.79482	-0.000451799	   3.82136	-0.000430196	   3.82136	  -10.7549	
   4.01245	-0.00041715	   3.95948	-0.000411537	   3.94505	-0.000446628	   3.97233	-0.000425105	   3.97233	  -10.6276	
   4.16373	-0.000411773	   4.10988	-0.000406699	   4.09473	-0.000441357	   4.12278	-0.000419943	   4.12278	  -10.4986	
   4.31506	-0.000406284	    4.2599	-0.000401808	   4.24451	-0.00043608	   4.27316	-0.000414724	   4.27316	  -10.3681	
   4.46615	-0.000400823	   4.40992	-0.00039693	   4.39448	-0.000430786	   4.42352	-0.000409513	   4.42352	  -10.2378	
   4.61726	-0.000395319	   4.55956	-0.000392024	   4.54424	-0.000425399	   4.57369	-0.000404247	   4.57369	  -10.1062	
   4.76811	-0.000389722	   4.70907	-0.000387085	   4.69366	-0.000419979	   4.72362	-0.000398929	   4.72362	  -9.97322	
   4.91883	-0.000384148	   4.85842	-0.000382128	   4.84297	-0.000414543	   4.87341	-0.000393606	   4.87341	  -9.84016	
   5.06915	-0.000378571	   5.00752	-0.000377116	   4.99167	-0.000408992	   5.02278	-0.000388226	   5.02278	  -9.70566	
   5.21947	-0.000372905	   5.15674	-0.00037204	   5.14007	-0.000403415	    5.1721	-0.000382787	    5.1721	  -9.56967	
   5.36948	-0.000367253	   5.30563	-0.000366955	   5.28811	-0.000397793	   5.32107	-0.000377334	   5.32107	  -9.43334	
   5.51948	-0.000361624	   5.45438	-0.000361815	     5.436	-0.000392095	   5.46995	-0.000371845	   5.46995	  -9.29611	
   5.67084	-0.000355906	   5.60311	-0.000356605	   5.58362	-0.00038635	   5.61919	-0.000366287	   5.61919	  -9.15717	
   5.82174	-0.000350164	   5.75149	-0.000351391	   5.73117	-0.000380565	   5.76813	-0.000360707	   5.76813	  -9.01766	
   5.97096	-0.000344577	   5.89934	-0.000346136	   5.87845	-0.000374704	   5.91625	-0.000355139	   5.91625	  -8.87848	
   6.11882	-0.000338996	    6.0467	-0.000340825	   6.02602	-0.000368799	   6.06385	-0.00034954	   6.06385	   -8.7385	
    6.2665	-0.000333305	   6.19398	-0.000335501	   6.17471	-0.000362859	   6.21173	-0.000343889	   6.21173	  -8.59721	
    6.4149	-0.000327636	    6.3408	-0.000330167	   6.32211	-0.000356862	   6.35927	-0.000338222	   6.35927	  -8.45555	
   6.56279	-0.00032204	   6.48731	-0.000324771	    6.4685	-0.00035099	    6.5062	-0.0003326	    6.5062	  -8.31501	
   6.71021	-0.000316368	   6.63392	-0.000319327	   6.61531	-0.000345017	   6.65315	-0.000326904	   6.65315	  -8.17261	
   6.85691	-0.000310592	   6.78009	-0.000313871	   6.76186	-0.000338836	   6.79962	-0.000321099	   6.79962	  -8.02749	
    7.0035	-0.000304873	   6.92599	-0.000308467	   6.90841	-0.000332827	   6.94597	-0.000315389	   6.94597	  -7.88472	
   7.14982	-0.000299102	   7.07149	-0.00030301	   7.05471	-0.000326759	   7.09201	-0.000309623	   7.09201	  -7.74059	
   7.29575	-0.00029317	   7.21703	-0.000297518	   7.20089	-0.000320519	   7.23789	-0.000303735	   7.23789	  -7.59339	
   7.44133	-0.000287239	   7.36231	-0.000292084	   7.34666	-0.000314339	   7.38343	-0.000297887	   7.38343	  -7.44718	
   7.58658	-0.0002813	   7.50751	-0.000286636	   7.49222	-0.000308126	   7.52877	-0.00029202	   7.52877	  -7.30051	
   7.73166	-0.000275243	   7.65224	-0.000281124	   7.63745	-0.000301802	   7.67378	-0.000286056	   7.67378	  -7.15141	
   7.87628	-0.000269177	   7.79664	-0.000275644	   7.78206	-0.000295544	   7.81833	-0.000280122	   7.81833	  -7.00305	
   8.02092	-0.000263092	   7.94076	-0.000270151	   7.92656	-0.000289294	   7.96274	-0.000274179	   7.96274	  -6.85447	
   8.16508	-0.000256972	    8.0844	-0.000264582	    8.0707	-0.000282943	   8.10673	-0.000268166	   8.10673	  -6.70414	
   8.30878	-0.000250839	   8.22759	-0.000259061	   8.21413	-0.000276639	   8.25017	-0.00026218	   8.25017	   -6.5545	
   8.45231	-0.000244679	   8.37048	-0.000253513	   8.35716	-0.000270365	   8.39332	-0.000256186	   8.39332	  -6.40464	
   8.59547	-0.000238554	     8.513	-0.00024784	   8.49983	-0.000264011	    8.5361	-0.000250135	    8.5361	  -6.25337	
    8.7385	-0.000232441	   8.65518	-0.000242232	   8.64218	-0.000257683	   8.67862	-0.000244119	   8.67862	  -6.10297	
   8.88105	-0.000226263	   8.79729	-0.000236603	   8.78489	-0.000251376	   8.82108	-0.000238081	   8.82108	  -5.95201	
   9.02303	-0.000220159	   8.93897	-0.000230813	   8.92727	-0.000245032	   8.96309	-0.000232001	   8.96309	  -5.80004	
   9.16464	-0.000214099	   9.08028	-0.000225029	   9.06937	-0.000238694	   9.10476	-0.000225941	   9.10476	  -5.64852	
   9.30552	-0.000207971	   9.22125	-0.000219235	    9.2111	-0.000232284	   9.24595	-0.00021983	   9.24595	  -5.49575	
   9.44586	-0.000201866	   9.36162	-0.000213305	   9.35218	-0.000225811	   9.38655	-0.000213661	   9.38655	  -5.34152	
   9.58561	-0.000195813	   9.50164	-0.00020735	   9.49274	-0.000219401	   9.52666	-0.000207521	   9.52666	  -5.18803	
   9.72522	-0.000189689	   9.64147	-0.00020141	   9.63297	-0.000212902	   9.66656	-0.000201334	   9.66656	  -5.03334	
   9.86458	-0.000183554	   9.78084	-0.000195358	   9.77285	-0.000206313	   9.80609	-0.000195075	   9.80609	  -4.87688	
   10.0035	-0.000177452	   9.91973	-0.000189266	   9.91248	-0.000199775	   9.94523	-0.000188831	   9.94523	  -4.72077	
   10.1422	-0.000171297	   10.0582	-0.000183218	   10.0512	-0.000193189	   10.0839	-0.000182568	   10.0839	   -4.5642	
   10.2809	-0.000165109	   10.1966	-0.000177031	   10.1893	-0.000186503	   10.2223	-0.000176214	   10.2223	  -4.40536	
   10.4195	-0.000158946	   10.3348	-0.000170741	   10.3271	-0.000179848	   10.3605	-0.000169845	   10.3605	  -4.24613	
   10.5576	-0.000152727	   10.4723	-0.000164619	   10.4647	-0.000173172	   10.4982	-0.000163506	   10.4982	  -4.08764	
   10.6956	-0.000146461	   10.6095	-0.000158428	   10.6019	-0.000166397	   10.6357	-0.000157095	   10.6357	  -3.92739	
   10.8333	-0.000140213	   10.7465	-0.000152073	   10.7386	-0.000159639	   10.7728	-0.000150642	   10.7728	  -3.76604	
   10.9708	-0.000133913	    10.883	-0.000145845	   10.8748	-0.000152893	   10.9095	-0.000144217	   10.9095	  -3.60542	
    11.108	-0.000127549	    11.019	-0.000139643	   11.0108	-0.000146077	   11.0459	-0.000137756	   11.0459	  -3.44391	
    11.245	-0.0001212	   11.1542	-0.000133266	    11.146	-0.000139277	   11.1817	-0.000131248	   11.1817	  -3.28119	
    11.382	-0.000114806	   11.2887	-0.000126978	   11.2802	-0.000132503	    11.317	-0.000124763	    11.317	  -3.11906	
   11.5188	-0.000108349	   11.4228	-0.000120766	   11.4142	-0.000125689	   11.4519	-0.000118268	   11.4519	   -2.9567	
   11.6548	-0.000101895	   11.5568	-0.000114414	   11.5477	-0.000118882	   11.5864	-0.00011173	   11.5864	  -2.79326	
   11.7904	-9.54182e-05	   11.6902	-0.000108115	   11.6807	-0.000112108	   11.7204	-0.000105214	   11.7204	  -2.63035	
   11.9257	-8.88975e-05	   11.8232	-0.000101905	   11.8133	-0.00010531	   11.8541	-9.87042e-05	   11.8541	   -2.4676	
   12.0602	-8.2386e-05	   11.9554	-9.55823e-05	   11.9455	-9.85143e-05	   11.9871	-9.21609e-05	   11.9871	  -2.30402	
   12.1944	-7.58743e-05	   12.0872	-8.93313e-05	   12.0772	-9.17499e-05	   12.1196	-8.56518e-05	   12.1196	   -2.1413	
   12.3281	-6.9327e-05	   12.2183	-8.31288e-05	   12.2082	-8.49653e-05	   12.2515	-7.91404e-05	   12.2515	  -1.97851	
   12.4613	-6.27998e-05	   12.3487	-7.67627e-05	   12.3391	-7.81719e-05	   12.3831	-7.25781e-05	   12.3831	  -1.81445	
   12.5943	-5.62928e-05	   12.4789	-7.04575e-05	   12.4698	-7.14014e-05	   12.5143	-6.60506e-05	   12.5143	  -1.65126	
   12.7268	-4.97624e-05	   12.6086	-6.42309e-05	      12.6	-6.46082e-05	   12.6451	-5.95338e-05	   12.6451	  -1.48835	
    12.858	-4.32451e-05	   12.7377	-5.78403e-05	   12.7297	-5.77935e-05	   12.7752	-5.29596e-05	   12.7752	  -1.32399	
   12.9882	-3.67746e-05	   12.8664	-5.14659e-05	   12.8587	-5.09887e-05	   12.9044	-4.64097e-05	   12.9044	  -1.16024	
   13.1186	-3.02709e-05	   12.9948	-4.5219e-05	    12.987	-4.41644e-05	   13.0335	-3.98848e-05	   13.0335	  -0.99712	
   13.2492	-2.37172e-05	   13.1225	-3.88083e-05	    13.115	-3.73099e-05	   13.1622	-3.32785e-05	   13.1622	 -0.831961	
   13.3788	-1.72565e-05	   13.2499	-3.23278e-05	   13.2427	-3.04604e-05	   13.2904	-2.66816e-05	   13.2904	  -0.66704	
   13.5066	-1.08409e-05	   13.3764	-2.60036e-05	   13.3698	-2.36294e-05	   13.4176	-2.0158e-05	   13.4176	 -0.503949	
   13.6339	-4.31176e-06	   13.5025	-1.95468e-05	   13.4954	-1.67586e-05	   13.5439	-1.3539e-05	   13.5439	 -0.338476	
   13.7616	2.26465e-06	   13.6281	-1.29592e-05	   13.6209	-9.93521e-06	   13.6702	-6.8766e-06	   13.6702	 -0.171915	
   13.8883	8.62017e-06	   13.7535	-6.51835e-06	   13.7465	-2.92918e-06	   13.7961	-2.75785e-07	   13.7961	-0.00689463	
   14.0144	1.5087e-05	   13.8781	-3.81127e-08	   13.8717	4.06121e-06	   13.9214	6.37002e-06	   13.9214	   0.15925	
   14.1402	2.17168e-05	   14.0021	6.60062e-06	   13.9954	1.07726e-05	   14.0459	 1.303e-05	   14.0459	   0.32575	
   14.2654	2.81478e-05	   14.1255	1.31291e-05	   14.1186	1.76279e-05	   14.1698	1.96349e-05	   14.1698	  0.490873	
     14.39	3.46394e-05	   14.2487	1.96274e-05	   14.2416	2.46775e-05	   14.2934	2.63148e-05	   14.2934	  0.657869	
   14.5143	4.1374e-05	   14.3714	2.62691e-05	   14.3635	3.14097e-05	   14.4164	3.30176e-05	   14.4164	   0.82544	
   14.6376	4.79456e-05	   14.4936	3.28396e-05	   14.4849	3.80856e-05	   14.5387	3.96236e-05	   14.5387	   0.99059	
   14.7607	5.44588e-05	   14.6149	3.93375e-05	   14.6061	4.4937e-05	   14.6606	4.62444e-05	   14.6606	   1.15611	
   14.8833	6.11852e-05	   14.7357	4.5939e-05	   14.7269	5.16718e-05	    14.782	5.2932e-05	    14.782	    1.3233	
    15.005	6.78072e-05	   14.8557	5.25232e-05	   14.8468	5.82518e-05	   14.9025	5.95274e-05	   14.9025	   1.48819	
   15.1261	7.4281e-05	   14.9751	5.89743e-05	   14.9663	6.49648e-05	   15.0225	6.60734e-05	   15.0225	   1.65183	
   15.2464	8.09055e-05	    15.094	6.54612e-05	   15.0852	7.16048e-05	   15.1419	7.26572e-05	   15.1419	   1.81643	
   15.3662	8.75354e-05	    15.212	7.19924e-05	   15.2035	7.8081e-05	   15.2605	7.92029e-05	   15.2605	   1.98007	
   15.4853	9.39843e-05	   15.3294	7.83975e-05	   15.3209	8.4647e-05	   15.3786	8.56762e-05	   15.3786	   2.14191	
   15.6037	0.000100442	   15.4463	8.46304e-05	   15.4379	9.12072e-05	    15.496	9.20932e-05	    15.496	   2.30233	
   15.7215	0.00010697	   15.5625	9.09771e-05	   15.5545	9.76332e-05	   15.6128	9.85267e-05	   15.6128	   2.46317	
   15.8381	0.000113378	   15.6779	9.73497e-05	   15.6703	0.000104127	   15.7288	0.000104951	   15.7288	   2.62378	
   15.9543	0.000119732	   15.7928	0.000103448	   15.7856	0.000110647	   15.8442	0.000111276	   15.8442	   2.78189	
   16.0694	0.000126139	   15.9071	0.000109587	   15.9005	0.000117067	    15.959	0.000117597	    15.959	   2.93994	
   16.1836	0.000132471	   16.0206	0.000115865	   16.0149	0.000123549	   16.0731	0.000123962	   16.0731	   3.09905	
   16.2969	0.000138726	   16.1334	0.000121965	   16.1289	0.000130058	   16.1864	0.000130249	   16.1864	   3.25624	
   16.4092	0.000145004	   16.2457	0.000128034	   16.2419	0.000136478	   16.2989	0.000136506	   16.2989	   3.41264	
   16.5211	0.000151236	   16.3575	0.00013425	   16.3545	0.00014295	    16.411	0.000142812	    16.411	    3.5703	
   16.6323	0.000157392	   16.4684	0.000140339	   16.4662	0.000149498	   16.5223	0.000149077	   16.5223	   3.72692	
   16.7429	0.000163559	   16.5784	0.000146376	   16.5773	0.00015595	   16.6329	0.000155295	   16.6329	   3.88238	
   16.8527	0.000169699	   16.6875	0.000152519	   16.6877	0.000162416	   16.7426	0.000161545	   16.7426	   4.03862	
   16.9621	0.000175688	   16.7962	0.000158592	   16.7973	0.00016898	   16.8519	0.000167753	   16.8519	   4.19384	
   17.0705	0.000181739	   16.9042	0.000164615	   16.9061	0.00017545	   16.9602	0.000173934	   16.9602	   4.34836	
   17.1784	0.000187815	   17.0118	0.000170717	   17.0141	0.000181902	   17.0681	0.000180145	   17.0681	   4.50362	
   17.2856	0.000193733	   17.1182	0.00017677	   17.1216	0.000188447	   17.1751	0.000186317	   17.1751	   4.65792	
   17.3922	0.000199655	   17.2238	0.000182749	   17.2286	0.000194904	   17.2815	0.000192436	   17.2815	    4.8109	
    17.498	0.000205632	   17.3287	0.000188817	   17.3349	0.000201317	   17.3872	0.000198589	   17.3872	   4.96471	
   17.6033	0.00021149	   17.4332	0.000194854	   17.4403	0.000207819	   17.4923	0.000204721	   17.4923	   5.11802	
   17.7083	0.000217315	   17.5367	0.000200812	    17.545	0.000214259	   17.5967	0.000210795	   17.5967	   5.26988	
   17.8125	0.000223206	   17.6396	0.000206834	   17.6492	0.000220626	   17.7004	0.000216889	   17.7004	   5.42222	
    17.916	0.000229026	   17.7419	0.000212848	   17.7524	0.000227068	   17.8034	0.000222981	   17.8034	   5.57452	
   18.0187	0.000234802	   17.8435	0.00021878	   17.8547	0.000233461	   17.9056	0.000229015	   17.9056	   5.72536	
   18.1207	0.000240645	   17.9444	0.000224751	   17.9562	0.000239769	   18.0071	0.000235055	   18.0071	   5.87638	
   18.2221	0.000246451	   18.0444	0.000230719	   18.0571	0.000246136	   18.1079	0.000241102	   18.1079	   6.02755	
   18.3224	0.00025221	   18.1438	0.000236576	   18.1578	0.000252478	    18.208	0.000247088	    18.208	    6.1772	
   18.4219	0.000258024	   18.2425	0.000242473	   18.2579	0.000258727	   18.3074	0.000253075	   18.3074	   6.32687	
   18.5202	0.000263832	   18.3405	0.000248406	   18.3574	0.000265015	    18.406	0.000259084	    18.406	   6.47711	
   18.6183	0.000269586	   18.4382	0.000254208	   18.4562	0.000271305	   18.5042	0.000265033	   18.5042	   6.62583	
   18.7156	0.000275384	   18.5349	0.000259988	   18.5542	0.000277503	   18.6015	0.000270958	   18.6015	   6.77396	
   18.8125	0.000281192	   18.6312	0.000265835	   18.6514	0.000283711	   18.6983	0.000276913	   18.6983	   6.92281	
   18.9087	0.00028694	   18.7268	0.000271618	    18.748	0.000289926	   18.7945	0.000282828	   18.7945	   7.07071	
   19.0042	0.000292708	   18.8216	0.000277294	   18.8439	0.000296061	   18.8899	0.000288688	   18.8899	   7.21719	
   19.0989	0.000298504	   18.9159	0.000283002	    18.939	0.000302191	   18.9846	0.000294566	   18.9846	   7.36414	
   19.1932	0.000304238	   19.0097	0.000288658	   19.0334	0.000308343	   19.0788	0.000300413	   19.0788	   7.51033	
   19.2866	0.000309966	    19.103	0.000294235	   19.1275	0.000314428	   19.1724	0.00030621	   19.1724	   7.65524	
   19.3794	0.000315693	   19.1958	0.000299815	   19.2206	0.000320486	   19.2653	0.000311998	   19.2653	   7.79994	
    19.471	0.000321367	   19.2878	0.00030536	   19.3133	0.000326563	   19.3574	0.000317763	   19.3574	   7.94408	
   19.5618	0.000327046	   19.3785	0.000310839	   19.4054	0.000332582	   19.4486	0.000323489	   19.4486	   8.08722	
   19.6516	0.000332719	   19.4685	0.000316311	   19.4967	0.000338542	   19.5389	0.000329191	   19.5389	   8.22976	
   19.7406	0.000338331	   19.5576	0.00032176	   19.5874	0.000344545	   19.6285	0.000334879	   19.6285	   8.37197	
   19.8292	0.000343918	   19.6462	0.000327157	   19.6774	0.000350529	   19.7176	0.000340535	   19.7176	   8.51337	
   19.9168	0.000349507	   19.7336	0.000332544	   19.7668	0.000356412	   19.8057	0.000346154	   19.8057	   8.65386	
   20.0039	0.000355063	   19.8199	0.000337916	    19.855	0.000362223	   19.8929	0.000351734	   19.8929	   8.79335	
   20.0904	0.000360588	   19.9055	0.000343251	   19.9427	0.000367999	   19.9795	0.000357279	   19.9795	   8.93199	
   20.1759	0.000366065	   19.9902	0.000348588	   20.0298	0.000373776	   20.0653	0.000362809	   20.0653	   9.07024	
   20.2606	0.000371496	   20.0744	0.000353909	   20.1161	0.000379546	   20.1504	0.000368317	   20.1504	   9.20793	
   20.3448	0.000376902	   20.1577	0.000359182	   20.2013	0.000385193	   20.2346	0.000373759	   20.2346	   9.34398	
   20.4283	0.000382271	   20.2403	0.000364482	   20.2857	0.000390816	   20.3181	0.00037919	   20.3181	   9.47974	
   20.5109	0.000387619	   20.3222	0.000369791	    20.369	0.000396445	   20.4007	0.000384618	   20.4007	   9.61545	
   20.5925	0.000392938	   20.4036	0.000375016	   20.4518	0.000402008	   20.4826	0.000389987	   20.4826	   9.74968	
   20.6736	0.000398201	   20.4843	0.000380236	   20.5338	0.000407521	   20.5639	0.000395319	   20.5639	   9.88298	
   20.7538	0.000403452	   20.5641	0.000385485	   20.6148	0.000413054	   20.6442	0.000400663	   20.6442	   10.0166	
   20.8334	0.000408708	   20.6435	0.00039069	   20.6952	0.000418527	    20.724	0.000405975	    20.724	   10.1494	
    20.912	0.000413914	   20.7219	0.000395784	   20.7746	0.000423934	   20.8028	0.000411211	   20.8028	   10.2803	
   20.9898	0.000419093	   20.7992	0.000400881	   20.8533	0.000429371	   20.8808	0.000416448	   20.8808	   10.4112	
   21.0669	0.000424282	   20.8755	0.000405979	   20.9312	0.000434767	   20.9579	0.000421676	   20.9579	   10.5419	
   21.1429	0.000429344	   20.9509	0.000410993	   21.0081	0.000440081	    21.034	0.000426806	    21.034	   10.6702	
   21.2184	0.000434507	   21.0255	  0.000416	   21.0841	0.000445404	   21.1093	0.00043197	   21.1093	   10.7993	
   21.2926	0.00043974	   21.0993	0.000420922	   21.1592	0.000450703	   21.1837	0.000437122	   21.1837	    10.928	
    21.366	0.000444705	   21.1723	0.000425779	   21.2334	0.000455922	   21.2572	0.000442136	   21.2572	   11.0534	
   21.4386	0.000449692	   21.2445	0.000430647	   21.3069	0.000461133	     21.33	0.000447157	     21.33	   11.1789	
   21.5109	0.000454818	   21.3163	0.000435482	   21.3795	0.000466328	   21.4022	0.000452209	   21.4022	   11.3052	
   21.5824	0.000459698	   21.3884	0.000440167	   21.4506	0.000471446	   21.4738	0.000457104	   21.4738	   11.4276	
    21.653	0.000464484	   21.4587	0.000444917	   21.5208	0.000476548	   21.5442	0.000461983	   21.5442	   11.5496	
   21.7223	0.000469374	   21.5271	0.000449556	   21.5902	0.000481642	   21.6132	0.000466857	   21.6132	   11.6714	
   21.7908	0.000474063	   21.5949	0.000454083	   21.6586	0.000486678	   21.6815	0.000471608	   21.6815	   11.7902	
   21.8587	0.000478648	   21.6624	0.000458772	    21.726	0.000491678	   21.7491	0.000476366	   21.7491	   11.9091	
   21.9256	0.000483368	   21.7291	0.000463407	   21.7926	0.000496673	   21.8158	0.00048115	   21.8158	   12.0287	
   21.9911	0.000487857	   21.7949	0.000467839	    21.858	0.000501622	   21.8813	0.000485773	   21.8813	   12.1443	
   22.0558	0.000492238	   21.8602	0.000472386	   21.9231	0.000506536	   21.9464	0.000490387	   21.9464	   12.2597	
   22.1195	0.000496806	    21.925	0.00047691	   21.9873	0.000511445	   22.0106	0.000495054	   22.0106	   12.3763	
   22.1822	0.000501186	   21.9885	0.000481251	   22.0508	0.000516311	   22.0738	0.000499582	   22.0738	   12.4896	
   22.2438	0.000505393	   22.0514	0.000485626	   22.1142	0.000521128	   22.1364	0.000504049	   22.1364	   12.6012	
   22.3046	0.000509784	   22.1139	0.000490023	   22.1772	0.000525998	   22.1986	0.000508602	   22.1986	    12.715	
   22.3645	0.000514068	   22.1754	0.000494228	   22.2376	0.000530785	   22.2592	0.000513027	   22.2592	   12.8257	
   22.4238	0.000518148	   22.2356	0.000498431	   22.2963	0.000535431	   22.3186	0.000517337	   22.3186	   12.9334	
   22.4824	0.000522381	   22.2948	0.000502658	   22.3547	0.000540191	   22.3773	0.000521743	   22.3773	   13.0436	
   22.5402	0.000526578	   22.3533	0.000506709	   22.4123	0.000544991	   22.4353	0.000526092	   22.4353	   13.1523	
   22.5972	0.000530562	   22.4111	0.000510709	   22.4684	0.000549549	   22.4922	0.000530273	   22.4922	   13.2568	
   22.6527	0.000534624	   22.4679	0.000514743	   22.5235	0.000554163	    22.548	0.00053451	    22.548	   13.3628	
   22.7074	0.00053869	   22.5238	0.000518639	   22.5779	0.000558846	    22.603	0.000538725	    22.603	   13.4681	
   22.7611	0.000542552	   22.5786	0.000522476	   22.6316	0.000563326	   22.6571	0.000542784	   22.6571	   13.5696	
   22.8138	0.000546432	   22.6324	0.000526391	   22.6843	0.000567783	   22.7101	0.000546869	   22.7101	   13.6717	
   22.8656	0.000550341	   22.6851	0.000530123	   22.7362	0.000572336	   22.7623	0.000550934	   22.7623	   13.7733	
   22.9166	0.000554054	   22.7365	0.000533777	   22.7868	0.000576696	   22.8133	0.000554842	   22.8133	   13.8711	
   22.9665	0.000557834	   22.7871	0.000537562	   22.8365	0.00058095	   22.8634	0.000558782	   22.8634	   13.9696	
   23.0156	0.000561659	   22.8364	0.000541212	   22.8854	0.000585318	   22.9125	0.00056273	   22.9125	   14.0682	
   23.0639	0.000565243	   22.8842	0.000544724	   22.9333	0.000589547	   22.9605	0.000566505	   22.9605	   14.1626	
    23.111	0.000568795	   22.9308	0.000548372	   22.9803	0.000593648	   23.0074	0.000570272	   23.0074	   14.2568	
   23.1569	0.000572439	   22.9764	0.000551965	   23.0265	0.000597803	   23.0533	0.000574069	   23.0533	   14.3517	
   23.2015	0.00057592	   23.0211	0.000555443	   23.0716	0.000601885	   23.0981	0.000577749	   23.0981	   14.4437	
   23.2452	0.000579243	   23.0647	0.00055903	    23.116	0.000605833	    23.142	0.000581369	    23.142	   14.5342	
   23.2882	0.000582653	   23.1077	0.000562586	   23.1598	0.000609825	   23.1852	0.000585021	   23.1852	   14.6255	
   23.3304	0.000585991	   23.1496	0.000566043	   23.2027	0.000613803	   23.2276	0.000588612	   23.2276	   14.7153	
   23.3718	0.000589183	   23.1906	0.000569624	   23.2447	0.000617623	    23.269	0.000592144	    23.269	   14.8036	
    23.412	0.000592442	   23.2308	0.000573164	   23.2858	0.000621446	   23.3095	0.000595684	   23.3095	   14.8921	
   23.4514	0.000595705	     23.27	0.000576583	   23.3259	0.000625342	   23.3491	0.00059921	   23.3491	   14.9803	
   23.4898	0.000598841	    23.308	0.000580117	   23.3647	0.000629099	   23.3875	0.000602686	   23.3875	   15.0671	
   23.5271	0.000601988	   23.3451	0.000583632	    23.403	0.000632772	   23.4251	0.000606131	   23.4251	   15.1533	
   23.5633	0.000605167	   23.3815	0.000587016	   23.4402	0.000636507	   23.4617	0.000609563	   23.4617	   15.2391	
   23.5983	0.000608289	   23.4178	0.000590485	   23.4764	0.000640188	   23.4975	0.000612988	   23.4975	   15.3247	
   23.6324	0.000611409	   23.4533	0.000594006	   23.5115	0.000643781	   23.5324	0.000616399	   23.5324	     15.41	
   23.6651	0.000614518	   23.4865	0.000597273	   23.5454	0.000647405	   23.5657	0.000619732	   23.5657	   15.4933	
   23.6966	0.000617569	   23.5186	0.000600564	   23.5785	0.000651009	   23.5979	0.000623047	   23.5979	   15.5762	
    23.727	0.000620658	   23.5505	0.00060415	   23.6104	0.00065452	   23.6293	0.000626443	   23.6293	   15.6611	
   23.7562	0.000623741	   23.5812	0.000607475	    23.641	0.000658059	   23.6595	0.000629758	   23.6595	    15.744	
   23.7843	0.000626782	   23.6106	0.000610616	   23.6703	0.000661592	   23.6884	0.000632997	   23.6884	   15.8249	
   23.8112	0.000629829	   23.6391	0.000614138	   23.6986	0.000665007	   23.7163	0.000636325	   23.7163	   15.9081	
   23.8371	0.000632825	   23.6665	0.000617507	   23.7261	0.000668392	   23.7432	0.000639575	   23.7432	   15.9894	
   23.8615	0.000635838	   23.6928	0.000620621	   23.7525	0.000671853	   23.7689	0.00064277	   23.7689	   16.0693	
    23.885	0.000638925	   23.7179	0.000623963	   23.7777	0.000675269	   23.7936	0.000646052	   23.7936	   16.1513	
   23.9073	0.000641913	   23.7422	0.000627237	   23.8019	0.000678579	   23.8171	0.000649243	   23.8171	   16.2311	
   23.9286	0.000644891	   23.7654	0.000630225	   23.8248	0.000681956	   23.8396	0.000652357	   23.8396	   16.3089	
   23.9488	0.000647956	    23.788	0.000633345	   23.8469	0.000685274	   23.8612	0.000655525	   23.8612	   16.3881	
   23.9683	0.000650946	   23.8098	0.000636428	   23.8678	0.000688491	    23.882	0.000658621	    23.882	   16.4655	
   23.9863	0.000653887	   23.8305	0.000639224	   23.8883	0.000691779	   23.9017	0.00066163	   23.9017	   16.5407	
   24.0034	0.000656915	   23.8493	0.000642056	   23.9078	0.000695047	   23.9202	0.000664673	   23.9202	   16.6168	
   24.0197	0.000659865	   23.8674	0.000644852	   23.9262	0.000698166	   23.9378	0.000667628	   23.9378	   16.6907	
   24.0351	0.000662755	   23.8856	0.000647466	   23.9434	0.000701318	   23.9547	0.000670513	   23.9547	   16.7628	
   24.0496	0.000665708	   23.9025	0.00065006	   23.9597	0.000704472	   23.9706	0.000673413	   23.9706	   16.8353	
   24.0633	0.000668582	   23.9175	0.000652578	    23.975	0.000707506	   23.9852	0.000676222	   23.9852	   16.9055	
    24.076	0.000671379	   23.9318	0.000654921	   23.9895	0.000710542	   23.9991	0.000678947	   23.9991	   16.9737	
   24.0882	0.000674222	   23.9452	0.000657269	   24.0032	0.000713594	   24.0122	0.000681695	   24.0122	   17.0424	
   24.0995	0.000677028	   23.9571	0.000659659	   24.0158	0.000716532	   24.0241	0.000684406	   24.0241	   17.1102	
   24.1098	0.00067972	   23.9682	0.000661838	   24.0272	0.000719527	   24.0351	0.000687028	   24.0351	   17.1757	
   24.1193	0.000682452	   23.9781	0.000663983	   24.0373	0.000722491	   24.0449	0.000689642	   24.0449	    17.241	
   24.1278	0.000685154	   23.9872	0.000666239	   24.0456	0.000725283	   24.0536	0.000692225	   24.0536	   17.3056	
   24.1353	0.000687754	    23.995	0.000668361	   24.0535	0.000728109	   24.0613	0.000694741	   24.0613	   17.3685	
   24.1419	0.000690377	   24.0016	0.000670446	   24.0609	0.000730993	   24.0682	0.000697272	   24.0682	   17.4318	
   24.1478	0.000693003	   24.0075	0.00067262	   24.0671	0.000733661	   24.0742	0.000699761	   24.0742	    17.494	
   24.1527	0.00069553	   24.0124	0.000674743	   24.0722	0.000736279	   24.0791	0.000702184	   24.0791	   17.5546	
   24.1567	0.000698064	   24.0169	0.000676768	   24.0758	0.000738956	   24.0831	0.000704596	   24.0831	   17.6149	
   24.1597	0.000700618	   24.0204	0.000678838	   24.0789	0.000741529	   24.0863	0.000706995	   24.0863	   17.6749	
   24.1621	0.000703097	    24.023	0.000680927	   24.0809	0.000744009	   24.0887	0.000709345	   24.0887	   17.7336	
   24.1639	0.000705561	   24.0245	0.000682936	   24.0823	0.000746561	   24.0902	0.000711686	   24.0902	   17.7922	
   24.1648	0.000708074	   24.0253	0.000684885	   24.0823	0.000749056	   24.0908	0.000714005	   24.0908	   17.8501	
   24.1647	0.000710495	   24.0248	0.00068689	   24.0809	0.000751461	   24.0901	0.000716282	   24.0901	   17.9071	
   24.1635	0.000712854	   24.0235	0.000688842	   24.0785	0.000753915	   24.0885	0.000718537	   24.0885	   17.9634	
   24.1616	0.000715281	   24.0215	0.000690747	   24.0754	0.000756359	   24.0862	0.000720796	   24.0862	   18.0199	
   24.1591	0.000717646	   24.0183	0.000692703	   24.0711	0.000758709	   24.0828	0.000723019	   24.0828	   18.0755	
   24.1552	0.00071994	   24.0142	0.000694608	    24.066	0.000761087	   24.0785	0.000725212	   24.0785	   18.1303	
   24.1505	0.000722159	   24.0091	0.000696454	   24.0597	0.00076346	   24.0731	0.000727358	   24.0731	   18.1839	
   24.1453	0.000724385	    24.003	0.000698364	   24.0526	0.000765743	    24.067	0.000729497	    24.067	   18.2374	
   24.1389	0.000726636	   23.9961	0.00070024	   24.0446	0.00076805	   24.0598	0.000731642	   24.0598	   18.2911	
   24.1314	0.00072877	   23.9882	0.000702074	   24.0356	0.000770362	   24.0517	0.000733736	   24.0517	   18.3434	
   24.1233	0.00073081	   23.9794	0.00070394	   24.0255	0.000772559	   24.0427	0.000735769	   24.0427	   18.3942	
    24.114	0.000732974	   23.9696	0.000705775	    24.014	0.000774811	   24.0326	0.000737853	   24.0326	   18.4463	
   24.1038	0.000735075	   23.9586	0.000707577	   24.0018	0.000777034	   24.0214	0.000739895	   24.0214	   18.4974	
   24.0927	0.000737049	   23.9466	0.000709409	   23.9887	0.000779117	   24.0093	0.000741858	   24.0093	   18.5465	
   24.0811	0.000739123	   23.9337	0.000711204	   23.9747	0.000781251	   23.9965	0.00074386	   23.9965	   18.5965	
   24.0685	0.000741166	   23.9192	0.000712931	   23.9604	0.000783392	   23.9827	0.000745829	   23.9827	   18.6457	
   24.0547	0.000743023	   23.9036	0.000714696	   23.9452	0.000785374	   23.9679	0.000747697	   23.9679	   18.6924	
   24.0398	0.000744959	   23.8876	0.000716502	    23.929	0.000787378	   23.9522	0.000749613	   23.9522	   18.7403	
   24.0238	0.000746929	   23.8709	0.000718251	   23.9122	0.00078941	   23.9356	0.00075153	   23.9356	   18.7883	
   24.0071	0.000748704	   23.8529	0.000719963	   23.8944	0.000791288	   23.9181	0.000753318	   23.9181	    18.833	
   23.9893	0.000750482	   23.8341	0.000721671	   23.8757	0.000793125	   23.8997	0.000755093	   23.8997	   18.8773	
   23.9705	0.000752327	   23.8143	0.000723394	   23.8564	0.000795039	   23.8804	0.00075692	   23.8804	    18.923	
   23.9506	0.000754033	   23.7934	0.000725102	   23.8362	0.000796997	   23.8601	0.000758711	   23.8601	   18.9678	
     23.93	0.000755682	    23.772	0.000726767	    23.815	0.000798717	    23.839	0.000760389	    23.839	   19.0097	
   23.9087	0.000757409	     23.75	0.000728415	   23.7931	0.000800375	   23.8173	0.000762067	   23.8173	   19.0517	
   23.8864	0.000759009	   23.7268	0.000730066	   23.7703	0.000802268	   23.7945	0.000763781	   23.7945	   19.0945	
   23.8631	0.000760524	   23.7029	0.000731672	   23.7466	0.00080403	   23.7709	0.000765409	   23.7709	   19.1352	
   23.8392	0.000762122	   23.6779	0.000733273	   23.7224	0.000805591	   23.7465	0.000766996	   23.7465	   19.1749	
   23.8148	0.000763654	   23.6522	0.000734878	   23.6976	0.000807311	   23.7215	0.000768614	   23.7215	   19.2154	
   23.7898	0.000765076	   23.6261	0.000736484	   23.6721	0.000808981	    23.696	0.00077018	    23.696	   19.2545	
   23.7636	0.000766544	   23.5987	0.000738157	   23.6457	0.000810501	   23.6693	0.000771734	   23.6693	   19.2933	
   23.7367	0.000768006	   23.5708	0.000739781	   23.6182	0.000812099	   23.6419	0.000773295	   23.6419	   19.3324	
   23.7089	0.000769384	    23.542	0.000741372	   23.5894	0.000813688	   23.6134	0.000774815	   23.6134	   19.3704	
   23.6803	0.000770779	   23.5122	0.000742993	   23.5596	0.000815078	    23.584	0.000776283	    23.584	   19.4071	
   23.6512	0.000772176	   23.4815	0.00074458	   23.5291	0.000816533	   23.5539	0.000777763	   23.5539	   19.4441	
   23.6209	0.000773507	   23.4497	0.000746116	   23.4981	0.000818006	   23.5229	0.00077921	   23.5229	   19.4802	
   23.5896	0.000774857	   23.4174	0.000747666	   23.4661	0.000819293	   23.4911	0.000780606	   23.4911	   19.5151	
   23.5568	0.00077622	   23.3844	0.00074919	   23.4331	0.000820599	   23.4581	0.000782003	   23.4581	   19.5501	
   23.5229	0.000777559	   23.3504	0.000750644	   23.3991	0.000821941	   23.4241	0.000783381	   23.4241	   19.5845	
   23.4878	0.000778873	   23.3157	0.000752101	   23.3643	0.000823105	   23.3893	0.000784693	   23.3893	   19.6173	
   23.4515	0.000780168	   23.2804	0.00075353	   23.3285	0.000824257	   23.3535	0.000785985	   23.3535	   19.6496	
   23.4144	0.000781476	   23.2446	0.000754849	   23.2917	0.000825481	   23.3169	0.000787269	   23.3169	   19.6817	
   23.3763	0.000782794	   23.2077	0.000756172	    23.254	0.000826602	   23.2793	0.000788522	   23.2793	   19.7131	
   23.3371	0.000784032	     23.17	0.000757499	   23.2154	0.000827645	   23.2408	0.000789726	   23.2408	   19.7431	
   23.2969	0.000785272	   23.1312	0.000758721	   23.1755	0.000828681	   23.2012	0.000790891	   23.2012	   19.7723	
   23.2557	0.000786532	   23.0913	0.000759901	    23.135	0.000829705	   23.1607	0.000792046	   23.1607	   19.8012	
   23.2133	0.000787727	   23.0508	0.000761081	   23.0936	0.000830727	   23.1192	0.000793178	   23.1192	   19.8295	
   23.1702	0.000788882	   23.0095	0.000762216	   23.0513	0.000831678	    23.077	0.000794259	    23.077	   19.8565	
   23.1262	0.000790046	   22.9672	0.000763319	   23.0079	0.000832596	   23.0338	0.00079532	   23.0338	    19.883	
   23.0815	0.000791152	    22.924	0.000764408	   22.9639	0.00083354	   22.9898	0.000796367	   22.9898	   19.9092	
   23.0361	0.000792212	   22.8801	0.000765452	   22.9192	0.000834458	   22.9451	0.000797374	   22.9451	   19.9343	
   22.9897	0.000793276	    22.835	0.000766484	   22.8736	0.00083533	   22.8994	0.000798363	   22.8994	   19.9591	
   22.9425	0.000794299	   22.7888	0.000767508	   22.8268	0.000836228	   22.8527	0.000799345	   22.8527	   19.9836	
   22.8943	0.00079528	   22.7417	0.000768493	   22.7793	0.000837097	   22.8051	0.00080029	   22.8051	   20.0073	
   22.8451	0.00079631	   22.6938	0.000769505	   22.7312	0.00083792	   22.7567	0.000801245	   22.7567	   20.0311	
   22.7948	0.000797257	    22.645	0.000770518	   22.6822	0.000838752	   22.7073	0.000802176	   22.7073	   20.0544	
   22.7436	0.000798153	    22.595	0.000771476	    22.632	0.000839571	   22.6569	0.000803067	   22.6569	   20.0767	
   22.6914	0.000799153	   22.5442	0.000772456	   22.5811	0.00084035	   22.6056	0.000803986	   22.6056	   20.0997	
   22.6388	0.000800146	   22.4924	0.000773467	   22.5293	0.000841126	   22.5535	0.000804913	   22.5535	   20.1228	
   22.5854	0.000801041	   22.4395	0.000774404	   22.4769	0.000841905	   22.5006	0.000805783	   22.5006	   20.1446	
   22.5312	0.000801971	    22.386	0.000775343	   22.4233	0.000842648	   22.4468	0.000806654	   22.4468	   20.1664	
   22.4758	0.000802985	   22.3311	0.000776322	   22.3688	0.000843346	   22.3919	0.000807551	   22.3919	   20.1888	
   22.4196	0.000803946	   22.2755	0.000777225	   22.3134	0.000844065	   22.3362	0.000808412	   22.3362	   20.2103	
   22.3625	0.000804902	   22.2191	0.000778131	    22.257	0.000844762	   22.2795	0.000809265	   22.2795	   20.2316	
   22.3046	0.000805887	   22.1617	0.000778988	   22.1992	0.000845411	   22.2218	0.000810095	   22.2218	   20.2524	
   22.2463	0.00080685	   22.1035	0.000779768	   22.1405	0.000846034	   22.1634	0.000810884	   22.1634	   20.2721	
   22.1872	0.000807778	    22.045	0.000780585	   22.0813	0.000846616	   22.1045	0.00081166	   22.1045	   20.2915	
   22.1273	0.000808701	   21.9857	0.000781359	   22.0212	0.000847218	   22.0447	0.000812426	   22.0447	   20.3106	
   22.0662	0.000809582	    21.925	0.000782043	   21.9601	0.000847788	   21.9838	0.000813138	   21.9838	   20.3285	
   22.0046	0.000810415	   21.8638	0.000782747	   21.8982	0.000848279	   21.9222	0.000813814	   21.9222	   20.3453	
   21.9432	0.000811213	   21.8016	0.000783434	   21.8357	0.000848784	   21.8602	0.000814477	   21.8602	   20.3619	
   21.8819	0.000812015	   21.7386	0.000784037	   21.7719	0.000849289	   21.7975	0.000815114	   21.7975	   20.3779	
   21.8181	0.000812719	   21.6748	0.000784629	   21.7074	0.000849731	   21.7334	0.000815693	   21.7334	   20.3923	
   21.7526	0.000813279	   21.6103	0.000785218	   21.6419	0.000850227	   21.6683	0.000816241	   21.6683	    20.406	
   21.6872	0.000813876	    21.545	0.000785725	   21.5757	0.000850733	   21.6026	0.000816778	   21.6026	   20.4195	
   21.6214	0.000814466	   21.4793	0.000786211	   21.5084	0.000851081	   21.5363	0.000817253	   21.5363	   20.4313	
   21.5545	0.000814813	   21.4126	0.000786702	   21.4406	0.00085151	   21.4692	0.000817675	   21.4692	   20.4419	
   21.4867	0.000815171	    21.345	0.000787121	   21.3718	0.000852028	   21.4012	0.000818106	   21.4012	   20.4527	
    21.418	0.000815577	   21.2765	0.000787503	   21.3021	0.000852403	   21.3322	0.000818494	   21.3322	   20.4624	
   21.3482	0.000815777	   21.2069	0.000787893	   21.2317	0.000852759	   21.2623	0.00081881	   21.2623	   20.4702	
   21.2773	0.000815997	   21.1365	0.00078823	   21.1605	0.000853193	   21.1914	0.00081914	   21.1914	   20.4785	
   21.2054	0.000816324	   21.0653	0.000788518	   21.0883	0.00085356	   21.1196	0.000819467	   21.1196	   20.4867	
   21.1329	0.000816441	   20.9934	0.000788855	   21.0152	0.000853875	   21.0472	0.000819724	   21.0472	   20.4931	
   21.0599	0.00081657	   20.9207	0.00078913	   20.9417	0.00085427	   20.9741	0.00081999	   20.9741	   20.4998	
   20.9857	0.00081684	   20.8471	0.000789335	   20.8672	0.000854638	      20.9	0.000820271	      20.9	   20.5068	
   20.9105	0.000816968	   20.7726	0.000789589	   20.7917	0.000854928	    20.825	0.000820495	    20.825	   20.5124	
   20.8341	0.000817065	   20.6976	0.000789849	   20.7154	0.000855282	    20.749	0.000820732	    20.749	   20.5183	
   20.7568	0.000817308	   20.6219	0.000790005	   20.6383	0.000855619	   20.6723	0.000820977	   20.6723	   20.5244	
   20.6784	0.000817446	   20.5453	0.00079024	   20.5606	0.000855878	   20.5948	0.000821188	   20.5948	   20.5297	
   20.5992	0.000817538	   20.4678	0.000790491	   20.4823	0.000856171	   20.5164	 0.0008214	   20.5164	    20.535	
    20.519	0.000817769	   20.3899	0.000790592	   20.4035	0.000856456	   20.4375	0.000821606	   20.4375	   20.5401	
    20.438	0.000817889	   20.3111	0.000790767	   20.3243	0.000856661	   20.3578	0.000821772	   20.3578	   20.5443	
   20.3562	0.000817909	   20.2315	0.000790998	    20.246	0.000856908	   20.2779	0.000821938	   20.2779	   20.5485	
   20.2737	0.000818042	   20.1514	0.000791062	   20.1658	0.00085719	    20.197	0.000822098	    20.197	   20.5525	
   20.1907	0.000818117	    20.071	0.000791137	   20.0842	0.000857174	   20.1153	0.000822143	   20.1153	   20.5536	
   20.1069	0.000818057	   19.9896	0.00079127	   20.0027	0.000857164	   20.0331	0.000822164	   20.0331	   20.5541	
   20.0224	0.000818037	   19.9075	0.000791255	   19.9205	0.00085736	   19.9502	0.000822218	   19.9502	   20.5554	
    19.937	0.00081807	   19.8245	0.000791193	   19.8379	0.000857243	   19.8664	0.000822169	   19.8664	   20.5542	
   19.8522	0.00081797	   19.7404	0.000791192	   19.7543	0.000856988	   19.7823	0.00082205	   19.7823	   20.5512	
   19.7667	0.000817903	    19.655	0.00079106	   19.6699	0.00085693	   19.6972	0.000821964	   19.6972	   20.5491	
   19.6784	0.00081779	   19.5689	0.000790859	   19.5846	0.000856683	   19.6106	0.000821777	   19.6106	   20.5444	
   19.5894	0.000817555	   19.4818	0.000790707	   19.4984	0.000856267	   19.5232	0.000821509	   19.5232	   20.5377	
   19.5003	0.000817292	   19.3945	0.000790454	   19.4115	0.000855992	   19.4354	0.000821246	   19.4354	   20.5311	
   19.4108	0.000817037	    19.306	0.000790119	   19.3236	0.000855603	   19.3468	0.00082092	   19.3468	    20.523	
   19.3198	0.000816605	   19.2164	0.000789825	   19.2346	0.000855024	   19.2569	0.000820485	   19.2569	   20.5121	
   19.2281	0.000816139	   19.1267	0.000789479	   19.1447	0.000854552	   19.1665	0.000820057	   19.1665	   20.5014	
   19.1362	0.000815668	   19.0362	0.000789127	    19.054	0.000854031	   19.0755	0.000819609	   19.0755	   20.4902	
   19.0434	0.000815106	   18.9449	0.000788741	   18.9624	0.000853328	   18.9836	0.000819058	   18.9836	   20.4765	
   18.9499	0.000814493	   18.8529	0.00078829	   18.8702	0.000852691	    18.891	0.000818491	    18.891	   20.4623	
   18.8556	0.000813931	   18.7601	0.00078784	   18.7774	0.000852047	   18.7977	0.000817939	   18.7977	   20.4485	
   18.7608	0.000813357	   18.6669	0.000787434	   18.6838	0.000851255	   18.7039	0.000817349	   18.7039	   20.4337	
   18.6654	0.000812749	   18.5733	0.000787012	   18.5892	0.000850518	   18.6093	0.00081676	   18.6093	    20.419	
   18.5694	0.000812183	   18.4788	0.000786546	   18.4938	0.000849809	    18.514	0.00081618	    18.514	   20.4045	
   18.4728	0.000811645	   18.3842	0.000786093	   18.3977	0.000848964	   18.4182	0.000815567	   18.4182	   20.3892	
   18.3758	0.000811109	   18.2885	0.000785689	   18.3007	0.000848139	   18.3216	0.000814979	   18.3216	   20.3745	
   18.2783	0.000810622	   18.1918	0.000785241	   18.2034	0.000847372	   18.2245	0.000814412	   18.2245	   20.3603	
   18.1799	0.000810173	   18.0951	0.000784757	   18.1057	 0.0008465	   18.1269	0.00081381	   18.1269	   20.3453	
   18.0809	0.000809743	   17.9976	0.000784332	   18.0073	0.000845578	   18.0286	0.000813218	   18.0286	   20.3304	
   17.9814	0.000809332	   17.8997	0.000783897	   17.9082	0.000844746	   17.9298	0.000812658	   17.9298	   20.3165	
   17.8811	0.000808935	   17.8008	0.00078338	   17.8084	0.000843876	   17.8301	0.000812064	   17.8301	   20.3016	
   17.7802	0.000808521	   17.7012	0.000782878	   17.7082	0.000842895	   17.7299	0.000811431	   17.7299	   20.2858	
   17.6779	 0.0008081	    17.601	0.000782393	   17.6076	0.000842008	   17.6288	0.000810834	   17.6288	   20.2708	
   17.5752	0.000807672	      17.5	0.000781842	   17.5065	0.00084111	   17.5272	0.000810208	   17.5272	   20.2552	
   17.4724	0.000807259	   17.3981	0.000781264	   17.4052	0.000840091	   17.4252	0.000809538	   17.4252	   20.2385	
   17.3695	0.000806806	   17.2958	0.000780709	   17.3033	0.000839194	   17.3229	0.000808903	   17.3229	   20.2226	
   17.2655	0.000806267	   17.1932	0.000780081	   17.2009	0.000838344	   17.2199	0.000808231	   17.2199	   20.2058	
   17.1612	0.000805739	   17.0901	0.000779369	   17.0976	0.000837379	   17.1163	0.000807496	   17.1163	   20.1874	
   17.0566	0.000805191	   16.9862	0.000778765	   16.9937	0.000836453	   17.0121	0.000806803	   17.0121	   20.1701	
   16.9511	0.000804567	   16.8818	0.000778085	   16.8892	0.000835618	   16.9074	0.00080609	   16.9074	   20.1523	
    16.845	0.000803887	   16.7765	0.000777285	   16.7834	0.00083464	   16.8016	0.00080527	   16.8016	   20.1318	
   16.7381	0.000803226	   16.6706	0.000776569	   16.6769	0.000833722	   16.6952	0.000804506	   16.6952	   20.1126	
    16.631	0.000802434	   16.5643	0.000775839	     16.57	0.000832974	   16.5884	0.000803749	   16.5884	   20.0937	
   16.5227	0.000801588	   16.4573	0.000774994	   16.4625	0.000832002	   16.4809	0.000802861	   16.4809	   20.0715	
   16.4136	0.000800785	   16.3493	0.000774219	   16.3538	0.000831002	   16.3722	0.000802002	   16.3722	   20.0501	
   16.3037	0.000799918	   16.2404	0.000773408	   16.2441	0.000830252	   16.2627	0.000801192	   16.2627	   20.0298	
   16.1929	0.000798977	   16.1308	0.000772535	   16.1338	0.000829321	   16.1525	0.000800278	   16.1525	   20.0069	
   16.0815	0.000798135	   16.0208	0.000771777	   16.0224	0.000828282	   16.0416	0.000799398	   16.0416	   19.9849	
   15.9692	0.00079726	   15.9102	0.000770995	   15.9103	0.00082746	   15.9299	0.000798572	   15.9299	   19.9643	
   15.8568	0.000796254	   15.7987	0.000770156	   15.7973	0.000826524	   15.8176	0.000797645	   15.8176	   19.9411	
   15.7437	0.00079542	   15.6867	0.000769422	   15.6834	0.000825427	   15.7046	0.000796756	   15.7046	   19.9189	
   15.6301	0.000794604	    15.574	0.000768688	    15.569	0.000824514	    15.591	0.000795935	    15.591	   19.8984	
   15.5162	0.000793562	   15.4608	0.000767887	   15.4543	0.000823546	   15.4771	0.000794998	   15.4771	    19.875	
   15.4017	0.000792663	   15.3467	0.000767177	   15.3393	0.000822406	   15.3626	0.000794082	   15.3626	    19.852	
   15.2869	0.000791848	   15.2324	0.000766473	   15.2237	0.000821398	   15.2477	0.00079324	   15.2477	    19.831	
   15.1717	0.000790802	   15.1174	0.000765698	   15.1078	0.000820381	   15.1323	0.000792294	   15.1323	   19.8073	
    15.056	0.000789799	   15.0018	0.000764921	   14.9898	0.000819123	   15.0159	0.000791281	   15.0159	    19.782	
   14.9395	0.000788908	   14.8854	0.000764126	    14.871	0.000817959	   14.8986	0.000790331	   14.8986	   19.7583	
   14.8221	0.000787822	    14.768	0.000763285	   14.7524	0.000816972	   14.7808	0.00078936	   14.7808	    19.734	
   14.7042	0.000786687	   14.6496	0.00076244	    14.634	0.000815776	   14.6626	0.000788301	   14.6626	   19.7075	
   14.5857	0.000785624	   14.5309	0.000761533	   14.5151	0.000814584	   14.5439	0.000787247	   14.5439	   19.6812	
   14.4667	0.000784418	   14.4119	0.000760588	   14.3952	0.000813578	   14.4246	0.000786195	   14.4246	   19.6549	
   14.3472	0.000783156	   14.2921	0.000759645	   14.2748	0.000812481	   14.3047	0.000785094	   14.3047	   19.6274	
   14.2269	0.000781948	   14.1721	0.000758649	    14.154	0.000811323	   14.1843	0.000783974	   14.1843	   19.5993	
   14.1053	0.000780515	   14.0513	0.000757597	   14.0322	0.000810263	    14.063	0.000782792	    14.063	   19.5698	
   13.9823	0.000779023	   13.9301	0.000756543	   13.9098	0.00080922	   13.9407	0.000781595	   13.9407	   19.5399	
   13.8595	0.000777704	   13.8084	0.000755432	   13.7867	0.00080807	   13.8182	0.000780402	   13.8182	     19.51	
   13.7366	0.000776269	   13.6863	0.000754157	   13.6635	0.000806938	   13.6954	0.000779121	   13.6954	    19.478	
    13.613	0.000774729	   13.5638	0.000752961	   13.5396	0.000805838	   13.5721	0.000777843	   13.5721	   19.4461	
   13.4886	0.000773284	   13.4407	0.000751773	   13.4152	0.000804636	   13.4482	0.000776564	   13.4482	   19.4141	
   13.3644	0.000771835	   13.3171	0.000750311	   13.2901	0.00080339	   13.3238	0.000775179	   13.3238	   19.3795	
   13.2399	0.000770322	   13.1928	0.000748906	   13.1642	0.000802154	    13.199	0.000773794	    13.199	   19.3449	
   13.1145	0.000768899	   13.0679	0.000747671	   13.0381	0.00080083	   13.0735	0.000772467	   13.0735	   19.3117	
   12.9887	0.000767467	   12.9424	0.000746201	   12.9116	0.000799442	   12.9476	0.000771037	   12.9476	   19.2759	
   12.8627	0.000765982	   12.8166	0.000744705	   12.7848	0.000798066	   12.8214	0.000769584	   12.8214	   19.2396	
   12.7365	0.000764542	   12.6904	0.00074341	   12.6574	0.000796625	   12.6948	0.000768192	   12.6948	   19.2048	
   12.6095	0.00076311	   12.5636	0.000741991	   12.5296	0.000795119	   12.5675	0.00076674	   12.5675	   19.1685	
   12.4819	0.000761614	    12.436	0.000740484	   12.4017	0.000793636	   12.4399	0.000765245	   12.4399	   19.1311	
   12.3539	0.000760143	   12.3079	0.000739171	   12.2736	0.000792114	   12.3118	0.000763809	   12.3118	   19.0952	
   12.2253	0.000758679	   12.1796	0.000737813	   12.1449	0.000790533	   12.1832	0.000762342	   12.1832	   19.0585	
   12.0963	0.000757143	   12.0508	0.000736333	   12.0158	0.000788969	   12.0543	0.000760815	   12.0543	   19.0204	
   11.9671	0.000755611	   11.9216	0.000735015	   11.8864	0.000787388	    11.925	0.000759338	    11.925	   18.9834	
   11.8373	0.000754089	   11.7919	0.000733703	   11.7565	0.000785756	   11.7952	0.000757849	   11.7952	   18.9462	
    11.707	0.000752475	   11.6618	0.000732261	   11.6257	0.000784143	   11.6648	0.000756293	   11.6648	   18.9073	
   11.5765	0.000750841	   11.5312	0.00073093	   11.4946	0.000782494	   11.5341	0.000754755	   11.5341	   18.8689	
   11.4458	0.00074922	   11.4003	0.000729637	   11.3634	0.000780809	   11.4032	0.000753222	   11.4032	   18.8306	
   11.3147	0.000747517	   11.2688	0.000728187	   11.2317	0.000779158	   11.2717	0.000751621	   11.2717	   18.7905	
   11.1831	0.000745768	   11.1372	0.000726817	   11.0999	0.000777474	   11.1401	0.00075002	   11.1401	   18.7505	
   11.0508	0.000744042	   11.0051	0.000725506	   10.9676	0.000775768	   11.0078	0.000748439	   11.0078	    18.711	
   10.9182	0.000742251	   10.8723	  0.000724	   10.8345	0.000774102	    10.875	0.000746784	    10.875	   18.6696	
    10.785	0.000740428	    10.739	0.000722501	   10.7013	0.00077237	   10.7418	 0.0007451	   10.7418	   18.6275	
   10.6519	0.000738631	   10.6054	0.000721072	   10.5673	0.000770613	   10.6082	0.000743439	   10.6082	    18.586	
   10.5184	0.000736717	   10.4712	0.00071949	   10.4329	0.000768872	   10.4742	0.000741693	   10.4742	   18.5423	
   10.3846	0.000734835	   10.3366	0.000717842	   10.2978	0.000767131	   10.3397	0.000739936	   10.3397	   18.4984	
   10.2502	0.000733033	    10.202	0.000716276	    10.162	0.000765351	   10.2047	0.00073822	   10.2047	   18.4555	
   10.1152	0.000731124	   10.0668	 0.0007146	   10.0257	0.000763593	   10.0692	0.000736439	   10.0692	    18.411	
   9.97964	0.000729192	   9.93086	0.000712842	   9.88921	0.000761796	   9.93324	0.00073461	   9.93324	   18.3652	
   9.84375	0.000727332	   9.79474	0.000711145	   9.75217	0.000759993	   9.79689	0.000732823	   9.79689	   18.3206	
   9.70748	0.00072542	   9.65813	0.000709378	   9.61485	0.000758174	   9.66015	0.000730991	   9.66015	   18.2748	
   9.57123	0.000723466	   9.52154	0.000707552	   9.47747	0.000756308	   9.52341	0.000729109	   9.52341	   18.2277	
   9.43446	0.000721539	   9.38444	0.000705744	   9.33991	0.000754429	   9.38627	0.000727237	   9.38627	   18.1809	
   9.29718	0.000719589	   9.24723	0.000703875	    9.2023	0.000752546	    9.2489	0.000725336	    9.2489	   18.1334	
   9.15952	0.00071757	    9.1096	0.000701963	   9.06431	0.000750619	   9.11114	0.000723384	   9.11114	   18.0846	
   9.02137	0.000715562	   8.97173	0.000700105	   8.92612	0.000748678	   8.97308	0.000721448	   8.97308	   18.0362	
   8.88303	0.000713552	   8.83348	0.000698191	   8.78786	0.000746741	   8.83479	0.000719495	   8.83479	   17.9874	
   8.74391	0.000711504	   8.69499	0.000696237	    8.6495	0.000744755	   8.69613	0.000717499	   8.69613	   17.9375	
   8.60463	0.000709439	   8.55637	0.00069433	   8.51129	0.000742739	   8.55743	0.000715503	   8.55743	   17.8876	
   8.46505	0.000707363	   8.41764	0.000692392	   8.37295	0.000740703	   8.41854	0.000713486	   8.41854	   17.8372	
   8.32504	0.000705266	   8.27837	0.000690441	   8.23404	0.000738647	   8.27915	0.000711451	   8.27915	   17.7863	
   8.18437	0.000703156	   8.13875	0.000688499	   8.09475	0.000736579	   8.13929	0.000709411	   8.13929	   17.7353	
   8.04335	0.000701016	   7.99839	0.000686529	   7.95473	0.000734464	   7.99882	0.000707336	   7.99882	   17.6834	
     7.902	0.000698863	   7.85787	0.000684538	   7.81437	0.000732307	   7.85808	0.000705236	   7.85808	   17.6309	
   7.76006	0.000696675	   7.71717	0.000682569	   7.67346	0.000730145	    7.7169	0.000703129	    7.7169	   17.5782	
   7.61735	0.000694369	   7.57623	0.000680559	   7.53217	0.000727986	   7.57525	0.000700971	   7.57525	   17.5243	
   7.47453	0.000692131	   7.43488	0.000678522	   7.39052	0.000725744	   7.43331	0.000698799	   7.43331	     17.47	
   7.33125	0.000689943	   7.29287	0.000676496	   7.24864	0.000723418	   7.29092	0.000696619	   7.29092	   17.4155	
   7.18771	0.000687573	   7.15043	0.000674428	   7.10645	0.000721169	   7.14819	0.00069439	   7.14819	   17.3597	
     7.044	0.000685223	   7.00767	0.000672313	   6.96368	0.000718909	   7.00511	0.000692148	   7.00511	   17.3037	
   6.89975	0.000683047	    6.8646	0.000670188	   6.82063	0.000716504	   6.86166	0.000689913	   6.86166	   17.2478	
   6.75477	0.000680769	    6.7216	0.000668014	   6.67709	0.000714113	   6.71782	0.000687632	   6.71782	   17.1908	
   6.60974	0.000678435	   6.57831	0.000665827	   6.53332	0.000711826	   6.57379	0.000685363	   6.57379	   17.1341	
   6.46442	0.000676191	   6.43475	0.000663544	   6.38883	0.000709421	   6.42933	0.000683052	   6.42933	   17.0763	
   6.31848	0.000673877	   6.29115	0.000661216	   6.24467	0.000706929	   6.28476	0.000680674	   6.28476	   17.0169	
   6.17232	0.000671573	   6.14744	0.000658915	   6.10032	0.000704529	   6.14003	0.000678339	   6.14003	   16.9585	
   6.02572	0.000669327	   6.00348	0.000656604	   5.95582	0.000702068	     5.995	  0.000676	     5.995	      16.9	
    5.8789	0.000666988	   5.85939	0.000654198	    5.8115	0.00069949	   5.84993	0.000673559	   5.84993	    16.839	
   5.73198	0.000664617	   5.71482	0.00065181	    5.6669	0.000696967	   5.70457	0.000671131	   5.70457	   16.7783	
   5.58466	0.000662303	   5.56995	0.000649415	   5.52213	0.000694397	   5.55891	0.000668705	   5.55891	   16.7176	
   5.43741	0.000659874	   5.42467	0.000646992	   5.37725	0.000691716	   5.41311	0.000666194	   5.41311	   16.6548	
   5.28986	0.000657438	   5.27916	0.000644577	    5.2325	0.000689042	   5.26717	0.000663686	   5.26717	   16.5921	
   5.14215	0.000654994	   5.13357	0.000642105	   5.08748	0.000686347	   5.12106	0.000661149	   5.12106	   16.5287	
   4.99432	0.000652405	    4.9879	0.000639532	   4.94186	0.000683555	   4.97469	0.000658498	   4.97469	   16.4624	
   4.84614	0.000649796	   4.84166	0.000637014	    4.7958	0.000680752	   4.82787	0.000655854	   4.82787	   16.3964	
   4.69818	0.000647238	   4.69515	0.000634415	   4.64919	0.00067792	   4.68084	0.000653191	   4.68084	   16.3298	
   4.55028	0.00064455	   4.54841	0.000631703	   4.50212	0.000674999	    4.5336	0.000650418	    4.5336	   16.2604	
   4.40221	0.000641825	   4.40145	0.000628996	    4.3549	0.000672053	   4.38618	0.000647625	   4.38618	   16.1906	
   4.25439	0.00063916	   4.25419	0.000626238	   4.20767	0.000669074	   4.23875	0.000644824	   4.23875	   16.1206	
   4.10629	0.000636407	   4.10678	0.00062335	   4.06057	0.000666023	   4.09121	0.000641926	   4.09121	   16.0482	
   3.95819	0.000633598	   3.96116	0.000620459	   3.91335	0.00066292	   3.94423	0.000638992	   3.94423	   15.9748	
   3.81012	0.000630858	   3.81488	0.000617608	   3.76631	0.000659806	    3.7971	0.000636091	    3.7971	   15.9023	
   3.66169	0.000628045	   3.66648	0.000614483	   3.61914	0.000656646	    3.6491	0.000633058	    3.6491	   15.8265	
   3.51327	0.000625163	   3.51841	0.000611286	   3.47181	0.000653438	   3.50116	0.000629962	   3.50116	   15.7491	
    3.3648	0.000622335	   3.37082	0.00060825	    3.3244	0.000650219	   3.35334	0.000626934	   3.35334	   15.6734	
    3.2163	0.000619432	   3.22318	0.000605049	   3.17708	0.000646957	   3.20552	0.000623813	   3.20552	   15.5953	
   3.06802	0.00061651	   3.07475	0.000601684	    3.0295	0.000643656	   3.05742	0.000620616	   3.05742	   15.5154	
   2.91972	0.000613639	   2.92637	0.000598492	   2.88179	0.000640328	   2.90929	0.000617486	   2.90929	   15.4372	
   2.77118	0.000610653	   2.77803	0.000595227	   2.73422	0.000636959	   2.76114	0.00061428	   2.76114	    15.357	
   2.62276	0.00060766	    2.6293	0.000591825	   2.58687	0.000633536	   2.61298	0.000611007	   2.61298	   15.2752	
   2.47463	0.000604744	   2.48068	0.000588556	   2.44043	0.000630073	   2.46525	0.000607791	   2.46525	   15.1948	
   2.32654	0.000601675	   2.33204	0.000585291	   2.29392	0.000626617	    2.3175	0.000604528	    2.3175	   15.1132	
   2.17789	0.000598577	   2.18336	0.00058188	   2.14593	0.000622997	   2.16906	0.000601151	   2.16906	   15.0288	
   2.02908	0.000595514	   2.03458	0.000578572	   1.99802	0.000619368	   2.02056	0.000597818	   2.02056	   14.9454	
   1.88016	0.000592456	   1.88559	0.000575303	   1.85033	0.00061584	   1.87203	0.000594533	   1.87203	   14.8633	
   1.73081	0.000589342	   1.73693	0.000571918	    1.7024	0.000612129	   1.72338	0.00059113	   1.72338	   14.7782	
   1.58142	0.00058616	   1.58795	0.000568623	   1.55434	0.000608308	   1.57457	0.000587697	   1.57457	   14.6924	
     1.432	0.000582959	   1.43909	0.000565299	   1.40601	0.000604617	    1.4257	0.000584292	    1.4257	   14.6073	
   1.28295	0.000579741	   1.29112	0.000561853	   1.25786	0.000600799	   1.27731	0.000580798	   1.27731	   14.5199	
   1.13389	0.000576451	   1.14243	0.000558546	   1.10937	0.000596829	   1.12856	0.000577275	   1.12856	   14.4319	
  0.984694	0.000573111	  0.992522	0.000555108	  0.960839	0.000592938	  0.979352	0.000573719	  0.979352	    14.343	
  0.835141	0.000569743	  0.843114	0.000551635	  0.811775	0.000588946	   0.83001	0.000570108	   0.83001	   14.2527	
  0.685531	0.000566316	  0.694056	0.00054823	  0.662749	0.000584812	  0.680779	0.000566453	  0.680779	   14.1613	
  0.535623	0.00056282	  0.544694	0.000544706	  0.513923	0.000580776	  0.531413	0.000562767	  0.531413	   14.0692	
  0.385727	0.000559284	  0.394949	0.000541085	  0.364895	0.000576627	  0.381857	0.000558999	  0.381857	    13.975	
   0.23548	0.00055569	  0.245384	0.000537507	  0.215823	0.00057231	  0.232229	0.000555169	  0.232229	   13.8792	
 0.0853333	0.00055204	 0.0956259	0.000533896	 0.0667383	0.000568105	 0.0825659	0.000551347	 0.0825659	   13.7837	
-0.0648497	0.00054825	-0.0543019	0.000530264	-0.0824821	0.000563829	-0.0672112	0.000547448	-0.0672112	   13.6862	
 -0.214845	0.000544386	 -0.204165	0.00052658	 -0.231752	0.000559378	 -0.216921	0.000543448	 -0.216921	   13.5862	
 -0.364591	0.000540493	 -0.353892	0.000522838	 -0.380849	0.00055499	 -0.366444	0.00053944	 -0.366444	    13.486	
 -0.514605	0.000536513	 -0.503481	0.000519157	   -0.5299	0.00055063	 -0.515995	0.000535433	 -0.515995	   13.3858	
 -0.664786	0.000532392	 -0.653242	0.00051542	 -0.678822	0.000546087	 -0.665617	 0.0005313	 -0.665617	   13.2825	
 -0.814772	0.000528204	 -0.802824	0.000511591	 -0.827679	0.000541537	 -0.815092	0.000527111	 -0.815092	   13.1778	
 -0.964816	0.000524008	 -0.952095	0.00050781	  -0.97685	0.000537028	 -0.964587	0.000522949	 -0.964587	   13.0737	
  -1.11509	0.000519726	   -1.1015	0.000504002	  -1.12582	0.000532371	  -1.11414	0.000518699	  -1.11414	   12.9675	
  -1.26523	0.000515356	  -1.25058	0.00050007	  -1.27493	0.000527668	  -1.26358	0.000514364	  -1.26358	   12.8591	
  -1.41536	0.000510985	  -1.39972	0.000496149	  -1.42402	0.000522982	  -1.41303	0.000510039	  -1.41303	    12.751	
  -1.56564	0.000506553	  -1.54895	0.000492211	  -1.57314	0.000518154	  -1.56258	0.000505639	  -1.56258	    12.641	
   -1.7156	0.000502095	  -1.69832	0.000488145	  -1.72247	0.000513293	  -1.71213	0.000501178	  -1.71213	   12.5294	
  -1.86589	0.000497557	  -1.84767	0.000484054	  -1.87132	0.000508447	  -1.86163	0.000496686	  -1.86163	   12.4171	
  -2.01611	0.000492945	   -1.9969	0.000479938	  -2.02058	0.000503445	   -2.0112	0.000492109	   -2.0112	   12.3027	
  -2.16659	0.000488414	  -2.14621	0.000475704	  -2.16959	0.000498436	   -2.1608	0.000487518	   -2.1608	    12.188	
   -2.3169	0.000483815	  -2.29531	0.000471391	  -2.31864	0.000493392	  -2.31028	0.000482866	  -2.31028	   12.0717	
  -2.46691	0.000479058	  -2.44448	0.000467069	  -2.46769	0.00048824	  -2.45969	0.000478122	  -2.45969	   11.9531	
  -2.61637	0.000474352	  -2.59383	0.000462643	  -2.61685	0.000483091	  -2.60902	0.000473362	  -2.60902	    11.834	
  -2.76567	0.000469675	  -2.74318	0.000458113	  -2.76596	0.000477898	  -2.75827	0.000468562	  -2.75827	    11.714	
  -2.91509	0.000464843	   -2.8924	0.000453592	  -2.91489	0.00047259	  -2.90746	0.000463675	  -2.90746	   11.5919	
  -3.06447	0.000460014	  -3.04161	0.000448998	  -3.06364	0.000467269	  -3.05657	0.00045876	  -3.05657	    11.469	
  -3.21378	0.000455201	  -3.19076	0.000444306	  -3.21232	0.000461946	  -3.20562	0.000453818	  -3.20562	   11.3454	
  -3.36289	0.000450267	  -3.33963	0.000439601	  -3.36069	0.000456532	   -3.3544	 0.0004488	   -3.3544	     11.22	
  -3.51194	0.000445294	  -3.48821	0.00043487	  -3.50888	0.000451105	  -3.50301	0.000443757	  -3.50301	   11.0939	
  -3.66074	0.00044035	  -3.63674	0.000430026	  -3.65699	0.000445704	  -3.65149	0.000438693	  -3.65149	   10.9673	
  -3.80935	0.000435297	  -3.78524	0.000425124	  -3.80517	0.000440222	  -3.79992	0.000433548	  -3.79992	   10.8387	
  -3.95814	0.000430193	  -3.93383	0.000420214	  -3.95303	0.000434722	  -3.94833	0.000428376	  -3.94833	   10.7094	
  -4.10651	0.000425116	  -4.08286	0.000415389	  -4.10065	0.000429266	  -4.09667	0.000423257	  -4.09667	   10.5814	
  -4.25468	0.000419943	  -4.23165	0.000410395	  -4.24822	0.000423754	  -4.24485	0.000418031	  -4.24485	   10.4508	
  -4.40268	0.000414728	  -4.37953	0.000405436	  -4.39578	0.000418214	  -4.39266	0.000412792	  -4.39266	   10.3198	
  -4.55086	0.000409532	  -4.52673	0.000400608	  -4.54302	0.000412713	   -4.5402	0.000407618	   -4.5402	   10.1904	
  -4.69869	0.000404215	  -4.67444	0.000395649	  -4.69009	0.000407181	  -4.68774	0.000402348	  -4.68774	   10.0587	
  -4.84632	0.00039886	  -4.82212	0.00039063	    -4.837	0.000401611	  -4.83515	0.000397034	  -4.83515	   9.92585	
  -4.99374	0.000393559	  -4.96898	0.000385822	   -4.9835	0.000396065	  -4.98207	0.000391815	  -4.98207	   9.79538	
   -5.1411	0.000388144	  -5.11584	0.000380891	   -5.1296	0.000390495	  -5.12885	0.00038651	  -5.12885	   9.66275	
  -5.28826	0.00038267	  -5.26257	0.000375803	  -5.27561	0.000384844	  -5.27548	0.000381106	  -5.27548	   9.52764	
   -5.4351	0.000377278	   -5.4089	0.000370903	  -5.42177	0.00037925	  -5.42192	0.00037581	  -5.42192	   9.39526	
  -5.58164	0.000371789	  -5.55488	0.000365995	  -5.56831	0.000373566	  -5.56828	0.00037045	  -5.56828	   9.26125	
  -5.72802	0.00036619	  -5.70091	0.000360839	  -5.71372	0.000367777	  -5.71422	0.000364936	  -5.71422	   9.12339	
    -5.874	0.000360644	  -5.84697	0.000355825	  -5.85842	0.000362067	   -5.8598	0.000359512	   -5.8598	    8.9878	
  -6.01985	0.000355064	  -5.99319	0.00035083	  -6.00298	0.000356305	  -6.00534	0.000354066	  -6.00534	   8.85166	
  -6.16571	0.000349374	  -6.13885	0.000345608	  -6.14794	0.000350427	  -6.15083	0.00034847	  -6.15083	   8.71175	
   -6.3117	0.000343767	  -6.28355	0.000340479	  -6.29273	0.000344565	  -6.29599	0.000342937	  -6.29599	   8.57343	
  -6.45735	0.000338192	  -6.42775	0.000335417	  -6.43716	0.000338679	  -6.44075	0.00033743	  -6.44075	   8.43574	
  -6.60302	0.000332326	  -6.57213	0.000330109	  -6.58184	0.000332662	  -6.58567	0.000331699	  -6.58567	   8.29247	
  -6.74843	0.000326506	  -6.71655	0.000324772	  -6.72587	0.000326677	  -6.73028	0.000325985	  -6.73028	   8.14962	
  -6.89339	0.000320768	  -6.86049	0.000319489	  -6.86987	0.000320699	  -6.87458	0.000320319	  -6.87458	   8.00797	
  -7.03803	0.000314774	  -7.00386	0.000314067	  -7.01302	0.000314576	  -7.01831	0.000314473	  -7.01831	   7.86182	
  -7.18251	0.000308712	  -7.14647	0.000308569	  -7.15552	0.000308449	   -7.1615	0.000308577	   -7.1615	   7.71442	
  -7.32659	0.000302756	   -7.2889	0.00030314	  -7.29784	0.000302338	  -7.30444	0.000302745	  -7.30444	   7.56862	
  -7.47093	0.000296589	  -7.43128	0.000297576	  -7.43985	0.000296117	  -7.44736	0.000296761	  -7.44736	   7.41902	
  -7.61475	0.000290308	    -7.573	0.000291887	  -7.58147	0.000289857	  -7.58974	0.000290684	  -7.58974	    7.2671	
  -7.75823	0.000284119	  -7.71436	0.000286278	  -7.72299	0.000283622	  -7.73186	0.000284673	  -7.73186	   7.11682	
  -7.90126	0.00027777	  -7.85515	0.000280574	  -7.86405	 0.0002773	  -7.87349	0.000278548	  -7.87349	    6.9637	
  -8.04402	0.000271283	  -7.99532	0.000274737	  -8.00495	0.000270926	  -8.01476	0.000272315	  -8.01476	   6.80788	
  -8.18611	0.000264885	  -8.13501	0.000268915	  -8.14542	0.000264586	  -8.15551	0.000266129	  -8.15551	   6.65322	
  -8.32789	0.000258388	  -8.27457	0.000263073	  -8.28569	0.000258177	  -8.29605	0.000259879	  -8.29605	   6.49698	
  -8.46961	0.000251744	  -8.41396	0.000257113	  -8.42556	0.000251702	  -8.43637	0.00025352	  -8.43637	     6.338	
  -8.61133	0.000245174	   -8.5529	0.000251168	  -8.56517	0.000245254	  -8.57647	0.000247199	  -8.57647	   6.17996	
  -8.75241	0.000238589	  -8.69146	0.000245223	  -8.70482	0.000238771	  -8.71623	0.000240861	  -8.71623	   6.02153	
  -8.89351	0.000231875	  -8.82956	0.000239187	  -8.84417	0.00023223	  -8.85575	0.00023443	  -8.85575	   5.86076	
  -9.03444	0.000225173	  -8.96714	0.000233146	  -8.98323	0.00022571	  -8.99494	0.00022801	  -8.99494	   5.70025	
  -9.17471	0.000218531	  -9.10439	0.000227129	  -9.12231	0.000219183	   -9.1338	0.000221614	   -9.1338	   5.54036	
  -9.31467	0.000211827	  -9.24135	0.000221037	   -9.2609	0.000212598	  -9.27231	0.000215154	  -9.27231	   5.37885	
  -9.45435	0.000205091	  -9.37822	0.000214946	  -9.39895	0.000205964	  -9.41051	0.000208667	  -9.41051	   5.21667	
  -9.59378	0.000198424	  -9.51464	0.000208885	  -9.53677	0.00019944	  -9.54839	0.000202249	  -9.54839	   5.05624	
  -9.73301	0.000191735	  -9.65105	0.00020276	  -9.67426	0.000192884	  -9.68611	0.000195793	  -9.68611	   4.89483	
  -9.87182	0.000184991	  -9.78736	0.000196633	   -9.8115	0.000186244	  -9.82356	0.000189289	  -9.82356	   4.73223	
  -10.0101	0.000178339	  -9.92311	0.000190536	   -9.9484	0.00017969	  -9.96055	0.000182855	  -9.96055	   4.57138	
   -10.148	0.000171686	  -10.0583	0.000184376	  -10.0853	0.000173213	  -10.0972	0.000176425	  -10.0972	   4.41063	
  -10.2856	0.000164954	  -10.1931	0.000178198	  -10.2219	0.000166454	  -10.2335	0.000169868	  -10.2335	   4.24671	
  -10.4228	0.00015828	  -10.3274	0.000172045	  -10.3583	0.000159725	  -10.3695	0.00016335	  -10.3695	   4.08375	
  -10.5594	0.000151656	  -10.4613	0.000165814	  -10.4942	0.000153158	   -10.505	0.000156876	   -10.505	    3.9219	
  -10.6961	0.000144951	  -10.5946	0.000159647	  -10.6299	0.000146422	  -10.6402	0.00015034	  -10.6402	    3.7585	
  -10.8323	0.000138264	  -10.7278	0.000153417	  -10.7651	0.000139663	  -10.7751	0.000143782	  -10.7751	   3.59454	
  -10.9678	0.000131645	  -10.8609	0.000147076	  -10.8999	0.000133103	  -10.9095	0.000137275	  -10.9095	   3.43186	
  -11.1035	0.000124953	  -10.9934	0.000140849	  -11.0336	0.000126442	  -11.0435	0.000130748	  -11.0435	   3.26869	
  -11.2386	0.000118252	  -11.1253	0.000134612	  -11.1674	0.000119741	  -11.1771	0.000124202	  -11.1771	   3.10505	
  -11.3735	0.000111621	  -11.2568	0.000128253	  -11.3009	0.00011322	  -11.3104	0.000117698	  -11.3104	   2.94244	
  -11.5081	0.000104933	   -11.388	0.000121975	  -11.4338	0.000106664	  -11.4433	0.000111191	  -11.4433	   2.77977	
  -11.6419	9.82242e-05	  -11.5188	0.000115702	  -11.5664	0.000100024	  -11.5757	0.00010465	  -11.5757	   2.61625	
  -11.7753	9.15812e-05	  -11.6493	0.000109346	  -11.6984	9.35436e-05	  -11.7076	9.8157e-05	  -11.7076	   2.45393	
  -11.9081	8.49023e-05	  -11.7793	0.000103032	  -11.8299	8.70588e-05	  -11.8391	9.16644e-05	  -11.8391	   2.29161	
  -12.0402	7.8193e-05	  -11.9092	9.67495e-05	   -11.961	8.04835e-05	  -11.9701	8.5142e-05	  -11.9701	   2.12855	
  -12.1716	7.15545e-05	  -12.0388	9.03377e-05	  -12.0918	7.40141e-05	  -12.1007	7.86354e-05	  -12.1007	   1.96589	
  -12.3025	6.49029e-05	  -12.1677	8.39731e-05	   -12.222	6.75507e-05	  -12.2307	7.21422e-05	  -12.2307	   1.80356	
  -12.4329	5.82177e-05	  -12.2962	7.76774e-05	  -12.3522	6.0942e-05	  -12.3604	6.56124e-05	  -12.3604	   1.64031	
  -12.5626	5.15975e-05	  -12.4241	 7.126e-05	   -12.482	5.44516e-05	  -12.4896	5.9103e-05	  -12.4896	   1.47758	
  -12.6917	4.49877e-05	  -12.5518	6.48267e-05	  -12.6112	4.79281e-05	  -12.6182	5.25808e-05	  -12.6182	   1.31452	
  -12.8203	3.83518e-05	   -12.679	5.84527e-05	  -12.7397	4.12947e-05	  -12.7463	4.60331e-05	  -12.7463	   1.15083	
  -12.9481	3.17679e-05	  -12.8056	5.20126e-05	   -12.868	3.47623e-05	  -12.8739	3.95143e-05	  -12.8739	  0.987857	
  -13.0753	2.52123e-05	  -12.9318	4.55375e-05	  -12.9956	2.82286e-05	  -13.0009	3.29928e-05	  -13.0009	   0.82482	
  -13.2018	1.86314e-05	  -13.0573	3.91295e-05	  -13.1225	2.15446e-05	  -13.1272	2.64352e-05	  -13.1272	  0.660879	
  -13.3277	1.20981e-05	  -13.1823	3.26951e-05	  -13.2491	1.49136e-05	   -13.253	1.99023e-05	   -13.253	  0.497557	
  -13.4525	5.5498e-06	  -13.3072	2.62237e-05	   -13.375	8.36783e-06	  -13.3782	1.33804e-05	  -13.3782	  0.334511	
  -13.5759	-1.04381e-06	  -13.4319	1.98178e-05	  -13.5002	1.62929e-06	  -13.5026	6.80111e-06	  -13.5026	  0.170028	
  -13.6992	-7.509e-06	   -13.556	1.34148e-05	  -13.6248	-5.16594e-06	  -13.6266	2.46626e-07	  -13.6266	0.00616566	
  -13.8233	-1.40766e-05	  -13.6796	6.98546e-06	  -13.7487	-1.1802e-05	  -13.7505	-6.2977e-06	  -13.7505	 -0.157443	
  -13.9466	-2.06452e-05	  -13.8026	6.16332e-07	  -13.8723	-1.85448e-05	  -13.8738	-1.28579e-05	  -13.8738	 -0.321447	
  -14.0691	-2.70763e-05	  -13.9247	-5.73537e-06	  -13.9954	-2.53987e-05	  -13.9964	-1.94035e-05	  -13.9964	 -0.485086	
  -14.1911	-3.36393e-05	  -14.0463	-1.2111e-05	  -14.1174	-3.21456e-05	  -14.1183	-2.59653e-05	  -14.1183	 -0.649132	
  -14.3129	-4.0301e-05	  -14.1674	-1.84361e-05	  -14.2386	-3.89271e-05	  -14.2396	-3.25547e-05	  -14.2396	 -0.813868	
  -14.4344	-4.68208e-05	   -14.288	-2.47341e-05	  -14.3588	-4.58307e-05	  -14.3604	-3.91285e-05	  -14.3604	 -0.978214	
  -14.5555	-5.35007e-05	  -14.4083	-3.10225e-05	  -14.4784	-5.26575e-05	  -14.4807	-4.57269e-05	  -14.4807	  -1.14317	
  -14.6763	-6.03024e-05	  -14.5281	-3.73289e-05	  -14.5972	-5.94907e-05	  -14.6005	-5.2374e-05	  -14.6005	  -1.30935	
  -14.7965	-6.69177e-05	  -14.6474	-4.36224e-05	   -14.715	-6.64513e-05	  -14.7197	-5.89971e-05	  -14.7197	  -1.47493	
  -14.9162	-7.3686e-05	  -14.7667	-4.98691e-05	  -14.8327	-7.33559e-05	  -14.8385	-6.5637e-05	  -14.8385	  -1.64092	
  -15.0353	-8.05435e-05	  -14.8857	-5.61334e-05	  -14.9498	-8.02266e-05	   -14.957	-7.23011e-05	   -14.957	  -1.80753	
  -15.1536	-8.72291e-05	  -15.0043	-6.24309e-05	  -15.0664	-8.71975e-05	  -15.0748	-7.89525e-05	  -15.0748	  -1.97381	
  -15.2712	-9.40352e-05	  -15.1221	-6.86898e-05	  -15.1824	-9.4124e-05	  -15.1919	-8.56163e-05	  -15.1919	  -2.14041	
  -15.3886	-0.000100939	  -15.2394	-7.49598e-05	  -15.2977	-0.000100985	  -15.3085	-9.22945e-05	  -15.3085	  -2.30736	
  -15.5057	-0.000107645	  -15.3562	-8.12562e-05	  -15.4129	-0.000107912	  -15.4249	-9.89377e-05	  -15.4249	  -2.47344	
   -15.622	-0.00011442	  -15.4723	-8.75303e-05	   -15.528	-0.000114809	  -15.5408	-0.000105587	  -15.5408	  -2.63966	
  -15.7373	-0.000121292	  -15.5875	-9.37984e-05	  -15.6427	-0.000121622	  -15.6558	-0.000112237	  -15.6558	  -2.80593	
  -15.8524	-0.00012798	  -15.7024	-0.000100105	  -15.7566	-0.00012847	  -15.7705	-0.000118852	  -15.7705	  -2.97129	
  -15.9666	-0.000134635	  -15.8167	-0.000106383	  -15.8696	-0.000135327	  -15.8843	-0.000125448	  -15.8843	  -3.13621	
    -16.08	-0.000141394	    -15.93	-0.000112632	  -15.9821	-0.000142064	  -15.9974	-0.00013203	  -15.9974	  -3.30075	
   -16.193	-0.00014798	  -16.0432	-0.000118912	  -16.0939	-0.000148783	    -16.11	-0.000138558	    -16.11	  -3.46396	
  -16.3051	-0.000154496	  -16.1557	-0.000125166	  -16.2052	-0.000155537	   -16.222	-0.000145066	   -16.222	  -3.62666	
  -16.4167	-0.000161087	  -16.2674	-0.000131357	  -16.3159	-0.000162207	  -16.3333	-0.00015155	  -16.3333	  -3.78876	
  -16.5276	-0.000167546	  -16.3783	-0.000137562	   -16.426	-0.000168818	   -16.444	-0.000157975	   -16.444	  -3.94937	
  -16.6376	-0.000173897	  -16.4885	-0.000143742	  -16.5355	-0.000175348	  -16.5539	-0.000164329	  -16.5539	  -4.10822	
  -16.7472	-0.000180307	  -16.5982	-0.00014985	  -16.6447	-0.000181861	  -16.6634	-0.000170673	  -16.6634	  -4.26681	
  -16.8561	-0.000186621	   -16.707	-0.000155963	  -16.7529	-0.000188443	   -16.772	-0.000177009	   -16.772	  -4.42523	
  -16.9642	-0.000192823	  -16.8152	-0.000162076	  -16.8601	-0.000194877	  -16.8798	-0.000183259	  -16.8798	  -4.58147	
  -17.0716	-0.000199066	  -16.9228	-0.000168052	  -16.9667	-0.000201226	   -16.987	-0.000189448	   -16.987	   -4.7362	
  -17.1785	-0.000205307	  -17.0297	-0.000174049	  -17.0722	-0.000207646	  -17.0935	-0.000195667	  -17.0935	  -4.89169	
  -17.2843	-0.000211395	  -17.1359	-0.000180154	  -17.1768	-0.00021402	   -17.199	-0.000201856	   -17.199	  -5.04641	
  -17.3892	-0.000217487	  -17.2411	-0.000186075	  -17.2805	-0.000220264	  -17.3036	-0.000207942	  -17.3036	  -5.19855	
  -17.4934	-0.000223644	  -17.3457	-0.000191949	  -17.3834	-0.000226553	  -17.4075	-0.000214049	  -17.4075	  -5.35122	
  -17.5967	-0.000229672	   -17.449	-0.000197962	  -17.4855	-0.000232849	  -17.5104	-0.000220161	  -17.5104	  -5.50402	
  -17.6997	-0.000235636	  -17.5518	-0.000203878	  -17.5871	-0.000238997	  -17.6129	-0.00022617	  -17.6129	  -5.65426	
  -17.8017	-0.000241667	  -17.6539	-0.00020968	  -17.6878	-0.00024523	  -17.7145	-0.000232192	  -17.7145	   -5.8048	
  -17.9031	-0.000247596	  -17.7552	-0.000215597	   -17.788	-0.000251463	  -17.8154	-0.000238219	  -17.8154	  -5.95547	
  -18.0038	-0.000253447	  -17.8558	-0.00022149	  -17.8877	-0.000257546	  -17.9158	-0.000244161	  -17.9158	  -6.10403	
  -18.1038	-0.000259339	  -17.9559	-0.00022725	  -17.9863	-0.0002637	  -18.0154	-0.000250096	  -18.0154	  -6.25241	
  -18.2032	-0.000265169	  -18.0554	-0.000233088	  -18.0827	-0.000269888	  -18.1138	-0.000256048	  -18.1138	  -6.40121	
  -18.3018	-0.000270907	  -18.1544	-0.000238939	  -18.1793	-0.000275933	  -18.2119	-0.000261926	  -18.2119	  -6.54815	
  -18.3996	-0.000276709	  -18.2529	-0.000244658	  -18.2761	-0.00028215	  -18.3095	-0.000267839	  -18.3095	  -6.69598	
  -18.4965	-0.000282444	  -18.3505	-0.000250427	   -18.372	-0.00028832	  -18.4063	-0.000273731	  -18.4063	  -6.84326	
  -18.5928	-0.000288107	  -18.4476	-0.000256215	  -18.4668	-0.000294259	  -18.5024	-0.000279527	  -18.5024	  -6.98817	
  -18.6883	-0.000293884	  -18.5433	-0.000261884	   -18.561	-0.000300331	  -18.5975	-0.000285366	  -18.5975	  -7.13415	
  -18.7831	-0.000299593	  -18.6386	-0.0002676	  -18.6549	-0.00030641	  -18.6922	-0.000291201	  -18.6922	  -7.28002	
  -18.8773	-0.000305193	  -18.7332	-0.000273299	  -18.7481	-0.000312307	  -18.7862	-0.000296933	  -18.7862	  -7.42332	
  -18.9714	-0.000310896	  -18.8273	-0.000278921	  -18.8405	-0.000318221	  -18.8797	-0.000302679	  -18.8797	  -7.56698	
   -19.065	-0.000316599	  -18.9207	-0.000284662	   -18.932	-0.000324138	  -18.9726	-0.000308466	  -18.9726	  -7.71166	
  -19.1576	-0.000322186	  -19.0134	-0.000290324	  -19.0228	-0.000329863	  -19.0646	-0.000314125	  -19.0646	  -7.85311	
  -19.2488	-0.000327793	  -19.1047	-0.00029584	  -19.1128	-0.000335591	  -19.1555	-0.000319742	  -19.1555	  -7.99354	
  -19.3391	-0.000333505	  -19.1952	-0.000301504	  -19.2022	-0.000341343	  -19.2455	-0.000325451	  -19.2455	  -8.13627	
  -19.4288	-0.00033914	  -19.2851	-0.000307143	  -19.2908	-0.000346898	  -19.3349	-0.000331061	  -19.3349	  -8.27651	
  -19.5179	-0.000344782	  -19.3737	-0.000312592	  -19.3788	-0.000352447	  -19.4235	-0.000336607	  -19.4235	  -8.41517	
   -19.606	-0.000350459	  -19.4617	-0.000318123	  -19.4661	-0.000358031	  -19.5113	-0.000342204	  -19.5113	  -8.55511	
  -19.6925	-0.000356084	  -19.5486	-0.000323697	  -19.5527	-0.000363478	  -19.5979	-0.000347753	  -19.5979	  -8.69382	
   -19.779	-0.000361688	  -19.6349	-0.000329149	  -19.6384	-0.000368886	  -19.6841	-0.000353241	  -19.6841	  -8.83102	
  -19.8656	-0.000367429	  -19.7203	-0.00033459	  -19.7237	-0.000374334	  -19.7699	-0.000358784	  -19.7699	  -8.96961	
  -19.9512	-0.000373057	  -19.8053	-0.00034007	  -19.8084	-0.000379659	  -19.8549	-0.000364262	  -19.8549	  -9.10656	
  -20.0357	-0.00037848	  -19.8894	-0.000345495	  -19.8924	-0.000384962	  -19.9392	-0.000369646	  -19.9392	  -9.24114	
  -20.1194	-0.000384002	  -19.9724	-0.000350896	  -19.9755	-0.000390339	  -20.0224	-0.000375079	  -20.0224	  -9.37698	
  -20.2026	-0.000389495	  -20.0545	-0.000356284	   -20.058	-0.000395533	   -20.105	-0.000380437	   -20.105	  -9.51093	
  -20.2852	-0.000394845	  -20.1358	-0.000361656	  -20.1399	-0.000400783	   -20.187	-0.000385762	   -20.187	  -9.64404	
  -20.3668	-0.00040016	  -20.2162	-0.000367042	  -20.2204	-0.000406189	  -20.2678	-0.000391131	  -20.2678	  -9.77826	
  -20.4471	-0.000405404	  -20.2955	-0.000372408	  -20.3004	-0.00041141	  -20.3477	-0.000396407	  -20.3477	  -9.91018	
  -20.5267	-0.000410551	  -20.3742	-0.000377727	  -20.3795	-0.000416607	  -20.4268	-0.000401629	  -20.4268	  -10.0407	
  -20.6054	-0.000415643	  -20.4516	-0.000383055	  -20.4581	-0.000421997	   -20.505	-0.000406898	   -20.505	  -10.1725	
  -20.6832	-0.000420671	  -20.5279	-0.000388382	  -20.5356	-0.00042727	  -20.5822	-0.000412108	  -20.5822	  -10.3027	
  -20.7601	-0.000425603	  -20.6036	-0.000393641	  -20.6122	-0.000432488	  -20.6586	-0.000417244	  -20.6586	  -10.4311	
  -20.8362	-0.000430506	  -20.6783	-0.0003989	  -20.6881	-0.00043782	  -20.7342	-0.000422409	  -20.7342	  -10.5602	
  -20.9111	-0.000435344	  -20.7522	-0.000404151	   -20.763	-0.000443085	  -20.8088	-0.000427526	  -20.8088	  -10.6882	
  -20.9856	-0.000440122	  -20.8255	-0.000409342	  -20.8368	-0.000448298	  -20.8826	-0.000432587	  -20.8826	  -10.8147	
  -21.0589	-0.000444889	  -20.8979	-0.000414512	  -20.9094	-0.000453593	  -20.9554	-0.000437665	  -20.9554	  -10.9416	
  -21.1312	-0.000449604	  -20.9694	-0.000419679	  -20.9813	-0.000458793	  -21.0273	-0.000442692	  -21.0273	  -11.0673	
  -21.2026	-0.00045426	  -21.0395	-0.000424787	  -21.0526	-0.000463917	  -21.0982	-0.000447654	  -21.0982	  -11.1914	
  -21.2734	-0.000458916	  -21.1086	-0.000429856	  -21.1232	-0.000469098	  -21.1684	-0.000452624	  -21.1684	  -11.3156	
  -21.3432	-0.00046356	   -21.177	-0.000434923	  -21.1927	-0.000474191	  -21.2377	-0.000457558	  -21.2377	  -11.4389	
  -21.4118	-0.000468169	   -21.245	-0.000439899	  -21.2614	-0.000479164	  -21.3061	-0.00046241	  -21.3061	  -11.5603	
  -21.4797	-0.000472732	  -21.3122	-0.000444819	  -21.3294	-0.000484179	  -21.3738	-0.000467243	  -21.3738	  -11.6811	
  -21.5467	-0.000477285	  -21.3788	-0.000449724	   -21.396	-0.000489156	  -21.4405	-0.000472055	  -21.4405	  -11.8014	
  -21.6126	-0.000481863	  -21.4446	-0.00045461	  -21.4619	-0.000494002	  -21.5064	-0.000476825	  -21.5064	  -11.9206	
  -21.6774	-0.000486362	  -21.5095	-0.000459409	   -21.527	-0.000498857	  -21.5713	-0.000481543	  -21.5713	  -12.0386	
  -21.7411	-0.000490853	  -21.5736	-0.000464156	  -21.5911	-0.000503676	  -21.6353	-0.000486228	  -21.6353	  -12.1557	
   -21.804	-0.000495345	  -21.6368	-0.000468897	  -21.6544	-0.000508403	  -21.6984	-0.000490882	  -21.6984	   -12.272	
  -21.8663	-0.00049971	  -21.6992	-0.000473587	   -21.717	-0.000513119	  -21.7608	-0.000495472	  -21.7608	  -12.3868	
  -21.9276	-0.000504031	  -21.7609	-0.000478218	  -21.7788	-0.000517816	  -21.8224	-0.000500022	  -21.8224	  -12.5005	
  -21.9882	-0.000508355	  -21.8219	-0.000482829	  -21.8399	-0.000522533	  -21.8833	-0.000504572	  -21.8833	  -12.6143	
  -22.0478	-0.000512571	  -21.8816	-0.000487396	  -21.8999	-0.000527232	  -21.9431	-0.000509067	  -21.9431	  -12.7267	
  -22.1071	-0.000516693	  -21.9403	-0.000491918	  -21.9588	-0.000531887	   -22.002	-0.0005135	   -22.002	  -12.8375	
  -22.1655	-0.000520829	  -21.9981	-0.000496427	  -22.0168	-0.000536587	  -22.0601	-0.000517948	  -22.0601	  -12.9487	
  -22.2229	-0.000524878	  -22.0548	-0.000500901	  -22.0742	-0.000541292	  -22.1173	-0.000522357	  -22.1173	  -13.0589	
  -22.2795	-0.000528843	  -22.1107	-0.000505324	  -22.1309	-0.000545921	  -22.1737	-0.000526696	  -22.1737	  -13.1674	
  -22.3353	-0.000532819	   -22.166	-0.000509735	  -22.1875	-0.000550567	  -22.2296	-0.000531041	  -22.2296	   -13.276	
  -22.3898	-0.000536723	  -22.2202	-0.000514116	  -22.2427	-0.000555255	  -22.2842	-0.000535365	  -22.2842	  -13.3841	
  -22.4434	-0.00054057	  -22.2736	-0.000518445	  -22.2967	-0.000559773	  -22.3379	-0.000539596	  -22.3379	  -13.4899	
  -22.4961	-0.000544453	  -22.3262	-0.000522766	  -22.3494	-0.000564255	  -22.3906	-0.000543825	  -22.3906	  -13.5956	
  -22.5478	-0.000548274	   -22.378	-0.000527056	  -22.4017	-0.000568818	  -22.4425	-0.000548049	  -22.4425	  -13.7012	
  -22.5984	-0.000552023	  -22.4287	-0.000531318	  -22.4535	-0.000573252	  -22.4935	-0.000552198	  -22.4935	  -13.8049	
  -22.6483	-0.00055583	  -22.4787	-0.000535425	  -22.5037	-0.0005776	  -22.5436	-0.000556285	  -22.5436	  -13.9071	
  -22.6974	-0.000559615	  -22.5278	-0.000539512	  -22.5532	-0.000581975	  -22.5928	-0.000560367	  -22.5928	  -14.0092	
  -22.7462	-0.000563318	   -22.576	-0.000543703	  -22.6017	-0.000586216	  -22.6413	-0.000564412	  -22.6413	  -14.1103	
  -22.7944	-0.000567058	  -22.6235	-0.000547673	  -22.6495	-0.000590371	  -22.6891	-0.000568367	  -22.6891	  -14.2092	
  -22.8417	-0.00057081	  -22.6704	-0.000551595	  -22.6966	-0.000594573	  -22.7362	-0.000572326	  -22.7362	  -14.3082	
  -22.8884	-0.000574543	  -22.7164	-0.000555578	   -22.743	-0.00059863	  -22.7826	-0.00057625	  -22.7826	  -14.4063	
  -22.9339	-0.000578248	  -22.7614	-0.000559391	  -22.7885	-0.000602518	  -22.8279	-0.000580052	  -22.8279	  -14.5013	
  -22.9786	-0.000581901	  -22.8057	-0.000563096	  -22.8328	-0.000606488	  -22.8724	-0.000583828	  -22.8724	  -14.5957	
  -23.0224	-0.000585566	  -22.8491	-0.000566825	  -22.8766	-0.000610373	   -22.916	-0.000587588	   -22.916	  -14.6897	
  -23.0655	-0.000589203	  -22.8914	-0.00057043	  -22.9198	-0.000614047	  -22.9589	-0.000591227	  -22.9589	  -14.7807	
   -23.108	-0.000592799	   -22.933	-0.000573907	  -22.9623	-0.000617764	  -23.0011	-0.000594824	  -23.0011	  -14.8706	
  -23.1498	-0.00059638	   -22.974	-0.000577413	  -23.0042	-0.00062145	  -23.0427	-0.000598414	  -23.0427	  -14.9604	
   -23.191	-0.000599945	  -23.0139	-0.000580836	  -23.0451	-0.000624921	  -23.0833	-0.0006019	  -23.0833	  -15.0475	
  -23.2324	-0.000603428	  -23.0529	-0.000584117	   -23.085	-0.000628462	  -23.1234	-0.000605335	  -23.1234	  -15.1334	
  -23.2727	-0.000606907	  -23.0907	-0.000587438	  -23.1239	-0.00063205	  -23.1624	-0.000608798	  -23.1624	    -15.22	
  -23.3111	-0.000610315	  -23.1277	-0.000590704	  -23.1616	-0.000635403	  -23.2001	-0.000612141	  -23.2001	  -15.3035	
  -23.3487	-0.000613651	  -23.1638	-0.000593852	  -23.1983	-0.000638794	  -23.2369	-0.000615432	  -23.2369	  -15.3858	
  -23.3857	-0.000617041	   -23.199	-0.00059703	  -23.2337	-0.000642277	  -23.2728	-0.000618783	  -23.2728	  -15.4696	
  -23.4213	-0.000620382	  -23.2331	-0.000600195	   -23.268	-0.000645614	  -23.3075	-0.000622064	  -23.3075	  -15.5516	
  -23.4557	-0.000623624	  -23.2664	-0.00060325	  -23.3013	-0.000648925	  -23.3411	-0.000625266	  -23.3411	  -15.6317	
  -23.4895	-0.000626896	  -23.2988	-0.000606333	  -23.3337	-0.000652355	   -23.374	-0.000628528	   -23.374	  -15.7132	
   -23.522	-0.000630171	  -23.3305	-0.000609427	  -23.3653	-0.000655679	  -23.4059	-0.000631759	  -23.4059	   -15.794	
  -23.5537	-0.000633343	  -23.3615	-0.000612428	  -23.3966	-0.000658962	  -23.4373	-0.000634911	  -23.4373	  -15.8728	
  -23.5845	-0.000636553	  -23.3917	-0.000615442	   -23.427	-0.000662365	  -23.4677	-0.00063812	  -23.4677	   -15.953	
  -23.6147	-0.000639792	  -23.4217	-0.000618483	  -23.4558	-0.000665686	  -23.4974	-0.000641321	  -23.4974	   -16.033	
   -23.644	-0.00064295	  -23.4508	-0.000621436	  -23.4833	-0.000668968	  -23.5261	-0.000644452	  -23.5261	  -16.1113	
  -23.6721	-0.000646112	  -23.4791	-0.00062437	  -23.5098	-0.000672352	  -23.5537	-0.000647611	  -23.5537	  -16.1903	
  -23.6999	-0.000649298	  -23.5063	-0.00062733	  -23.5353	-0.000675673	  -23.5805	-0.000650767	  -23.5805	  -16.2692	
   -23.727	-0.000652417	  -23.5328	-0.000630217	  -23.5603	-0.000678893	  -23.6067	-0.000653842	  -23.6067	  -16.3461	
  -23.7533	-0.000655514	  -23.5587	-0.000633066	  -23.5849	-0.000682212	  -23.6323	-0.00065693	  -23.6323	  -16.4233	
  -23.7782	-0.000658629	  -23.5832	-0.000635943	  -23.6089	-0.000685492	  -23.6568	-0.000660021	  -23.6568	  -16.5005	
   -23.802	-0.000661659	  -23.6069	-0.00063877	  -23.6321	-0.000688632	  -23.6803	-0.00066302	  -23.6803	  -16.5755	
  -23.8248	-0.00066468	  -23.6297	-0.000641518	  -23.6541	-0.000691841	  -23.7029	-0.000666013	  -23.7029	  -16.6503	
  -23.8464	-0.000667728	  -23.6513	-0.000644281	  -23.6752	-0.000695027	  -23.7243	-0.000669012	  -23.7243	  -16.7253	
   -23.867	-0.000670665	   -23.672	-0.000647038	  -23.6956	-0.000698066	  -23.7449	-0.000671923	  -23.7449	  -16.7981	
   -23.887	-0.000673625	  -23.6918	-0.000649724	  -23.7154	-0.000701126	  -23.7647	-0.000674825	  -23.7647	  -16.8706	
  -23.9056	-0.000676407	   -23.711	-0.000652343	  -23.7346	-0.000704179	  -23.7838	-0.000677643	  -23.7838	  -16.9411	
  -23.9231	-0.00067913	  -23.7293	-0.000654932	  -23.7531	-0.00070709	  -23.8018	-0.000680384	  -23.8018	  -17.0096	
  -23.9397	-0.000682014	  -23.7471	-0.0006575	  -23.7708	-0.000709994	  -23.8192	-0.000683169	  -23.8192	  -17.0792	
   -23.955	-0.00068476	  -23.7639	-0.000660014	  -23.7875	-0.000712928	  -23.8355	-0.000685901	  -23.8355	  -17.1475	
  -23.9692	-0.000687255	  -23.7799	-0.000662483	  -23.8035	-0.000715709	  -23.8508	-0.000688482	  -23.8508	  -17.2121	
  -23.9821	-0.000689901	  -23.7946	-0.00066493	  -23.8183	-0.000718456	   -23.865	-0.000691096	   -23.865	  -17.2774	
   -23.994	-0.000692528	   -23.808	-0.000667349	  -23.8322	-0.000721273	  -23.8781	-0.000693717	  -23.8781	  -17.3429	
  -24.0056	-0.000694903	  -23.8206	-0.000669737	  -23.8449	-0.000723993	  -23.8904	-0.000696211	  -23.8904	  -17.4053	
  -24.0163	-0.000697311	   -23.832	-0.000672111	  -23.8564	-0.000726628	  -23.9016	-0.000698683	  -23.9016	  -17.4671	
  -24.0262	-0.000699754	  -23.8421	-0.000674473	  -23.8668	-0.000729315	  -23.9117	-0.000701181	  -23.9117	  -17.5295	
  -24.0355	-0.000701949	  -23.8514	-0.000676804	  -23.8759	-0.000731964	   -23.921	-0.000703572	   -23.921	  -17.5893	
  -24.0441	-0.000704125	  -23.8597	-0.000679127	  -23.8841	-0.000734519	  -23.9293	-0.000705924	  -23.9293	  -17.6481	
  -24.0515	-0.000706369	  -23.8673	-0.000681441	  -23.8916	-0.000737106	  -23.9368	-0.000708306	  -23.9368	  -17.7076	
  -24.0578	-0.00070841	  -23.8743	-0.000683729	  -23.8983	-0.000739676	  -23.9434	-0.000710605	  -23.9434	  -17.7651	
  -24.0633	-0.000710387	  -23.8804	-0.000686006	  -23.9039	-0.000742159	  -23.9492	-0.00071285	  -23.9492	  -17.8213	
   -24.068	-0.000712449	  -23.8848	-0.000688252	  -23.9083	-0.000744666	  -23.9537	-0.000715122	  -23.9537	  -17.8781	
  -24.0717	-0.000714373	  -23.8883	-0.000690489	  -23.9118	-0.000747215	  -23.9573	-0.000717359	  -23.9573	   -17.934	
  -24.0744	-0.000716209	  -23.8911	-0.00069279	  -23.9143	-0.000749601	  -23.9599	-0.000719534	  -23.9599	  -17.9883	
  -24.0761	-0.000718133	  -23.8931	-0.000695032	  -23.9157	-0.000751946	  -23.9617	-0.000721704	  -23.9617	  -18.0426	
  -24.0769	-0.000719964	  -23.8944	-0.000697201	  -23.9165	-0.000754379	  -23.9626	-0.000723848	  -23.9626	  -18.0962	
   -24.077	-0.000721708	  -23.8944	-0.000699439	  -23.9167	-0.000756678	  -23.9627	-0.000725941	  -23.9627	  -18.1485	
  -24.0759	-0.000723529	  -23.8933	-0.000701693	  -23.9156	-0.000758868	  -23.9616	-0.00072803	  -23.9616	  -18.2007	
   -24.074	-0.000725327	  -23.8915	-0.000703882	  -23.9135	-0.000761139	  -23.9597	-0.000730116	  -23.9597	  -18.2529	
  -24.0711	-0.000727001	  -23.8885	-0.000706038	  -23.9105	-0.000763329	  -23.9567	-0.000732123	  -23.9567	  -18.3031	
  -24.0672	-0.000728712	  -23.8844	-0.000708302	  -23.9066	-0.0007654	  -23.9527	-0.000734138	  -23.9527	  -18.3534	
  -24.0625	-0.000730448	  -23.8797	-0.000710552	   -23.902	-0.000767527	  -23.9481	-0.000736176	  -23.9481	  -18.4044	
  -24.0564	-0.000732118	  -23.8738	-0.000712749	  -23.8961	-0.000769619	  -23.9421	-0.000738162	  -23.9421	  -18.4541	
  -24.0493	-0.000733748	   -23.867	-0.000715017	  -23.8897	-0.0007716	  -23.9353	-0.000740122	  -23.9353	   -18.503	
  -24.0411	-0.000735325	  -23.8594	-0.000717322	  -23.8825	-0.00077354	  -23.9276	-0.000742062	  -23.9276	  -18.5516	
  -24.0318	-0.000736906	  -23.8509	-0.000719544	  -23.8743	-0.000775488	   -23.919	-0.00074398	   -23.919	  -18.5995	
  -24.0215	-0.000738494	  -23.8414	-0.000721753	  -23.8649	-0.000777404	  -23.9093	-0.000745883	  -23.9093	  -18.6471	
  -24.0104	-0.000739873	  -23.8314	-0.000724097	  -23.8551	-0.000779256	   -23.899	-0.000747742	   -23.899	  -18.6935	
  -23.9981	-0.000741285	  -23.8203	-0.000726373	  -23.8443	-0.000781104	  -23.8875	-0.000749587	  -23.8875	  -18.7397	
  -23.9848	-0.000742737	  -23.8086	-0.00072856	  -23.8322	-0.000782931	  -23.8752	-0.000751409	  -23.8752	  -18.7852	
  -23.9707	-0.000743972	  -23.7963	-0.000730821	   -23.819	-0.000784714	   -23.862	-0.000753169	   -23.862	  -18.8292	
  -23.9555	-0.000745197	   -23.783	-0.000733038	  -23.8046	-0.000786496	  -23.8477	-0.00075491	  -23.8477	  -18.8728	
  -23.9396	-0.000746552	  -23.7688	-0.000735141	  -23.7891	-0.000788263	  -23.8325	-0.000756652	  -23.8325	  -18.9163	
  -23.9227	-0.000747744	   -23.754	-0.000737283	  -23.7725	-0.000790013	  -23.8164	-0.000758347	  -23.8164	  -18.9587	
   -23.905	-0.000748891	  -23.7377	-0.000739385	  -23.7548	-0.000791727	  -23.7991	-0.000760001	  -23.7991	       -19	
  -23.8867	-0.000750175	  -23.7193	-0.000741332	  -23.7364	-0.000793399	  -23.7808	-0.000761635	  -23.7808	  -19.0409	
  -23.8673	-0.00075139	  -23.7009	-0.000743255	  -23.7171	-0.000795092	  -23.7618	-0.000763246	  -23.7618	  -19.0811	
   -23.847	-0.000752577	  -23.6833	-0.000745284	  -23.6968	-0.000796784	  -23.7424	-0.000764882	  -23.7424	   -19.122	
  -23.8255	-0.00075382	  -23.6641	-0.00074709	  -23.6754	-0.000798378	  -23.7217	-0.000766429	  -23.7217	  -19.1607	
  -23.8032	-0.000755045	   -23.642	-0.000748768	  -23.6535	-0.000799973	  -23.6996	-0.000767929	  -23.6996	  -19.1982	
    -23.78	-0.000756299	  -23.6195	-0.000750544	  -23.6305	-0.000801589	  -23.6767	-0.000769477	  -23.6767	  -19.2369	
  -23.7558	-0.000757604	  -23.5982	-0.000752359	  -23.6063	-0.000803122	  -23.6534	-0.000771028	  -23.6534	  -19.2757	
  -23.7305	-0.000758909	  -23.5752	-0.000754023	  -23.5817	-0.000804631	  -23.6292	-0.000772521	  -23.6292	   -19.313	
  -23.7044	-0.000760244	  -23.5509	-0.00075567	  -23.5564	-0.000806173	  -23.6039	-0.000774029	  -23.6039	  -19.3507	
  -23.6775	-0.000761646	  -23.5258	-0.000757357	  -23.5298	-0.000807647	  -23.5777	-0.00077555	  -23.5777	  -19.3887	
  -23.6498	-0.000763043	  -23.5002	-0.000759029	   -23.502	-0.000809078	  -23.5507	-0.00077705	  -23.5507	  -19.4262	
   -23.621	-0.000764395	  -23.4737	-0.000760658	  -23.4733	-0.000810528	  -23.5227	-0.000778527	  -23.5227	  -19.4632	
  -23.5909	-0.000765877	  -23.4464	-0.000762323	  -23.4431	-0.000811919	  -23.4935	-0.00078004	  -23.4935	   -19.501	
  -23.5602	-0.000767368	  -23.4184	-0.000763996	  -23.4112	-0.000813261	  -23.4632	-0.000781541	  -23.4632	  -19.5385	
  -23.5287	-0.000768736	   -23.389	-0.000765582	  -23.3785	-0.000814565	  -23.4321	-0.000782961	  -23.4321	   -19.574	
  -23.4962	-0.000770183	  -23.3588	-0.000767211	   -23.347	-0.000815939	  -23.4006	-0.000784444	  -23.4006	  -19.6111	
  -23.4624	-0.000771698	  -23.3274	-0.000768951	  -23.3144	-0.00081721	  -23.3681	-0.000785953	  -23.3681	  -19.6488	
  -23.4282	-0.000773132	  -23.2951	-0.000770619	   -23.281	-0.000818341	  -23.3347	-0.000787364	  -23.3347	  -19.6841	
  -23.3931	-0.000774483	  -23.2616	-0.000772173	  -23.2467	-0.000819562	  -23.3005	-0.000788739	  -23.3005	  -19.7185	
  -23.3575	-0.000775914	  -23.2267	-0.000773746	  -23.2119	-0.000820769	  -23.2654	-0.000790143	  -23.2654	  -19.7536	
   -23.321	-0.000777314	  -23.1907	-0.00077529	  -23.1764	-0.000821807	  -23.2294	-0.00079147	  -23.2294	  -19.7868	
  -23.2835	-0.000778607	  -23.1537	-0.000776702	  -23.1401	-0.00082289	  -23.1924	-0.000792733	  -23.1924	  -19.8183	
   -23.245	-0.000779938	  -23.1155	-0.000778097	  -23.1034	-0.000823966	  -23.1546	 -0.000794	  -23.1546	    -19.85	
  -23.2057	-0.000781264	  -23.0764	-0.000779436	  -23.0655	-0.000824881	  -23.1159	-0.000795194	  -23.1159	  -19.8798	
  -23.1656	-0.000782508	  -23.0362	-0.000780637	  -23.0264	-0.00082579	  -23.0761	-0.000796312	  -23.0761	  -19.9078	
  -23.1246	-0.000783751	  -22.9954	-0.000781796	  -22.9862	-0.000826721	  -23.0354	-0.000797423	  -23.0354	  -19.9356	
  -23.0829	-0.000785011	  -22.9534	-0.000782906	  -22.9452	-0.000827493	  -22.9938	-0.00079847	  -22.9938	  -19.9617	
  -23.0405	-0.0007862	  -22.9103	-0.000783875	   -22.903	-0.000828219	  -22.9513	-0.000799431	  -22.9513	  -19.9858	
  -22.9973	-0.000787361	  -22.8663	-0.000784767	  -22.8601	-0.000828965	  -22.9079	-0.000800364	  -22.9079	  -20.0091	
  -22.9532	-0.000788542	  -22.8217	-0.000785618	  -22.8164	-0.000829588	  -22.8638	-0.000801249	  -22.8638	  -20.0312	
  -22.9083	-0.000789664	  -22.7765	-0.000786353	  -22.7717	-0.000830093	  -22.8189	-0.000802037	  -22.8189	  -20.0509	
  -22.8626	-0.000790746	  -22.7301	-0.000787005	  -22.7266	-0.000830631	  -22.7731	-0.000802794	  -22.7731	  -20.0698	
  -22.8158	-0.000791844	  -22.6829	-0.000787637	  -22.6804	-0.000831132	  -22.7264	-0.000803538	  -22.7264	  -20.0884	
  -22.7685	-0.000792928	  -22.6345	-0.000788197	  -22.6339	-0.000831547	   -22.679	-0.000804224	   -22.679	  -20.1056	
  -22.7203	-0.000793934	  -22.5856	-0.000788704	  -22.5865	-0.00083198	  -22.6308	-0.000804873	  -22.6308	  -20.1218	
  -22.6713	-0.000794915	  -22.5359	-0.000789194	  -22.5382	-0.000832378	  -22.5818	-0.000805496	  -22.5818	  -20.1374	
  -22.6216	-0.000795922	  -22.4851	-0.000789672	  -22.4883	-0.000832759	  -22.5317	-0.000806118	  -22.5317	  -20.1529	
  -22.5708	-0.000796889	  -22.4335	-0.000790158	  -22.4375	-0.000833203	  -22.4806	-0.00080675	  -22.4806	  -20.1688	
  -22.5192	-0.000797781	   -22.381	-0.000790623	  -22.3859	-0.000833526	  -22.4287	-0.00080731	  -22.4287	  -20.1828	
  -22.4663	-0.000798707	  -22.3273	-0.000790971	  -22.3339	-0.000833784	  -22.3758	-0.000807821	  -22.3758	  -20.1955	
  -22.4126	-0.000799612	  -22.2726	-0.000791369	   -22.281	-0.000834159	  -22.3221	-0.00080838	  -22.3221	  -20.2095	
  -22.3581	-0.000800491	  -22.2173	-0.000791787	  -22.2273	-0.000834476	  -22.2676	-0.000808918	  -22.2676	   -20.223	
  -22.3028	-0.000801374	  -22.1611	-0.000792071	  -22.1728	-0.000834667	  -22.2122	-0.000809371	  -22.2122	  -20.2343	
  -22.2468	-0.000802225	  -22.1042	-0.000792361	  -22.1173	-0.000834963	  -22.1561	-0.00080985	  -22.1561	  -20.2462	
  -22.1897	-0.00080308	  -22.0467	-0.000792746	  -22.0611	-0.000835303	  -22.0992	-0.000810376	  -22.0992	  -20.2594	
  -22.1318	-0.000803939	  -21.9882	-0.000793012	  -22.0041	-0.000835452	  -22.0414	-0.000810801	  -22.0414	    -20.27	
  -22.0729	-0.000804765	  -21.9286	-0.000793213	  -21.9459	-0.00083557	  -21.9825	-0.000811183	  -21.9825	  -20.2796	
  -22.0132	-0.000805632	   -21.868	-0.000793471	  -21.8865	-0.000835791	  -21.9226	-0.000811631	  -21.9226	  -20.2908	
  -21.9524	-0.000806457	  -21.8072	-0.000793666	  -21.8265	-0.000835919	   -21.862	-0.000812014	   -21.862	  -20.3004	
  -21.8907	-0.00080721	  -21.7458	-0.000793729	  -21.7654	-0.00083594	  -21.8006	-0.000812293	  -21.8006	  -20.3073	
  -21.8282	-0.000808006	  -21.6834	-0.000793883	  -21.7032	-0.000836036	  -21.7383	-0.000812642	  -21.7383	   -20.316	
  -21.7647	-0.000808808	  -21.6197	-0.000794053	  -21.6402	-0.000836119	  -21.6749	-0.000812993	  -21.6749	  -20.3248	
  -21.7002	-0.000809542	  -21.5551	-0.000794028	  -21.5762	-0.000836102	  -21.6105	-0.000813224	  -21.6105	  -20.3306	
  -21.6349	-0.000810294	  -21.4904	-0.000794056	  -21.5112	-0.000836149	  -21.5455	-0.0008135	  -21.5455	  -20.3375	
  -21.5691	-0.000811064	  -21.4251	-0.000794151	  -21.4449	-0.000836212	  -21.4797	-0.000813809	  -21.4797	  -20.3452	
  -21.5025	-0.000811821	  -21.3588	-0.000794108	  -21.3779	-0.000836196	  -21.4131	-0.000814042	  -21.4131	   -20.351	
  -21.4348	-0.000812557	  -21.2917	-0.000794033	  -21.3102	-0.000836228	  -21.3456	-0.000814273	  -21.3456	  -20.3568	
  -21.3665	-0.000813282	  -21.2241	-0.000794055	  -21.2416	-0.000836295	  -21.2774	-0.000814544	  -21.2774	  -20.3636	
   -21.297	-0.000813999	  -21.1567	-0.000793957	  -21.1723	-0.000836298	  -21.2087	-0.000814751	  -21.2087	  -20.3688	
  -21.2263	-0.000814773	  -21.0887	-0.000793847	  -21.1021	-0.000836332	   -21.139	-0.000814984	   -21.139	  -20.3746	
  -21.1548	-0.000815425	  -21.0195	-0.000793786	  -21.0315	-0.000836413	  -21.0686	-0.000815208	  -21.0686	  -20.3802	
  -21.0829	-0.000816141	   -20.949	-0.000793622	  -20.9596	-0.00083645	  -20.9972	-0.000815404	  -20.9972	  -20.3851	
  -21.0097	-0.000816979	  -20.8772	-0.000793457	  -20.8868	-0.000836503	  -20.9246	-0.000815647	  -20.9246	  -20.3912	
  -20.9356	-0.00081764	   -20.805	-0.000793399	  -20.8133	-0.000836596	  -20.8513	-0.000815878	  -20.8513	   -20.397	
  -20.8607	-0.000818219	  -20.7317	-0.00079325	  -20.7388	-0.000836636	  -20.7771	-0.000816035	  -20.7771	  -20.4009	
  -20.7853	-0.00081898	  -20.6573	-0.000793082	  -20.6635	-0.000836659	   -20.702	-0.00081624	   -20.702	   -20.406	
  -20.7094	-0.000819646	   -20.582	-0.000793049	  -20.5879	-0.000836714	  -20.6264	-0.00081647	  -20.6264	  -20.4117	
  -20.6326	-0.000820136	  -20.5058	-0.000792939	  -20.5116	-0.000836749	    -20.55	-0.000816608	    -20.55	  -20.4152	
   -20.555	-0.000820735	  -20.4287	-0.000792815	   -20.434	-0.000836756	  -20.4726	-0.000816769	  -20.4726	  -20.4192	
  -20.4768	-0.000821337	  -20.3505	-0.000792851	  -20.3552	-0.000836719	  -20.3942	-0.000816969	  -20.3942	  -20.4242	
  -20.3977	-0.00082175	  -20.2718	-0.000792835	  -20.2759	-0.000836701	  -20.3151	-0.000817095	  -20.3151	  -20.4274	
  -20.3181	-0.000822231	  -20.1925	-0.000792714	  -20.1956	-0.000836677	  -20.2354	-0.000817208	  -20.2354	  -20.4302	
  -20.2378	-0.000822757	  -20.1122	-0.00079278	  -20.1151	-0.000836617	   -20.155	-0.000817385	   -20.155	  -20.4346	
   -20.157	-0.000823113	  -20.0308	-0.000792868	  -20.0337	-0.000836507	  -20.0738	-0.000817496	  -20.0738	  -20.4374	
  -20.0751	-0.000823486	  -19.9486	-0.00079282	  -19.9519	-0.000836437	  -19.9919	-0.000817581	  -19.9919	  -20.4395	
  -19.9925	-0.000823919	  -19.8656	-0.000792862	  -19.8694	-0.000836331	  -19.9092	-0.000817704	  -19.9092	  -20.4426	
  -19.9089	-0.000824212	  -19.7816	-0.000792966	  -19.7862	-0.000836108	  -19.8256	-0.000817762	  -19.8256	  -20.4441	
  -19.8245	-0.000824491	   -19.697	-0.00079293	  -19.7024	-0.000835987	  -19.7413	-0.000817803	  -19.7413	  -20.4451	
  -19.7395	-0.000824839	  -19.6118	-0.000792925	  -19.6179	-0.000835891	  -19.6564	-0.000817885	  -19.6564	  -20.4471	
  -19.6539	-0.000825069	  -19.5265	-0.000792983	  -19.5324	-0.000835646	  -19.5709	-0.0008179	  -19.5709	  -20.4475	
  -19.5676	-0.00082527	  -19.4406	-0.000792914	  -19.4458	-0.000835447	  -19.4847	-0.000817877	  -19.4847	  -20.4469	
  -19.4809	-0.000825531	  -19.3536	-0.000792831	  -19.3587	-0.000835303	  -19.3977	-0.000817889	  -19.3977	  -20.4472	
  -19.3936	-0.00082568	  -19.2655	-0.000792811	  -19.2708	-0.000835037	    -19.31	-0.000817843	    -19.31	  -20.4461	
  -19.3057	-0.00082577	   -19.177	-0.000792686	  -19.1819	-0.00083476	  -19.2215	-0.000817739	  -19.2215	  -20.4435	
  -19.2172	-0.000825899	  -19.0873	-0.000792525	  -19.0921	-0.000834553	  -19.1322	-0.000817659	  -19.1322	  -20.4415	
  -19.1279	-0.000825911	   -18.997	-0.000792411	  -19.0016	-0.000834258	  -19.0421	-0.000817527	  -19.0421	  -20.4382	
  -19.0371	-0.000825826	  -18.9059	-0.000792222	  -18.9103	-0.000833924	  -18.9511	-0.000817324	  -18.9511	  -20.4331	
  -18.9456	-0.0008258	  -18.8138	-0.000791989	  -18.8181	-0.000833646	  -18.8592	-0.000817145	  -18.8592	  -20.4286	
   -18.853	-0.000825671	  -18.7209	-0.000791779	  -18.7255	-0.000833361	  -18.7665	-0.000816937	  -18.7665	  -20.4234	
  -18.7592	-0.000825397	  -18.6272	-0.000791533	   -18.632	-0.000832994	  -18.6728	-0.000816641	  -18.6728	   -20.416	
  -18.6649	-0.000825178	   -18.533	-0.000791258	   -18.538	-0.000832608	  -18.5786	-0.000816348	  -18.5786	  -20.4087	
    -18.57	-0.00082491	  -18.4384	-0.000791021	  -18.4436	-0.00083225	   -18.484	-0.00081606	   -18.484	  -20.4015	
  -18.4743	-0.00082449	  -18.3435	-0.000790738	  -18.3486	-0.000831846	  -18.3888	-0.000815691	  -18.3888	  -20.3923	
  -18.3776	-0.000824076	  -18.2481	-0.000790438	  -18.2527	-0.000831375	  -18.2928	-0.000815296	  -18.2928	  -20.3824	
  -18.2805	-0.000823665	   -18.152	-0.000790174	  -18.1561	-0.000830923	  -18.1962	-0.000814921	  -18.1962	   -20.373	
  -18.1826	-0.000823104	  -18.0552	-0.000789879	  -18.0589	-0.000830468	  -18.0989	-0.000814484	  -18.0989	  -20.3621	
  -18.0842	-0.000822526	  -17.9581	-0.00078956	  -17.9611	-0.000829975	  -18.0011	-0.00081402	  -18.0011	  -20.3505	
  -17.9852	-0.000821957	  -17.8599	-0.000789271	  -17.8623	-0.000829474	  -17.9025	-0.000813567	  -17.9025	  -20.3392	
  -17.8853	-0.000821267	  -17.7607	-0.000788956	  -17.7626	-0.000828967	  -17.8029	-0.000813063	  -17.8029	  -20.3266	
  -17.7844	-0.000820556	   -17.661	-0.000788617	  -17.6622	-0.000828315	  -17.7025	-0.000812496	  -17.7025	  -20.3124	
  -17.6826	-0.000819866	  -17.5605	-0.000788276	  -17.5609	-0.000827735	  -17.6014	-0.000811959	  -17.6014	   -20.299	
  -17.5802	-0.000819081	  -17.4593	-0.000787873	  -17.4587	-0.000827278	  -17.4994	-0.000811411	  -17.4994	  -20.2853	
  -17.4771	-0.000818216	  -17.3571	-0.000787475	   -17.356	-0.000826695	  -17.3967	-0.000810796	  -17.3967	  -20.2699	
  -17.3729	-0.000817381	  -17.2545	-0.000787047	  -17.2528	-0.000826075	  -17.2934	-0.000810168	  -17.2934	  -20.2542	
  -17.2677	-0.000816532	  -17.1514	-0.000786601	  -17.1485	-0.000825547	  -17.1892	-0.00080956	  -17.1892	   -20.239	
  -17.1615	-0.00081556	  -17.0472	-0.000786166	  -17.0433	-0.000824944	   -17.084	-0.00080889	   -17.084	  -20.2223	
  -17.0565	-0.000814703	  -16.9421	-0.000785666	  -16.9376	-0.000824264	  -16.9787	-0.000808211	  -16.9787	  -20.2053	
  -16.9505	-0.000813761	  -16.8363	-0.000785114	  -16.8313	-0.000823655	  -16.8727	-0.00080751	  -16.8727	  -20.1878	
  -16.8431	-0.000812629	  -16.7299	-0.000784621	  -16.7243	-0.000822999	  -16.7658	-0.00080675	  -16.7658	  -20.1687	
  -16.7353	-0.000811611	  -16.6232	-0.000784082	  -16.6166	-0.000822254	  -16.6584	-0.000805982	  -16.6584	  -20.1496	
  -16.6268	-0.000810623	  -16.5157	-0.000783467	  -16.5083	-0.000821571	  -16.5503	-0.00080522	  -16.5503	  -20.1305	
  -16.5174	-0.000809386	  -16.4077	-0.000782878	   -16.399	-0.000820877	  -16.4414	-0.00080438	  -16.4414	  -20.1095	
  -16.4073	-0.00080827	  -16.2989	-0.000782272	  -16.2888	-0.000820114	  -16.3316	-0.000803552	  -16.3316	  -20.0888	
  -16.2968	-0.000807246	   -16.189	-0.000781575	   -16.178	-0.000819391	  -16.2213	-0.000802737	  -16.2213	  -20.0684	
  -16.1857	-0.000805924	  -16.0784	-0.000780884	  -16.0663	-0.000818684	  -16.1101	-0.000801831	  -16.1101	  -20.0458	
  -16.0741	-0.000804598	  -15.9672	-0.00078018	  -15.9538	-0.000817906	  -15.9983	-0.000800895	  -15.9983	  -20.0224	
  -15.9618	-0.000803455	  -15.8552	-0.00077939	  -15.8405	-0.000817146	  -15.8859	-0.000799997	  -15.8859	  -19.9999	
  -15.8489	-0.000802123	  -15.7424	-0.00077858	  -15.7265	-0.000816444	  -15.7726	-0.000799049	  -15.7726	  -19.9762	
  -15.7349	-0.00080064	  -15.6288	-0.000777761	  -15.6119	-0.000815698	  -15.6585	-0.000798033	  -15.6585	  -19.9508	
  -15.6204	-0.000799411	  -15.5145	-0.000776866	  -15.4965	-0.000814869	  -15.5438	-0.000797049	  -15.5438	  -19.9262	
   -15.505	-0.000798133	  -15.3997	-0.000775942	   -15.381	-0.000814129	  -15.4286	-0.000796068	  -15.4286	  -19.9017	
  -15.3889	-0.00079664	  -15.2843	-0.000775015	   -15.265	-0.000813398	  -15.3127	-0.000795017	  -15.3127	  -19.8754	
  -15.2722	-0.000795331	  -15.1685	-0.000774021	  -15.1483	-0.000812574	  -15.1964	-0.000793975	  -15.1964	  -19.8494	
  -15.1552	-0.000794044	  -15.0518	-0.000772997	  -15.0309	-0.0008118	  -15.0793	-0.000792947	  -15.0793	  -19.8237	
  -15.0376	-0.000792554	  -14.9344	-0.000771974	  -14.9126	-0.00081105	  -14.9615	-0.00079186	  -14.9615	  -19.7965	
  -14.9192	-0.000791176	  -14.8164	-0.0007709	  -14.7935	-0.000810205	   -14.843	-0.00079076	   -14.843	   -19.769	
  -14.7997	-0.00078988	  -14.6976	-0.000769786	  -14.6739	-0.000809389	  -14.7237	-0.000789685	  -14.7237	  -19.7421	
  -14.6795	-0.000788407	  -14.5782	-0.000768662	   -14.554	-0.000808616	  -14.6039	-0.000788562	  -14.6039	   -19.714	
  -14.5586	-0.000786977	  -14.4582	-0.00076751	  -14.4335	-0.000807748	  -14.4834	-0.000787412	  -14.4834	  -19.6853	
  -14.4366	-0.00078565	  -14.3378	-0.000766384	  -14.3129	-0.000806857	  -14.3625	-0.000786297	  -14.3625	  -19.6574	
  -14.3138	-0.000784184	  -14.2169	-0.000765209	  -14.1915	-0.000806062	  -14.2407	-0.000785152	  -14.2407	  -19.6288	
  -14.1909	-0.000782721	   -14.095	-0.000763935	  -14.0694	-0.000805188	  -14.1184	-0.000783948	  -14.1184	  -19.5987	
  -14.0673	-0.000781359	  -13.9725	-0.00076272	  -13.9468	-0.000804245	  -13.9955	-0.000782775	  -13.9955	  -19.5694	
  -13.9434	-0.000779897	  -13.8496	-0.000761474	   -13.824	-0.000803354	  -13.8723	-0.000781575	  -13.8723	  -19.5394	
  -13.8192	-0.000778385	  -13.7265	-0.000760139	  -13.7006	-0.00080245	  -13.7487	-0.000780325	  -13.7487	  -19.5081	
  -13.6944	-0.000776975	  -13.6026	-0.000758822	  -13.5767	-0.000801465	  -13.6246	-0.000779088	  -13.6246	  -19.4772	
  -13.5687	-0.000775542	  -13.4783	-0.000757498	  -13.4519	-0.000800497	  -13.4996	-0.000777845	  -13.4996	  -19.4461	
   -13.442	-0.000773968	  -13.3534	-0.000756092	  -13.3265	-0.000799519	   -13.374	-0.000776526	   -13.374	  -19.4132	
  -13.3145	-0.000772466	  -13.2277	-0.000754692	  -13.2001	-0.000798468	  -13.2474	-0.000775209	  -13.2474	  -19.3802	
  -13.1864	 -0.000771	  -13.1016	-0.000753294	  -13.0734	-0.000797418	  -13.1205	-0.000773904	  -13.1205	  -19.3476	
  -13.0578	-0.000769443	  -12.9753	-0.000751829	  -12.9463	-0.000796378	  -12.9931	-0.00077255	  -12.9931	  -19.3138	
  -12.9285	-0.000767927	  -12.8485	-0.00075036	  -12.8186	-0.000795215	  -12.8652	-0.000771168	  -12.8652	  -19.2792	
  -12.7988	-0.000766373	  -12.7207	-0.000748896	    -12.69	-0.000794043	  -12.7365	-0.000769771	  -12.7365	  -19.2443	
  -12.6686	-0.000764744	  -12.5922	-0.000747374	  -12.5608	-0.000792896	  -12.6072	-0.000768338	  -12.6072	  -19.2085	
   -12.538	-0.000763214	   -12.463	-0.000745856	   -12.431	-0.00079167	  -12.4773	-0.000766913	  -12.4773	  -19.1728	
  -12.4069	-0.000761643	  -12.3332	-0.000744283	  -12.3005	-0.000790381	  -12.3469	-0.000765436	  -12.3469	  -19.1359	
  -12.2754	-0.000759976	  -12.2031	-0.000742696	  -12.1696	-0.000789126	   -12.216	-0.000763933	   -12.216	  -19.0983	
  -12.1432	-0.000758373	  -12.0726	-0.00074114	  -12.0382	-0.000787799	  -12.0847	-0.000762437	  -12.0847	  -19.0609	
  -12.0103	-0.000756769	  -11.9415	-0.000739505	  -11.9065	-0.000786396	  -11.9528	-0.00076089	  -11.9528	  -19.0223	
   -11.877	-0.000755063	    -11.81	-0.000737806	  -11.7741	-0.000785037	  -11.8204	-0.000759302	  -11.8204	  -18.9825	
  -11.7432	-0.000753397	  -11.6778	-0.00073617	  -11.6408	-0.000783613	  -11.6873	-0.000757727	  -11.6873	  -18.9432	
  -11.6088	-0.000751752	  -11.5452	-0.000734475	  -11.5072	-0.000782061	  -11.5537	-0.000756096	  -11.5537	  -18.9024	
   -11.474	-0.000750001	  -11.4117	-0.000732714	  -11.3728	-0.000780552	  -11.4195	-0.000754423	  -11.4195	  -18.8606	
  -11.3389	-0.000748266	  -11.2779	-0.000730999	  -11.2381	-0.000779035	   -11.285	-0.000752767	   -11.285	  -18.8192	
  -11.2039	-0.000746576	   -11.144	-0.000729271	  -11.1029	-0.000777377	  -11.1503	-0.000751075	  -11.1503	  -18.7769	
  -11.0688	-0.000744825	  -11.0096	-0.000727489	  -10.9676	-0.000775692	  -11.0153	-0.000749335	  -11.0153	  -18.7334	
  -10.9325	-0.000743036	  -10.8746	-0.000725721	  -10.8322	-0.000774012	  -10.8798	-0.00074759	  -10.8798	  -18.6897	
  -10.7953	-0.000741247	  -10.7392	-0.000723946	   -10.696	-0.000772231	  -10.7435	-0.000745808	  -10.7435	  -18.6452	
  -10.6573	-0.000739451	  -10.6031	-0.000722091	  -10.5591	-0.000770387	  -10.6065	-0.000743977	  -10.6065	  -18.5994	
  -10.5192	-0.000737636	  -10.4666	-0.000720242	  -10.4218	-0.00076854	  -10.4692	-0.00074214	  -10.4692	  -18.5535	
  -10.3807	-0.000735824	  -10.3301	-0.000718386	  -10.2845	-0.000766673	  -10.3317	-0.000740295	  -10.3317	  -18.5074	
  -10.2413	-0.000733928	  -10.1931	-0.000716557	  -10.1469	-0.000764736	  -10.1938	-0.000738407	  -10.1938	  -18.4602	
  -10.1014	-0.000732014	  -10.0556	-0.000714705	   -10.009	-0.000762782	  -10.0553	-0.0007365	  -10.0553	  -18.4125	
   -9.9613	-0.000730164	  -9.91736	-0.000712848	  -9.87053	-0.000760806	   -9.9164	-0.000734606	   -9.9164	  -18.3651	
  -9.82132	-0.000728274	  -9.77918	-0.000711047	  -9.72992	-0.000758778	  -9.77681	-0.0007327	  -9.77681	  -18.3175	
  -9.68058	-0.000726276	  -9.64044	-0.000709113	  -9.58984	-0.000756686	  -9.63695	-0.000730692	  -9.63695	  -18.2673	
  -9.53936	-0.000724266	  -9.50114	-0.000707169	  -9.45065	-0.000754731	  -9.49705	-0.000728722	  -9.49705	  -18.2181	
  -9.39752	-0.000722249	  -9.36124	-0.000705282	  -9.31036	-0.000752787	  -9.35637	-0.000726773	  -9.35637	  -18.1693	
  -9.25489	-0.000720179	  -9.22085	-0.000703267	  -9.16929	-0.000750711	  -9.21501	-0.000724719	  -9.21501	   -18.118	
  -9.11204	-0.000718074	  -9.07972	-0.00070124	   -9.0276	-0.000748722	  -9.07312	-0.000722679	  -9.07312	   -18.067	
  -8.96897	-0.000715939	  -8.93799	-0.000699248	  -8.88584	-0.000746681	  -8.93094	-0.000720622	  -8.93094	  -18.0156	
  -8.82546	-0.000713753	  -8.79613	-0.000697117	  -8.74364	-0.000744558	  -8.78841	-0.000718476	  -8.78841	  -17.9619	
  -8.68191	-0.000711567	  -8.65402	-0.000694972	  -8.60104	-0.000742569	  -8.64566	-0.00071637	  -8.64566	  -17.9092	
  -8.53765	-0.00070937	  -8.51164	-0.000692848	  -8.45786	-0.000740427	  -8.50238	-0.000714215	  -8.50238	  -17.8554	
  -8.39329	-0.000707107	  -8.36878	-0.000690551	  -8.31446	-0.000738194	  -8.35884	-0.000711951	  -8.35884	  -17.7988	
  -8.24858	-0.000704843	  -8.22547	-0.00068819	    -8.171	-0.000736056	  -8.21502	-0.000709697	  -8.21502	  -17.7424	
  -8.10354	-0.000702589	  -8.08144	-0.000685859	  -8.02718	-0.000733859	  -8.07072	-0.000707435	  -8.07072	  -17.6859	
  -7.95834	-0.00070027	  -7.93731	-0.000683403	  -7.88318	-0.00073151	  -7.92628	-0.000705061	  -7.92628	  -17.6265	
  -7.81313	-0.000697954	  -7.79283	-0.000680873	  -7.73891	-0.000729241	  -7.78162	-0.000702689	  -7.78162	  -17.5672	
  -7.66737	-0.000695659	  -7.64815	-0.000678393	  -7.59407	-0.000726921	  -7.63653	-0.000700324	  -7.63653	  -17.5081	
  -7.52126	-0.000693303	  -7.50291	-0.000675849	   -7.4494	-0.000724445	  -7.49119	-0.000697866	  -7.49119	  -17.4466	
  -7.37529	-0.000690928	  -7.35746	-0.000673243	  -7.30426	-0.000722008	  -7.34567	-0.000695393	  -7.34567	  -17.3848	
  -7.22915	-0.000688581	  -7.21177	-0.00067066	  -7.15893	-0.00071956	  -7.19995	-0.000692934	  -7.19995	  -17.3233	
  -7.08258	-0.000686183	   -7.0655	-0.000668046	  -7.01357	-0.00071696	  -7.05388	-0.000690397	  -7.05388	  -17.2599	
  -6.93566	-0.000683751	  -6.91926	-0.000665416	  -6.86836	-0.000714362	  -6.90776	-0.000687843	  -6.90776	  -17.1961	
  -6.78866	-0.000681339	    -6.773	-0.000662836	  -6.72324	-0.000711777	  -6.76163	-0.000685317	  -6.76163	  -17.1329	
  -6.64121	-0.000678886	   -6.6266	-0.000660217	  -6.57807	-0.00070906	  -6.61529	-0.000682721	  -6.61529	   -17.068	
   -6.4938	-0.000676393	  -6.47999	-0.000657574	  -6.43292	-0.00070633	   -6.4689	-0.000680099	   -6.4689	  -17.0025	
    -6.346	-0.000673907	  -6.33316	-0.000654967	   -6.2876	-0.000703629	  -6.32225	-0.000677501	  -6.32225	  -16.9375	
  -6.19772	-0.000671401	  -6.18613	-0.000652352	  -6.14213	-0.00070081	  -6.17533	-0.000674854	  -6.17533	  -16.8714	
  -6.04822	-0.000668819	  -6.03857	-0.000649742	  -5.99645	-0.000697971	  -6.02775	-0.000672178	  -6.02775	  -16.8044	
   -5.8979	-0.000666108	  -5.89103	-0.000647104	  -5.85053	-0.000695174	  -5.87982	-0.000669462	  -5.87982	  -16.7365	
  -5.74991	-0.000663509	  -5.74324	-0.000644417	  -5.70426	-0.000692289	  -5.73247	-0.000666738	  -5.73247	  -16.6685	
  -5.60172	-0.000660939	  -5.59517	-0.000641763	  -5.55788	-0.000689365	  -5.58492	-0.000664022	  -5.58492	  -16.6006	
  -5.45238	-0.000658159	  -5.44682	-0.000639075	  -5.41095	-0.000686486	  -5.43672	-0.00066124	  -5.43672	   -16.531	
  -5.30276	-0.000655281	  -5.29802	-0.000636326	  -5.26361	-0.000683547	  -5.28813	-0.000658384	  -5.28813	  -16.4596	
  -5.15304	-0.000652569	  -5.14877	-0.000633587	  -5.11558	-0.000680602	  -5.13913	-0.000655586	  -5.13913	  -16.3897	
  -5.00314	-0.000649753	  -4.99963	-0.000630852	  -4.96754	-0.000677624	   -4.9901	-0.000652743	   -4.9901	  -16.3186	
  -4.85305	-0.000646785	  -4.85004	-0.00062803	  -4.81966	-0.000674583	  -4.84092	-0.0006498	  -4.84092	   -16.245	
  -4.70271	-0.000643923	  -4.70036	-0.000625174	  -4.67129	-0.000671585	  -4.69145	-0.000646894	  -4.69145	  -16.1723	
   -4.5523	-0.000641053	  -4.55025	-0.000622316	  -4.52249	-0.000668587	  -4.54168	-0.000643985	  -4.54168	  -16.0996	
   -4.4014	-0.000638048	  -4.39956	-0.000619389	  -4.37339	-0.000665486	  -4.39145	-0.000640974	  -4.39145	  -16.0244	
  -4.25052	-0.000635115	  -4.24906	-0.000616423	  -4.22383	-0.000662429	  -4.24114	-0.000637989	  -4.24114	  -15.9497	
  -4.09916	-0.000632221	  -4.09839	-0.000613446	  -4.07397	-0.0006594	  -4.09051	-0.000635022	  -4.09051	  -15.8756	
   -3.9479	-0.000629211	  -3.94796	-0.000610411	  -3.92398	-0.00065627	  -3.93994	-0.000631964	  -3.93994	  -15.7991	
  -3.79611	-0.000626218	  -3.79751	-0.000607357	  -3.77377	-0.00065315	  -3.78913	-0.000628908	  -3.78913	  -15.7227	
  -3.64426	-0.000623273	  -3.64681	-0.000604358	  -3.62339	-0.000650157	  -3.63815	-0.000625929	  -3.63815	  -15.6482	
