# User: ACHyster
# File name: C:/ACHYSTER/ACHyster SENS/SHAMS/CoFe2O4-1gl-water-80 Glycerol-Sens-08-03-2023/CoFe2O4-1gl-water-80 Glycerol- 10_100F-24 kAm -Sens-08-03-20230007#1.txt
# Saved at: mi. mar. 8 16:34:17 2023
# Hyster Loop (3 iterations). Intensity: 24.0 kA/m; Tuned frequency: 101.8 kHz
# Units x axis: (kA/m)
# Units y axis: "Repeats y" & "Average y" (10^(-3)Am^2); "Mass avg y" (Am^2/kg)
# Magnetic mass: 4e-05 g
# Parameter      	Repeat   1	Repeat   2	Repeat   3	Average   	Sigma     
# H_C (kA/m)     	      14.5	      16.8	      13.4	      14.9	       1.4
# M_R (Am^2/kg)  	       7.2	       9.1	       6.9	       7.7	       1.0
# M_max (Am^2/kg)	       9.5	       9.2	      10.2	       9.6	       0.4
# Area (mJ/kg)   	     620.4	     803.0	     595.4	     672.9	      92.5
# SAR (W/g)      	      63.2	      81.8	      60.6	      68.5	       9.4
#Repeat 1 x	Repeat 1 y	Repeat 2 x	Repeat 2 y	Repeat 3 x	Repeat 3 y	Average x 	Average y 	Mass avg x 	Mass avg y 
  -3.72486	-0.000328197	  -3.73597	-0.00040574	   -3.7719	-0.000323788	  -3.74424	-0.000352575	  -3.74424	  -8.81438	
  -3.57412	-0.000326666	  -3.58765	-0.000404309	  -3.62549	-0.000322315	  -3.59576	-0.000351097	  -3.59576	  -8.77741	
  -3.42388	-0.000325103	  -3.43946	-0.00040287	  -3.47846	-0.000320802	  -3.44727	-0.000349592	  -3.44727	  -8.73979	
  -3.27262	-0.000323534	  -3.29063	-0.000401441	  -3.33131	-0.000319207	  -3.29819	-0.000348061	  -3.29819	  -8.70152	
  -3.12186	-0.000321959	  -3.14238	-0.000400028	  -3.18401	-0.000317524	  -3.14942	-0.000346504	  -3.14942	  -8.66259	
   -2.9725	-0.000320399	  -2.99441	-0.000398641	  -3.03679	-0.000315765	  -3.00124	-0.000344935	  -3.00124	  -8.62337	
  -2.82344	-0.000318881	  -2.84691	-0.000397278	  -2.88889	-0.000313926	  -2.85308	-0.000343362	  -2.85308	  -8.58404	
  -2.67294	-0.000317396	  -2.69908	-0.000395925	   -2.7413	-0.000312003	  -2.70444	-0.000341775	  -2.70444	  -8.54437	
  -2.52303	-0.000315934	  -2.55069	-0.000394566	  -2.59372	-0.000310024	  -2.55581	-0.000340175	  -2.55581	  -8.50437	
  -2.37388	-0.000314501	   -2.4027	-0.000393191	  -2.44587	-0.000307991	  -2.40749	-0.000338561	  -2.40749	  -8.46403	
  -2.22468	-0.000313082	  -2.25579	-0.00039178	  -2.29896	-0.000305904	  -2.25981	-0.000336922	  -2.25981	  -8.42306	
  -2.07469	-0.000311654	  -2.10816	-0.000390311	  -2.15216	-0.000303811	  -2.11167	-0.000335259	  -2.11167	  -8.38147	
  -1.92491	-0.000310213	   -1.9603	-0.000388783	  -2.00494	-0.000301742	  -1.96338	-0.000333579	  -1.96338	  -8.33949	
  -1.77578	-0.000308741	  -1.81221	-0.000387197	  -1.85731	-0.000299695	   -1.8151	-0.000331878	   -1.8151	  -8.29695	
  -1.62626	-0.000307222	  -1.66341	-0.000385542	  -1.70952	-0.000297689	  -1.66639	-0.000330151	  -1.66639	  -8.25377	
  -1.47588	-0.000305648	  -1.51487	-0.000383827	   -1.5613	-0.00029574	  -1.51735	-0.000328405	  -1.51735	  -8.21013	
  -1.32468	-0.000304017	  -1.36584	-0.000382072	  -1.41241	-0.000293855	  -1.36764	-0.000326648	  -1.36764	  -8.16619	
  -1.17368	-0.000302327	  -1.21656	-0.000380286	  -1.26217	-0.000292002	  -1.21747	-0.000324872	  -1.21747	   -8.1218	
  -1.02139	-0.000300578	  -1.06703	-0.000378477	  -1.11235	-0.000290171	  -1.06692	-0.000323075	  -1.06692	  -8.07688	
 -0.868378	-0.000298782	 -0.917725	-0.00037666	  -0.96192	-0.000288348	 -0.916008	-0.000321264	 -0.916008	  -8.03159	
 -0.715172	-0.000296946	 -0.768126	-0.000374851	 -0.810192	-0.000286473	 -0.764497	-0.000319423	 -0.764497	  -7.98559	
 -0.562253	-0.000295074	 -0.618229	-0.000373049	 -0.658207	-0.000284528	 -0.612896	-0.00031755	 -0.612896	  -7.93875	
 -0.409589	-0.000293191	 -0.468038	-0.00037125	 -0.505008	-0.000282506	 -0.460879	-0.000315649	 -0.460879	  -7.89123	
 -0.255944	-0.000291305	 -0.317794	-0.000369465	 -0.351882	-0.000280385	  -0.30854	-0.000313718	  -0.30854	  -7.84295	
 -0.102582	-0.000289419	 -0.167237	-0.000367683	 -0.198567	-0.000278157	 -0.156129	-0.000311753	 -0.156129	  -7.79382	
 0.0493271	-0.000287537	-0.0161323	-0.000365891	 -0.045547	-0.000275838	-0.00411739	-0.000309755	-0.00411739	  -7.74389	
  0.201598	-0.000285662	  0.134297	-0.000364087	  0.107694	-0.000273458	  0.147863	-0.000307736	  0.147863	   -7.6934	
  0.353737	-0.000283789	  0.285804	-0.000362259	   0.26187	-0.000271034	   0.30047	-0.000305694	   0.30047	  -7.64235	
  0.505767	-0.000281907	    0.4376	-0.000360395	   0.41572	-0.000268593	  0.453029	-0.000303632	  0.453029	  -7.59079	
  0.657473	-0.000280014	  0.589441	-0.000358489	  0.568075	-0.000266177	  0.604996	-0.00030156	  0.604996	    -7.539	
  0.809141	-0.0002781	  0.740858	-0.000356544	  0.721469	-0.000263806	  0.757156	-0.000299483	  0.757156	  -7.48709	
  0.961269	-0.000276154	  0.891664	-0.000354557	  0.874636	-0.000261481	   0.90919	-0.000297397	   0.90919	  -7.43493	
    1.1124	-0.000274173	   1.04265	-0.000352528	   1.02712	-0.000259208	   1.06072	-0.000295303	   1.06072	  -7.38257	
   1.26358	-0.000272149	   1.19357	-0.000350465	   1.17804	-0.000256974	   1.21173	-0.000293196	   1.21173	   -7.3299	
   1.41436	-0.000270079	   1.34518	-0.000348387	   1.32896	-0.000254752	   1.36284	-0.000291073	   1.36284	  -7.27682	
   1.56478	-0.000267969	   1.49576	-0.000346343	    1.4804	-0.000252522	   1.51365	-0.000288945	   1.51365	  -7.22363	
   1.71537	-0.00026582	   1.64613	-0.000344327	   1.63089	-0.000250266	   1.66413	-0.000286805	   1.66413	  -7.17011	
   1.86567	-0.000263638	   1.79657	-0.000342328	   1.78099	-0.000247962	   1.81441	-0.000284643	   1.81441	  -7.11607	
   2.01522	-0.000261428	   1.94661	-0.000340337	   1.93222	-0.000245587	   1.96468	-0.000282451	   1.96468	  -7.06127	
    2.1646	-0.000259201	    2.0968	-0.000338335	   2.08256	-0.000243143	   2.11465	-0.000280226	   2.11465	  -7.00566	
   2.31385	-0.000256963	    2.2464	-0.000336306	   2.23309	-0.000240636	   2.26445	-0.000277968	   2.26445	  -6.94921	
   2.46323	-0.000254715	   2.39575	-0.00033421	   2.38404	-0.000238071	   2.41434	-0.000275665	   2.41434	  -6.89164	
   2.61204	-0.000252467	   2.54536	-0.000332036	   2.53564	-0.000235472	   2.56434	-0.000273325	   2.56434	  -6.83312	
   2.76083	-0.000250216	   2.69451	-0.000329785	   2.68737	-0.000232857	   2.71424	-0.000270953	   2.71424	  -6.77381	
   2.90915	-0.000247957	   2.84398	-0.000327457	   2.83877	-0.000230249	   2.86397	-0.000268554	   2.86397	  -6.71386	
   3.05803	-0.00024569	   2.99282	-0.000325068	   2.99011	-0.00022766	   3.01365	-0.000266139	   3.01365	  -6.65348	
   3.20648	-0.000243407	   3.14206	-0.000322631	   3.14118	-0.000225099	   3.16324	-0.000263712	   3.16324	   -6.5928	
   3.35529	-0.000241104	   3.29121	-0.00032016	   3.29274	-0.000222565	   3.31308	-0.000261277	   3.31308	  -6.53192	
   3.50373	-0.000238775	   3.44031	-0.000317687	   3.44357	-0.000220056	   3.46254	-0.000258839	   3.46254	  -6.47098	
   3.65162	-0.000236417	   3.58913	-0.000315248	   3.59326	-0.000217569	   3.61134	-0.000256411	   3.61134	  -6.41028	
   3.79974	-0.00023403	   3.73702	-0.000312862	   3.74336	-0.000215091	   3.76004	-0.000253994	   3.76004	  -6.34985	
   3.94788	-0.000231609	   3.88455	-0.00031053	   3.89363	-0.0002126	   3.90869	-0.00025158	   3.90869	  -6.28949	
   4.09557	-0.00022916	   4.03274	-0.00030825	    4.0436	-0.000210086	    4.0573	-0.000249165	    4.0573	  -6.22913	
   4.24313	-0.000226684	    4.1806	-0.000306015	   4.19258	-0.000207532	   4.20544	-0.000246744	   4.20544	   -6.1686	
   4.39083	-0.000224183	    4.3282	-0.000303802	   4.34117	-0.000204927	    4.3534	-0.000244304	    4.3534	  -6.10759	
   4.53796	-0.000221662	    4.4751	-0.000301585	   4.48989	-0.000202269	   4.50098	-0.000241839	   4.50098	  -6.04597	
   4.68509	-0.000219124	   4.62235	-0.000299332	   4.63878	-0.000199564	   4.64874	-0.00023934	   4.64874	   -5.9835	
   4.83225	-0.000216575	   4.76947	-0.000297014	   4.78687	-0.000196852	    4.7962	-0.000236814	    4.7962	  -5.92034	
   4.97995	-0.000214012	   4.91602	-0.000294606	   4.93426	-0.000194117	   4.94341	-0.000234245	   4.94341	  -5.85613	
    5.1272	-0.000211437	   5.06208	-0.0002921	   5.08055	-0.000191368	   5.08995	-0.000231635	   5.08995	  -5.79087	
   5.27481	-0.000208854	    5.2082	-0.000289492	   5.22755	-0.00018863	   5.23685	-0.000228992	   5.23685	   -5.7248	
   5.42252	-0.000206259	   5.35394	-0.000286785	   5.37451	-0.000185883	   5.38366	-0.000226309	   5.38366	  -5.65773	
   5.57037	-0.000203654	   5.49887	-0.000283996	   5.52122	-0.000183116	   5.53015	-0.000223588	   5.53015	  -5.58971	
   5.71789	-0.000201033	   5.64333	-0.00028115	   5.66797	-0.000180303	    5.6764	-0.000220829	    5.6764	  -5.52072	
   5.86513	-0.000198397	   5.78813	-0.000278276	   5.81433	-0.000177436	   5.82253	-0.000218036	   5.82253	  -5.45091	
   6.01191	-0.000195745	   5.93303	-0.000275398	   5.95986	-0.000174505	   5.96827	-0.000215216	   5.96827	  -5.38041	
   6.15805	-0.000193073	   6.07783	-0.000272538	   6.10515	-0.000171477	   6.11368	-0.000212363	   6.11368	  -5.30907	
   6.30436	-0.00019038	   6.22256	-0.000269711	   6.25026	-0.000168365	   6.25906	-0.000209485	   6.25906	  -5.23713	
   6.45062	-0.000187667	   6.36728	-0.000266923	   6.39571	-0.000165181	   6.40454	-0.00020659	   6.40454	  -5.16475	
   6.59615	-0.00018493	   6.51178	-0.000264175	   6.54152	-0.000161929	   6.54982	-0.000203678	   6.54982	  -5.09195	
   6.74128	-0.000182174	   6.65636	-0.000261454	   6.68674	-0.000158658	   6.69479	-0.000200762	   6.69479	  -5.01905	
   6.88559	-0.000179395	   6.79985	-0.000258738	   6.83215	-0.000155406	    6.8392	-0.000197846	    6.8392	  -4.94615	
    7.0292	-0.000176593	    6.9431	-0.000256009	   6.97708	-0.000152201	   6.98312	-0.000194934	   6.98312	  -4.87336	
   7.17267	-0.000173774	   7.08665	-0.000253244	   7.12134	-0.00014907	   7.12689	-0.000192029	   7.12689	  -4.80073	
   7.31559	-0.000170937	   7.22932	-0.000250422	   7.26528	-0.000146042	   7.27006	-0.000189134	   7.27006	  -4.72834	
   7.45756	-0.000168086	   7.37194	-0.000247527	   7.40848	-0.000143127	   7.41266	-0.000186247	   7.41266	  -4.65617	
   7.59965	-0.00016522	   7.51504	-0.000244553	   7.55128	-0.000140303	   7.55532	-0.000183359	   7.55532	  -4.58397	
   7.74047	-0.000162338	   7.65767	-0.000241501	   7.69351	-0.000137549	   7.69722	-0.000180463	   7.69722	  -4.51157	
   7.88137	-0.000159442	   7.80063	-0.00023838	   7.83527	-0.000134829	   7.83909	-0.00017755	   7.83909	  -4.43875	
   8.02118	-0.00015653	   7.94369	-0.000235209	   7.97664	-0.000132087	   7.98051	-0.000174609	   7.98051	  -4.36521	
    8.1603	-0.000153604	   8.08618	-0.000232007	   8.11746	-0.000129279	   8.12131	-0.00017163	   8.12131	  -4.29074	
   8.29953	-0.000150661	   8.22842	-0.00022879	   8.25806	-0.000126366	     8.262	-0.000168606	     8.262	  -4.21515	
    8.4387	-0.000147701	   8.36927	-0.000225587	   8.39804	-0.000123322	     8.402	-0.000165537	     8.402	  -4.13842	
   8.57666	-0.000144729	    8.5101	-0.00022241	   8.53797	-0.000120137	   8.54158	-0.000162425	   8.54158	  -4.06063	
   8.71381	-0.000141746	   8.65024	-0.000219265	    8.6779	-0.000116821	   8.68065	-0.000159277	   8.68065	  -3.98193	
   8.85099	-0.000138764	   8.79003	-0.000216154	   8.81743	-0.000113399	   8.81948	-0.000156106	   8.81948	  -3.90264	
   8.98802	-0.000135755	   8.92907	-0.000213071	   8.95614	-0.000109901	   8.95774	-0.000152909	   8.95774	  -3.82272	
   9.12449	-0.000132716	   9.06701	-0.000210005	   9.09439	-0.000106374	    9.0953	-0.000149698	    9.0953	  -3.74246	
   9.26075	-0.000129669	   9.20494	-0.000206937	   9.23254	-0.000102863	   9.23274	-0.00014649	   9.23274	  -3.66224	
   9.39641	-0.000126638	   9.34316	-0.000203841	   9.37015	-9.94057e-05	   9.36991	-0.000143295	   9.36991	  -3.58237	
   9.53254	-0.000123603	   9.48052	-0.000200697	   9.50733	-9.6031e-05	   9.50679	-0.000140111	   9.50679	  -3.50276	
   9.66868	-0.000120573	   9.61809	-0.00019749	   9.64393	-9.27556e-05	   9.64357	-0.00013694	   9.64357	  -3.42349	
   9.80442	-0.000117564	   9.75497	-0.00019421	   9.78031	-8.95729e-05	    9.7799	-0.000133782	    9.7799	  -3.34456	
   9.93937	-0.00011458	   9.89126	-0.000190858	   9.91607	-8.64662e-05	   9.91557	-0.000130635	   9.91557	  -3.26586	
   10.0741	-0.000111613	   10.0271	-0.000187438	   10.0518	-8.341e-05	    10.051	-0.000127487	    10.051	  -3.18717	
   10.2088	-0.000108669	   10.1623	-0.000183966	   10.1868	-8.03708e-05	    10.186	-0.000124335	    10.186	  -3.10838	
   10.3435	-0.000105727	   10.2977	-0.000180463	    10.322	-7.73099e-05	   10.3211	-0.000121167	   10.3211	  -3.02917	
   10.4773	-0.000102764	   10.4332	-0.000176953	   10.4572	-7.41982e-05	   10.4559	-0.000117972	   10.4559	  -2.94929	
   10.6105	-9.97813e-05	   10.5675	-0.000173454	   10.5927	-7.10138e-05	   10.5902	-0.00011475	   10.5902	  -2.86874	
   10.7431	-9.67685e-05	   10.7024	-0.000169982	   10.7275	-6.77394e-05	   10.7243	-0.000111497	   10.7243	  -2.78742	
   10.8758	-9.36944e-05	   10.8375	-0.000166548	   10.8625	-6.43727e-05	   10.8586	-0.000108205	   10.8586	  -2.70512	
   11.0086	-9.05292e-05	   10.9718	-0.000163154	   10.9976	-6.09219e-05	   10.9927	-0.000104868	   10.9927	  -2.62171	
   11.1408	-8.72803e-05	   11.1063	-0.000159797	   11.1327	-5.74074e-05	   11.1266	-0.000101495	   11.1266	  -2.53737	
   11.2732	-8.39582e-05	   11.2401	-0.000156461	    11.267	-5.3859e-05	   11.2601	-9.80929e-05	   11.2601	  -2.45232	
   11.4049	-8.0561e-05	   11.3741	-0.000153132	   11.3999	-5.03093e-05	    11.393	-9.46675e-05	    11.393	  -2.36669	
    11.537	-7.71165e-05	   11.5076	-0.000149798	   11.5319	-4.67903e-05	   11.5255	-9.12349e-05	   11.5255	  -2.28087	
   11.6683	-7.36559e-05	   11.6412	-0.000146445	    11.664	-4.33244e-05	   11.6578	-8.78083e-05	   11.6578	  -2.19521	
   11.7998	-7.01968e-05	   11.7744	-0.000143055	   11.7953	-3.99259e-05	   11.7898	-8.43927e-05	   11.7898	  -2.10982	
   11.9312	-6.67693e-05	   11.9077	-0.000139614	    11.926	-3.65989e-05	   11.9216	-8.09941e-05	   11.9216	  -2.02485	
   12.0621	-6.33998e-05	   12.0406	-0.000136112	    12.055	-3.33333e-05	   12.0526	-7.76149e-05	   12.0526	  -1.94037	
   12.1924	-6.0089e-05	   12.1725	-0.000132547	   12.1842	-3.01139e-05	    12.183	-7.42498e-05	    12.183	  -1.85625	
   12.3216	-5.68313e-05	    12.304	-0.000128922	   12.3132	-2.69165e-05	   12.3129	-7.08898e-05	   12.3129	  -1.77224	
   12.4505	-5.3621e-05	   12.4352	-0.000125244	   12.4417	-2.37093e-05	   12.4425	-6.75249e-05	   12.4425	  -1.68812	
    12.579	-5.04326e-05	   12.5668	-0.00012153	   12.5707	-2.04635e-05	   12.5722	-6.4142e-05	   12.5722	  -1.60355	
    12.707	-4.72332e-05	   12.6978	-0.000117795	   12.6987	-1.7154e-05	   12.7012	-6.07273e-05	   12.7012	  -1.51818	
   12.8346	-4.39991e-05	   12.8276	-0.000114061	   12.8273	-1.37656e-05	   12.8298	-5.72753e-05	   12.8298	  -1.43188	
   12.9614	-4.07137e-05	   12.9571	-0.000110348	   12.9552	-1.02939e-05	   12.9579	-5.37853e-05	   12.9579	  -1.34463	
   13.0878	-3.73536e-05	   13.0861	-0.000106669	   13.0835	-6.74534e-06	   13.0858	-5.0256e-05	   13.0858	   -1.2564	
   13.2143	-3.39123e-05	   13.2147	-0.000103028	   13.2113	-3.14146e-06	   13.2134	-4.66941e-05	   13.2134	  -1.16735	
   13.3403	-3.04078e-05	   13.3428	-9.94091e-05	   13.3395	4.91284e-07	   13.3409	-4.31085e-05	   13.3409	  -1.07771	
   13.4657	-2.68507e-05	   13.4702	-9.58178e-05	   13.4662	4.12055e-06	   13.4674	-3.9516e-05	   13.4674	   -0.9879	
   13.5904	-2.32607e-05	    13.596	-9.2249e-05	   13.5929	7.70961e-06	   13.5931	-3.59334e-05	   13.5931	 -0.898334	
   13.7145	-1.96714e-05	   13.7218	-8.8687e-05	   13.7181	1.12369e-05	   13.7181	-3.23738e-05	   13.7181	 -0.809346	
   13.8382	-1.61083e-05	   13.8464	-8.5114e-05	   13.8431	1.46888e-05	   13.8426	-2.88445e-05	   13.8426	 -0.721112	
   13.9614	-1.25831e-05	   13.9705	-8.15126e-05	   13.9674	1.8065e-05	   13.9664	-2.53436e-05	   13.9664	 -0.633589	
    14.084	-9.10765e-06	    14.094	-7.78848e-05	   14.0909	2.13814e-05	   14.0896	-2.18703e-05	   14.0896	 -0.546758	
   14.2061	-5.69028e-06	   14.2178	-7.42216e-05	   14.2138	2.46631e-05	   14.2125	-1.84163e-05	   14.2125	 -0.460407	
   14.3284	-2.32419e-06	   14.3413	-7.05186e-05	    14.336	2.79436e-05	   14.3352	-1.49664e-05	   14.3352	  -0.37416	
   14.4494	1.00237e-06	   14.4643	-6.67907e-05	   14.4578	3.12522e-05	   14.4572	-1.1512e-05	   14.4572	 -0.287801	
   14.5701	4.30163e-06	   14.5863	-6.30457e-05	   14.5788	3.46145e-05	   14.5784	-8.04319e-06	   14.5784	  -0.20108	
   14.6896	7.61625e-06	   14.7079	-5.92913e-05	   14.6987	3.80456e-05	   14.6987	-4.54316e-06	   14.6987	 -0.113579	
   14.8083	1.09255e-05	   14.8279	-5.55358e-05	    14.818	4.15464e-05	    14.818	-1.02128e-06	    14.818	-0.0255321	
   14.9262	1.42435e-05	   14.9476	-5.17906e-05	   14.9374	4.51134e-05	   14.9371	2.52209e-06	   14.9371	 0.0630522	
   15.0435	 1.763e-05	   15.0665	-4.80511e-05	   15.0562	4.87283e-05	   15.0554	6.1024e-06	   15.0554	   0.15256	
   15.1603	2.10655e-05	    15.185	-4.43192e-05	   15.1741	5.23786e-05	   15.1731	9.70829e-06	   15.1731	  0.242707	
   15.2766	2.45132e-05	   15.3029	-4.05988e-05	   15.2907	5.60302e-05	   15.2901	1.33148e-05	   15.2901	  0.332871	
   15.3928	2.79977e-05	   15.4201	-3.68878e-05	   15.4063	5.96467e-05	   15.4064	1.69189e-05	   15.4064	  0.422973	
   15.5085	3.15544e-05	   15.5368	-3.31816e-05	   15.5215	6.3202e-05	   15.5223	2.0525e-05	   15.5223	  0.513124	
   15.6234	3.5155e-05	   15.6527	-2.94793e-05	   15.6362	6.66894e-05	   15.6374	2.41217e-05	   15.6374	  0.603042	
   15.7373	3.87903e-05	   15.7682	-2.57737e-05	   15.7505	7.00973e-05	    15.752	2.77046e-05	    15.752	  0.692615	
   15.8502	4.24882e-05	   15.8828	-2.20603e-05	   15.8641	7.34206e-05	   15.8657	3.12828e-05	   15.8657	   0.78207	
   15.9616	4.62539e-05	   15.9971	-1.83328e-05	   15.9775	7.66694e-05	   15.9787	3.48635e-05	   15.9787	  0.871588	
   16.0725	5.00468e-05	   16.1101	-1.4595e-05	   16.0898	7.98702e-05	   16.0908	3.84407e-05	   16.0908	  0.961017	
   16.1838	5.38472e-05	   16.2227	-1.08503e-05	   16.2013	8.30464e-05	   16.2026	4.20144e-05	   16.2026	   1.05036	
   16.2939	5.76283e-05	   16.3349	-7.09424e-06	   16.3126	8.62167e-05	   16.3138	4.55836e-05	   16.3138	   1.13959	
   16.4037	6.13142e-05	   16.4466	-3.33329e-06	   16.4235	8.94184e-05	   16.4246	4.91331e-05	   16.4246	   1.22833	
   16.5126	6.48913e-05	    16.558	4.29483e-07	   16.5342	9.26746e-05	    16.535	5.26651e-05	    16.535	   1.31663	
   16.6206	6.83401e-05	   16.6688	4.19534e-06	   16.6439	9.5995e-05	   16.6444	5.61768e-05	   16.6444	   1.40442	
   16.7279	7.16526e-05	   16.7786	7.95412e-06	   16.7536	9.93891e-05	   16.7534	5.96653e-05	   16.7534	   1.49163	
   16.8352	7.48231e-05	   16.8868	1.17067e-05	   16.8636	0.000102844	   16.8619	6.31245e-05	   16.8619	   1.57811	
   16.9426	7.79056e-05	   16.9943	1.54507e-05	   16.9721	0.000106347	   16.9697	6.65678e-05	   16.9697	   1.66419	
   17.0503	8.09534e-05	   17.1006	1.91816e-05	   17.0795	0.000109871	   17.0768	7.00019e-05	   17.0768	   1.75005	
   17.1574	8.40176e-05	   17.2058	2.28981e-05	    17.187	0.000113389	   17.1834	7.34348e-05	   17.1834	   1.83587	
   17.2645	8.71624e-05	   17.3103	2.65981e-05	   17.2938	0.000116875	   17.2895	7.68786e-05	   17.2895	   1.92196	
   17.3704	9.04345e-05	   17.4142	3.0281e-05	      17.4	0.000120302	   17.3949	8.0339e-05	   17.3949	   2.00848	
   17.4756	9.38823e-05	    17.517	3.39458e-05	   17.5055	0.000123653	   17.4994	8.3827e-05	   17.4994	   2.09568	
   17.5791	9.75146e-05	   17.6198	3.75955e-05	   17.6099	0.000126923	   17.6029	8.73443e-05	   17.6029	   2.18361	
   17.6816	0.000101315	   17.7215	4.12441e-05	   17.7138	0.000130112	   17.7056	9.08902e-05	   17.7056	   2.27226	
   17.7829	0.000105237	   17.8222	4.48654e-05	   17.8166	0.000133237	   17.8072	9.44464e-05	   17.8072	   2.36116	
   17.8834	0.000109214	   17.9221	4.84636e-05	   17.9199	0.000136319	   17.9084	9.79987e-05	   17.9084	   2.44997	
   17.9833	0.00011319	   18.0214	5.20675e-05	   18.0229	0.000139386	   18.0092	0.000101548	   18.0092	   2.53869	
   18.0818	0.00011709	   18.1202	5.56582e-05	    18.125	0.00014246	    18.109	0.00010507	    18.109	   2.62674	
   18.1802	0.000120857	   18.2189	5.92311e-05	   18.2262	0.000145576	   18.2085	0.000108555	   18.2085	   2.71386	
   18.2783	0.00012445	   18.3173	6.28057e-05	   18.3261	0.00014877	   18.3072	0.000112009	   18.3072	   2.80022	
   18.3749	0.000127846	   18.4149	6.63949e-05	    18.426	0.000152044	   18.4053	0.000115428	   18.4053	   2.88571	
   18.4707	0.000131051	   18.5121	6.99935e-05	   18.5247	0.000155376	   18.5025	0.000118807	   18.5025	   2.97017	
   18.5662	0.000134105	   18.6089	7.36047e-05	   18.6228	0.000158782	   18.5993	0.000122164	   18.5993	    3.0541	
   18.6603	0.000137049	   18.7043	7.7242e-05	   18.7202	0.000162231	   18.6949	0.000125507	   18.6949	   3.13769	
   18.7543	0.000139954	   18.7987	8.08949e-05	   18.8166	0.00016567	   18.7899	0.00012884	   18.7899	   3.22099	
   18.8479	0.000142886	   18.8918	8.45576e-05	   18.9123	0.00016906	    18.884	0.000132168	    18.884	   3.30419	
    18.941	0.000145907	   18.9843	8.82431e-05	   19.0073	0.000172371	   18.9775	0.000135507	   18.9775	   3.38768	
   19.0341	0.000149065	   19.0765	9.19323e-05	   19.1021	0.00017557	   19.0709	0.000138856	   19.0709	   3.47139	
   19.1262	0.000152366	   19.1684	9.55983e-05	   19.1963	0.00017864	   19.1636	0.000142202	   19.1636	   3.55504	
   19.2168	0.000155818	   19.2599	9.9235e-05	   19.2893	0.000181594	   19.2553	0.000145549	   19.2553	   3.63872	
   19.3067	0.000159386	   19.3505	0.000102828	   19.3821	0.000184436	   19.3464	0.000148883	   19.3464	   3.72208	
   19.3963	0.000163017	   19.4409	0.000106364	   19.4742	0.000187194	   19.4371	0.000152192	   19.4371	    3.8048	
   19.4858	0.000166669	   19.5296	0.000109832	   19.5646	0.000189927	   19.5267	0.000155476	   19.5267	   3.88691	
   19.5745	0.000170295	   19.6184	0.00011324	   19.6539	0.000192688	   19.6156	0.000158741	   19.6156	   3.96852	
   19.6623	0.00017383	   19.7066	0.000116595	   19.7426	0.000195511	   19.7038	0.000161979	   19.7038	   4.04947	
   19.7495	0.000177217	   19.7943	0.000119889	   19.8299	0.000198432	   19.7912	0.00016518	   19.7912	   4.12949	
   19.8353	0.000180465	    19.881	0.000123126	   19.9166	0.000201475	   19.8776	0.000168355	   19.8776	   4.20888	
    19.921	0.000183561	   19.9675	0.000126345	   20.0016	0.000204633	   19.9634	0.000171513	   19.9634	   4.28783	
   20.0058	0.000186494	   20.0526	0.000129582	   20.0856	0.000207883	    20.048	0.000174653	    20.048	   4.36633	
     20.09	0.000189311	   20.1364	0.000132845	    20.169	0.000211192	   20.1318	0.000177783	   20.1318	   4.44456	
   20.1744	0.000192062	   20.2184	0.000136162	   20.2516	0.000214505	   20.2148	0.00018091	   20.2148	   4.52274	
   20.2577	0.000194797	   20.2996	0.000139557	   20.3346	0.000217767	   20.2973	0.00018404	   20.2973	     4.601	
   20.3405	0.000197571	   20.3804	0.000143036	   20.4162	0.000220942	   20.3791	0.000187183	   20.3791	   4.67957	
   20.4223	0.000200426	   20.4605	0.000146585	    20.496	0.000223991	   20.4596	0.000190334	   20.4596	   4.75835	
   20.5025	0.000203364	    20.539	0.000150185	   20.5749	0.000226891	   20.5388	0.00019348	   20.5388	     4.837	
    20.582	0.00020638	    20.617	0.000153798	   20.6531	0.000229643	   20.6173	0.000196607	   20.6173	   4.91517	
   20.6609	0.000209475	   20.6939	0.000157373	   20.7293	0.000232271	   20.6947	0.000199706	   20.6947	   4.99266	
   20.7397	0.000212612	   20.7703	0.000160884	   20.8046	0.000234807	   20.7715	0.000202768	   20.7715	   5.06919	
   20.8175	0.000215734	   20.8453	0.000164318	   20.8791	0.000237295	   20.8473	0.000205782	   20.8473	   5.14455	
   20.8943	0.000218807	   20.9191	0.000167643	   20.9532	0.00023979	   20.9222	0.000208747	   20.9222	   5.21867	
   20.9698	0.000221806	   20.9912	0.000170836	   21.0256	0.000242336	   20.9955	0.000211659	   20.9955	   5.29148	
   21.0444	0.000224697	   21.0627	0.000173912	   21.0973	0.000244968	   21.0682	0.000214525	   21.0682	   5.36314	
   21.1176	0.000227466	   21.1331	0.00017689	   21.1691	0.000247714	   21.1399	0.000217357	   21.1399	   5.43393	
   21.1912	0.00023012	   21.2028	0.000179792	   21.2394	0.000250579	   21.2112	0.000220164	   21.2112	   5.50409	
    21.264	0.000232653	   21.2721	0.000182651	    21.309	0.000253543	   21.2817	0.000222949	   21.2817	   5.57372	
   21.3354	0.000235079	   21.3404	0.000185506	   21.3768	0.000256572	   21.3509	0.000225719	   21.3509	   5.64298	
   21.4061	0.00023746	   21.4084	0.000188389	   21.4437	0.000259625	   21.4194	0.000228491	   21.4194	   5.71228	
   21.4752	0.000239843	   21.4751	0.000191321	   21.5108	0.000262654	    21.487	0.000231272	    21.487	   5.78181	
   21.5438	0.000242235	   21.5412	0.000194327	   21.5771	0.000265607	    21.554	0.000234056	    21.554	   5.85141	
   21.6106	0.000244683	   21.6065	0.000197409	   21.6432	0.000268447	   21.6201	0.000236846	   21.6201	   5.92115	
   21.6771	0.000247222	   21.6708	0.000200548	   21.7086	0.000271155	   21.6855	0.000239642	   21.6855	   5.99104	
    21.743	0.000249862	   21.7349	0.000203733	   21.7736	0.000273724	   21.7505	0.00024244	   21.7505	   6.06099	
   21.8078	0.000252592	   21.7987	0.000206939	   21.8376	0.000276168	   21.8147	0.000245233	   21.8147	   6.13083	
   21.8717	0.000255386	   21.8611	0.000210131	   21.9008	0.000278514	   21.8779	0.00024801	   21.8779	   6.20025	
   21.9346	0.000258225	    21.922	0.000213282	   21.9638	0.000280799	   21.9401	0.000250768	   21.9401	   6.26921	
   21.9965	0.000261052	   21.9828	0.000216367	   22.0263	0.000283073	   22.0019	0.000253497	   22.0019	   6.33743	
   22.0579	0.000263827	   22.0434	0.000219368	   22.0884	0.00028538	   22.0632	0.000256192	   22.0632	   6.40479	
   22.1181	0.000266514	    22.103	0.000222282	   22.1497	0.000287752	   22.1236	0.000258849	   22.1236	   6.47124	
   22.1768	0.000269071	    22.162	0.000225116	   22.2087	0.000290212	   22.1825	0.000261467	   22.1825	   6.53666	
   22.2346	0.000271493	   22.2204	0.000227883	    22.266	0.000292773	   22.2403	0.00026405	   22.2403	   6.60124	
   22.2922	0.000273771	    22.278	0.000230603	   22.3224	0.000295421	   22.2975	0.000266599	   22.2975	   6.66496	
   22.3492	0.000275927	   22.3351	0.00023331	   22.3778	0.000298128	    22.354	0.000269122	    22.354	   6.72804	
   22.4049	0.000277995	   22.3918	0.00023603	   22.4321	0.00030086	   22.4096	0.000271628	   22.4096	   6.79071	
   22.4593	0.000280011	   22.4474	0.000238777	   22.4857	0.000303572	   22.4641	0.00027412	   22.4641	     6.853	
   22.5123	0.000282037	   22.5016	0.000241571	   22.5389	0.000306219	   22.5176	0.000276609	   22.5176	   6.91523	
   22.5639	0.00028411	   22.5545	0.000244418	   22.5906	0.000308767	   22.5697	0.000279098	   22.5697	   6.97745	
    22.615	0.000286252	    22.606	0.000247311	   22.6418	0.00031119	    22.621	0.000281584	    22.621	   7.03961	
    22.666	0.000288487	   22.6575	0.000250234	    22.693	0.000313479	   22.6721	0.000284067	   22.6721	   7.10167	
   22.7156	0.000290806	   22.7078	0.000253168	   22.7429	0.00031564	   22.7221	0.000286538	   22.7221	   7.16345	
   22.7649	0.000293198	   22.7572	0.00025609	   22.7925	0.000317697	   22.7716	0.000288995	   22.7716	   7.22487	
   22.8133	0.000295628	   22.8053	0.000258971	   22.8412	0.000319686	   22.8199	0.000291428	   22.8199	   7.28571	
   22.8611	0.000298059	   22.8523	0.000261792	   22.8887	0.000321644	   22.8674	0.000293831	   22.8674	   7.34579	
   22.9083	0.000300447	   22.8989	0.000264539	   22.9351	0.000323616	   22.9141	0.000296201	   22.9141	   7.40502	
    22.954	0.000302748	   22.9443	0.000267201	   22.9808	0.000325639	   22.9597	0.00029853	   22.9597	   7.46324	
   22.9989	0.000304929	   22.9886	0.000269786	   23.0249	0.000327737	   23.0041	0.000300817	   23.0041	   7.52043	
    23.043	0.000306967	   23.0322	0.000272305	   23.0683	0.00032992	   23.0479	0.000303064	   23.0479	   7.57659	
   23.0869	0.000308859	   23.0752	0.000274768	   23.1101	0.000332189	   23.0908	0.000305272	   23.0908	    7.6318	
   23.1293	0.000310627	   23.1169	0.000277202	   23.1517	0.000334526	   23.1326	0.000307451	   23.1326	   7.68628	
   23.1706	0.000312301	   23.1571	0.000279628	   23.1915	0.000336898	   23.1731	0.000309609	   23.1731	   7.74022	
   23.2114	0.000313924	   23.1964	0.000282064	   23.2301	0.000339272	   23.2126	0.000311753	   23.2126	   7.79384	
   23.2516	0.000315542	   23.2357	0.000284527	   23.2684	0.000341602	   23.2519	0.000313891	   23.2519	   7.84727	
   23.2902	0.000317195	   23.2729	0.000287027	   23.3052	0.000343851	   23.2894	0.000316024	   23.2894	   7.90061	
   23.3282	0.000318916	   23.3099	0.000289565	   23.3417	0.000345989	   23.3266	0.000318157	   23.3266	   7.95392	
   23.3644	0.000320723	   23.3464	0.000292133	   23.3767	0.000347999	   23.3625	0.000320285	   23.3625	   8.00712	
   23.4001	0.000322621	   23.3818	0.000294717	   23.4105	0.000349873	   23.3975	0.000322404	   23.3975	    8.0601	
   23.4349	0.000324598	   23.4165	0.000297301	   23.4433	0.000351625	   23.4316	0.000324508	   23.4316	    8.1127	
   23.4683	0.000326622	   23.4501	0.00029986	   23.4749	0.000353283	   23.4644	0.000326588	   23.4644	    8.1647	
   23.5003	0.000328655	   23.4824	0.000302379	   23.5059	0.000354881	   23.4962	0.000328638	   23.4962	   8.21596	
    23.531	0.000330657	   23.5143	0.000304843	   23.5365	0.000356459	   23.5273	0.000330653	   23.5273	   8.26633	
   23.5603	0.000332588	   23.5449	0.000307245	   23.5658	0.000358061	    23.557	0.000332631	    23.557	   8.31578	
   23.5892	0.000334419	   23.5747	0.000309583	   23.5949	0.000359719	   23.5863	0.000334574	   23.5863	   8.36434	
   23.6175	0.000336132	   23.6026	0.000311865	   23.6234	0.000361454	   23.6145	0.000336484	   23.6145	   8.41209	
   23.6448	0.00033773	   23.6301	0.000314101	    23.651	0.00036328	    23.642	0.00033837	    23.642	   8.45926	
   23.6706	0.000339229	   23.6572	0.000316301	   23.6773	0.000365194	   23.6684	0.000340242	   23.6684	   8.50604	
   23.6956	0.000340654	   23.6829	0.000318486	   23.7037	0.000367156	    23.694	0.000342099	    23.694	   8.55247	
   23.7191	0.000342042	    23.708	0.000320676	   23.7294	0.000369143	   23.7188	0.000343954	   23.7188	   8.59884	
   23.7412	0.000343431	   23.7323	0.000322877	   23.7547	0.000371121	   23.7427	0.00034581	   23.7427	   8.64524	
   23.7627	0.000344854	    23.756	 0.0003251	   23.7784	0.00037304	   23.7657	0.000347665	   23.7657	   8.69163	
   23.7829	0.000346343	   23.7787	0.000327344	   23.8008	0.000374868	   23.7875	0.000349518	   23.7875	   8.73796	
   23.8018	0.00034791	   23.8016	0.000329599	   23.8217	0.00037658	   23.8084	0.000351363	   23.8084	   8.78407	
   23.8201	0.000349561	   23.8231	0.000331855	   23.8413	0.000378175	   23.8282	0.000353197	   23.8282	   8.82992	
   23.8376	0.000351281	   23.8436	0.000334093	   23.8591	0.000379655	   23.8468	0.00035501	   23.8468	   8.87524	
   23.8539	0.000353046	   23.8635	0.000336302	   23.8757	0.00038104	   23.8643	0.000356796	   23.8643	    8.9199	
   23.8694	0.000354827	   23.8829	0.000338468	   23.8916	0.000382373	   23.8813	0.000358556	   23.8813	    8.9639	
   23.8837	0.000356586	   23.9017	0.000340577	    23.907	0.000383679	   23.8975	0.000360281	   23.8975	   9.00702	
   23.8973	0.000358292	   23.9195	0.000342628	   23.9213	0.000384986	   23.9127	0.000361968	   23.9127	   9.04921	
   23.9105	0.000359928	   23.9366	0.000344619	   23.9351	0.000386328	   23.9274	0.000363625	   23.9274	   9.09063	
   23.9231	0.000361455	   23.9524	0.00034656	   23.9483	0.000387715	   23.9413	0.000365243	   23.9413	   9.13108	
   23.9352	0.000362857	   23.9675	0.00034846	   23.9604	0.00038915	   23.9544	0.000366822	   23.9544	   9.17055	
   23.9466	0.000364152	   23.9817	0.00035033	   23.9718	0.00039063	   23.9667	0.000368371	   23.9667	   9.20927	
    23.957	0.000365368	    23.994	0.000352188	   23.9822	0.000392148	   23.9777	0.000369901	   23.9777	   9.24753	
   23.9655	0.000366507	   24.0057	0.000354043	   23.9916	0.000393689	   23.9876	0.000371413	   23.9876	   9.28533	
   23.9735	0.000367615	   24.0158	0.000355905	   23.9996	0.000395234	   23.9963	0.000372918	   23.9963	   9.32295	
   23.9806	0.000368754	   24.0241	0.000357778	   24.0066	0.000396777	   24.0038	0.000374436	   24.0038	    9.3609	
   23.9869	0.000369951	   24.0314	0.00035966	   24.0129	0.000398299	   24.0104	0.00037597	   24.0104	   9.39926	
    23.993	0.000371234	    24.037	0.00036155	   24.0183	0.000399778	   24.0161	0.000377521	   24.0161	   9.43801	
   23.9987	0.00037262	   24.0419	0.000363433	   24.0225	0.000401206	    24.021	0.000379086	    24.021	   9.47716	
   24.0028	0.000374103	    24.046	0.000365302	   24.0254	0.00040256	   24.0247	0.000380655	   24.0247	   9.51637	
   24.0068	0.000375654	   24.0489	0.000367144	   24.0272	0.000403836	   24.0276	0.000382211	   24.0276	   9.55528	
   24.0099	0.00037725	   24.0511	0.000368946	   24.0285	0.000405025	   24.0299	0.00038374	   24.0299	   9.59351	
    24.012	0.000378843	   24.0523	0.000370703	   24.0294	0.000406138	   24.0312	0.000385228	   24.0312	   9.63069	
   24.0127	0.000380367	    24.053	0.000372409	   24.0292	0.000407174	   24.0316	0.00038665	   24.0316	   9.66625	
   24.0122	0.000381778	   24.0518	0.000374065	   24.0286	0.000408139	   24.0309	0.000387994	   24.0309	   9.69986	
   24.0108	0.000383052	   24.0493	0.000375679	   24.0272	0.000409054	   24.0291	0.000389262	   24.0291	   9.73154	
   24.0084	0.000384169	   24.0466	0.000377256	   24.0249	0.000409942	   24.0266	0.000390456	   24.0266	   9.76139	
   24.0053	0.000385126	   24.0428	0.00037881	   24.0219	0.000410836	   24.0233	0.000391591	   24.0233	   9.78976	
   24.0013	0.000385957	   24.0374	0.00038035	   24.0182	0.000411739	    24.019	0.000392682	    24.019	   9.81705	
   23.9962	0.000386705	   24.0306	0.00038189	   24.0139	0.000412666	   24.0136	0.000393753	   24.0136	   9.84384	
   23.9912	0.00038742	   24.0233	0.000383438	   24.0082	0.00041365	   24.0076	0.000394836	   24.0076	    9.8709	
   23.9852	0.000388168	   24.0153	0.000384999	   24.0013	0.00041469	   24.0006	0.000395952	   24.0006	   9.89881	
   23.9779	0.000388997	   24.0061	0.000386575	   23.9924	0.00041574	   23.9922	0.000397104	   23.9922	   9.92759	
   23.9698	0.000389937	    23.996	0.000388163	   23.9831	0.000416806	    23.983	0.000398302	    23.983	   9.95755	
     23.96	0.000391009	   23.9842	0.000389757	   23.9728	0.000417886	   23.9723	0.000399551	   23.9723	   9.98876	
   23.9499	0.000392216	    23.971	0.000391346	   23.9617	0.000418939	   23.9609	0.000400833	   23.9609	   10.0208	
   23.9384	0.000393529	   23.9577	0.000392916	     23.95	0.000419953	   23.9487	0.000402133	   23.9487	   10.0533	
   23.9254	0.000394905	   23.9432	0.000394457	   23.9375	0.000420924	   23.9354	0.000403429	   23.9354	   10.0857	
   23.9119	0.000396298	   23.9278	0.000395963	   23.9241	0.000421855	   23.9213	0.000404705	   23.9213	   10.1176	
   23.8971	0.000397652	   23.9121	0.000397423	   23.9102	0.000422729	   23.9065	0.000405935	   23.9065	   10.1484	
    23.881	0.000398916	   23.8957	0.000398839	   23.8951	0.000423559	   23.8906	0.000407105	   23.8906	   10.1776	
    23.864	0.000400058	   23.8785	0.000400209	    23.879	0.000424382	   23.8738	0.000408216	   23.8738	   10.2054	
   23.8449	0.000401051	   23.8604	0.000401538	   23.8619	0.000425182	   23.8557	0.000409257	   23.8557	   10.2314	
    23.826	0.000401889	   23.8416	0.000402837	   23.8441	0.000425966	   23.8372	0.000410231	   23.8372	   10.2558	
   23.8067	0.000402593	   23.8222	0.000404112	   23.8255	0.000426757	   23.8182	0.000411154	   23.8182	   10.2789	
   23.7863	0.000403199	   23.8017	0.000405377	   23.8058	0.000427543	   23.7979	0.00041204	   23.7979	    10.301	
   23.7648	0.000403752	   23.7803	0.000406639	   23.7843	0.000428322	   23.7765	0.000412904	   23.7765	   10.3226	
   23.7425	0.000404299	   23.7581	0.000407901	   23.7621	0.000429099	   23.7542	0.000413767	   23.7542	   10.3442	
   23.7194	0.000404896	   23.7337	0.000409171	   23.7391	0.000429882	   23.7307	0.00041465	   23.7307	   10.3662	
   23.6947	0.000405577	    23.709	0.000410442	   23.7147	0.000430659	   23.7061	0.000415559	   23.7061	    10.389	
   23.6689	0.000406361	   23.6832	0.000411707	   23.6898	0.000431433	   23.6806	0.000416501	   23.6806	   10.4125	
   23.6428	0.000407257	   23.6568	0.000412994	   23.6638	0.000432214	   23.6545	0.000417488	   23.6545	   10.4372	
   23.6152	0.000408246	   23.6289	0.000414283	    23.637	0.000432988	    23.627	0.000418506	    23.627	   10.4626	
   23.5866	0.000409299	   23.6007	0.000415553	   23.6092	0.00043375	   23.5988	0.000419534	   23.5988	   10.4884	
   23.5583	0.000410374	   23.5713	0.000416769	   23.5803	0.00043451	     23.57	0.000420551	     23.57	   10.5138	
   23.5288	0.000411424	   23.5415	0.000417929	   23.5512	0.00043525	   23.5405	0.000421535	   23.5405	   10.5384	
    23.499	0.000412404	   23.5101	0.000419023	    23.522	0.000435965	   23.5103	0.000422464	   23.5103	   10.5616	
   23.4677	0.000413271	    23.478	0.000420021	   23.4919	0.000436654	   23.4792	0.000423316	   23.4792	   10.5829	
   23.4352	0.000414005	   23.4445	0.000420931	   23.4601	0.000437311	   23.4466	0.000424083	   23.4466	   10.6021	
   23.4015	0.000414602	   23.4107	0.000421754	   23.4279	0.00043793	   23.4134	0.000424762	   23.4134	    10.619	
   23.3666	0.000415068	   23.3764	0.000422505	   23.3954	0.000438512	   23.3795	0.000425362	   23.3795	    10.634	
    23.331	0.000415434	   23.3413	0.000423218	   23.3598	0.000439071	    23.344	0.000425908	    23.344	   10.6477	
   23.2944	0.000415741	   23.3059	0.000423914	   23.3244	0.000439601	   23.3082	0.000426419	   23.3082	   10.6605	
   23.2568	0.000416034	   23.2693	0.000424619	   23.2885	0.000440109	   23.2715	0.000426921	   23.2715	    10.673	
   23.2186	0.000416361	   23.2314	0.000425364	   23.2515	0.000440609	   23.2338	0.000427445	   23.2338	   10.6861	
   23.1797	0.000416759	   23.1927	0.000426177	   23.2137	0.000441099	   23.1954	0.000428012	   23.1954	   10.7003	
   23.1406	0.000417256	   23.1535	0.000427076	   23.1747	0.000441584	   23.1563	0.000428638	   23.1563	    10.716	
    23.101	0.000417856	   23.1132	0.000428035	   23.1346	0.000442068	   23.1163	0.00042932	   23.1163	    10.733	
   23.0604	0.000418554	   23.0713	0.00042904	   23.0935	0.000442552	   23.0751	0.000430049	   23.0751	   10.7512	
   23.0192	0.000419322	    23.029	0.000430063	   23.0513	0.000443026	   23.0332	0.000430804	   23.0332	   10.7701	
   22.9766	0.000420119	    22.987	0.000431068	   23.0087	0.000443482	   22.9908	0.000431556	   22.9908	   10.7889	
   22.9328	0.000420904	   22.9444	0.000432023	   22.9644	0.000443923	   22.9472	0.000432283	   22.9472	   10.8071	
   22.8874	0.000421634	   22.9008	0.000432899	     22.92	0.00044434	   22.9027	0.000432958	   22.9027	   10.8239	
   22.8418	0.000422276	   22.8566	0.00043368	   22.8744	0.00044474	   22.8576	0.000433565	   22.8576	   10.8391	
   22.7958	0.000422809	   22.8111	0.000434345	   22.8277	0.000445129	   22.8115	0.000434095	   22.8115	   10.8524	
   22.7479	0.000423219	   22.7653	0.000434894	   22.7802	0.000445507	   22.7645	0.00043454	   22.7645	   10.8635	
      22.7	0.000423514	    22.718	0.000435352	   22.7327	0.000445874	   22.7169	0.000434914	   22.7169	   10.8728	
   22.6512	0.000423714	   22.6694	0.00043575	   22.6834	0.000446228	    22.668	0.000435231	    22.668	   10.8808	
   22.6014	0.00042386	   22.6204	0.000436105	   22.6337	0.000446559	   22.6185	0.000435508	   22.6185	   10.8877	
   22.5506	0.000423995	   22.5699	0.000436469	   22.5825	0.000446851	   22.5677	0.000435772	   22.5677	   10.8943	
   22.4992	0.000424156	   22.5178	0.000436891	   22.5307	0.000447096	   22.5159	0.000436047	   22.5159	   10.9012	
   22.4467	0.000424376	   22.4647	0.000437392	   22.4778	0.000447289	   22.4631	0.000436352	   22.4631	   10.9088	
   22.3939	0.000424684	    22.411	0.000437985	   22.4248	0.000447418	   22.4099	0.000436696	   22.4099	   10.9174	
   22.3404	0.000425082	   22.3568	0.000438692	   22.3704	0.000447489	   22.3559	0.000437088	   22.3559	   10.9272	
   22.2861	0.000425559	    22.301	0.000439502	   22.3149	0.000447512	   22.3007	0.000437524	   22.3007	   10.9381	
   22.2308	0.000426086	   22.2451	0.000440377	   22.2577	0.000447499	   22.2446	0.000437987	   22.2446	   10.9497	
   22.1748	0.000426636	   22.1881	0.000441302	   22.2001	0.000447466	   22.1877	0.000438468	   22.1877	   10.9617	
   22.1175	0.00042717	   22.1307	0.000442235	    22.142	0.000447419	   22.1301	0.000438941	   22.1301	   10.9735	
   22.0595	0.000427644	   22.0732	0.000443108	   22.0834	0.000447383	    22.072	0.000439378	    22.072	   10.9845	
   21.9999	0.000428024	    22.015	0.000443882	   22.0241	0.000447369	    22.013	0.000439758	    22.013	    10.994	
     21.94	0.000428293	   21.9564	0.000444545	   21.9644	0.000447373	   21.9536	0.00044007	   21.9536	   11.0018	
   21.8795	0.000428444	   21.8963	0.000445071	   21.9043	0.000447411	   21.8934	0.000440309	   21.8934	   11.0077	
   21.8184	0.00042849	   21.8355	0.000445456	   21.8427	0.000447485	   21.8322	0.000440477	   21.8322	   11.0119	
   21.7558	0.000428447	   21.7738	0.000445734	   21.7803	0.000447582	     21.77	0.000440588	     21.77	   11.0147	
   21.6915	0.000428351	    21.712	0.000445934	    21.717	0.00044769	   21.7068	0.000440658	   21.7068	   11.0165	
   21.6264	0.000428244	   21.6487	0.000446099	   21.6524	0.000447795	   21.6425	0.000440713	   21.6425	   11.0178	
   21.5611	0.000428162	   21.5851	0.000446286	   21.5861	0.000447897	   21.5774	0.000440782	   21.5774	   11.0195	
   21.4949	0.000428141	   21.5206	0.000446546	   21.5186	0.000447978	   21.5113	0.000440888	   21.5113	   11.0222	
   21.4281	0.000428197	   21.4554	0.000446906	     21.45	0.000448025	   21.4445	0.000441043	   21.4445	   11.0261	
   21.3601	0.000428342	   21.3894	0.000447389	   21.3808	0.000448045	   21.3768	0.000441258	   21.3768	   11.0315	
   21.2914	0.000428564	   21.3226	0.000448003	   21.3097	0.000448026	   21.3079	0.000441531	   21.3079	   11.0383	
   21.2215	0.000428842	   21.2552	0.000448732	   21.2383	0.000447968	   21.2384	0.000441847	   21.2384	   11.0462	
   21.1502	0.000429146	   21.1864	0.000449534	   21.1663	0.000447869	   21.1676	0.000442183	   21.1676	   11.0546	
    21.077	0.000429443	   21.1161	0.000450375	   21.0932	0.000447731	   21.0954	0.000442516	   21.0954	   11.0629	
   21.0026	0.000429696	   21.0445	0.000451203	   21.0195	0.000447562	   21.0222	0.00044282	   21.0222	   11.0705	
   20.9277	0.000429876	   20.9706	0.000451956	   20.9438	0.000447368	   20.9474	0.000443067	   20.9474	   11.0767	
   20.8527	0.00042996	   20.8966	 0.0004526	   20.8673	0.000447174	   20.8722	0.000443245	   20.8722	   11.0811	
   20.7762	0.000429942	   20.8211	0.000453107	   20.7902	0.000446987	   20.7958	0.000443345	   20.7958	   11.0836	
   20.6993	0.000429824	   20.7441	0.00045346	   20.7118	0.000446807	   20.7184	0.000443364	   20.7184	   11.0841	
   20.6208	0.000429621	   20.6655	0.000453672	   20.6335	0.000446653	   20.6399	0.000443315	   20.6399	   11.0829	
    20.541	0.000429355	   20.5866	0.00045378	   20.5541	0.000446522	   20.5606	0.000443219	   20.5606	   11.0805	
   20.4603	0.00042906	   20.5067	0.000453825	   20.4731	0.000446413	     20.48	 0.0004431	     20.48	   11.0775	
   20.3798	0.000428775	   20.4263	0.000453853	   20.3916	0.000446325	   20.3992	0.000442984	   20.3992	   11.0746	
    20.298	0.000428534	   20.3445	0.000453919	    20.309	0.000446248	   20.3171	 0.0004429	   20.3171	   11.0725	
   20.2147	0.000428366	   20.2619	0.000454061	   20.2265	0.000446169	   20.2344	0.000442865	   20.2344	   11.0716	
   20.1308	0.000428289	   20.1788	0.000454301	    20.144	0.000446067	   20.1512	0.000442886	   20.1512	   11.0721	
   20.0462	0.000428306	   20.0947	0.000454658	   20.0607	0.000445928	   20.0672	0.000442964	   20.0672	   11.0741	
   19.9611	0.00042841	   20.0098	0.000455125	    19.977	0.000445739	   19.9826	0.000443091	   19.9826	   11.0773	
   19.8759	0.000428566	   19.9239	0.000455668	   19.8931	0.00044549	   19.8976	0.000443242	   19.8976	    11.081	
   19.7903	0.000428739	   19.8377	0.000456254	   19.8083	0.000445189	   19.8121	0.000443394	   19.8121	   11.0849	
   19.7036	0.000428888	   19.7505	0.000456862	   19.7232	0.000444842	   19.7258	0.000443531	   19.7258	   11.0883	
   19.6158	0.000428968	   19.6631	0.000457436	   19.6374	0.000444461	   19.6388	0.000443622	   19.6388	   11.0905	
    19.527	0.000428958	   19.5747	0.000457907	   19.5512	0.000444064	    19.551	0.000443643	    19.551	   11.0911	
   19.4374	0.000428852	   19.4848	0.000458281	   19.4641	0.000443667	   19.4621	 0.0004436	   19.4621	     11.09	
   19.3468	0.000428635	   19.3948	0.00045854	   19.3759	0.000443286	   19.3725	0.000443487	   19.3725	   11.0872	
   19.2561	0.000428312	    19.304	0.000458661	   19.2874	0.000442933	   19.2825	0.000443302	   19.2825	   11.0825	
    19.165	0.000427902	   19.2123	0.000458671	    19.197	0.000442614	   19.1914	0.000443062	   19.1914	   11.0766	
   19.0724	0.000427439	   19.1198	0.000458604	   19.1057	0.000442328	   19.0993	0.00044279	   19.0993	   11.0698	
   18.9795	0.000426959	   19.0265	0.000458481	   19.0136	0.000442064	   19.0065	0.000442501	   19.0065	   11.0625	
   18.8864	0.000426485	   18.9332	0.000458337	   18.9199	0.00044181	   18.9132	0.000442211	   18.9132	   11.0553	
   18.7923	0.000426053	   18.8397	0.000458217	   18.8252	0.000441552	   18.8191	0.000441941	   18.8191	   11.0485	
    18.698	0.000425685	   18.7453	0.000458145	   18.7297	0.000441269	   18.7243	 0.0004417	   18.7243	   11.0425	
   18.6029	0.00042535	   18.6496	0.000458136	   18.6339	0.000440947	   18.6288	0.000441478	   18.6288	   11.0369	
   18.5067	0.000425053	   18.5529	0.000458224	   18.5373	0.000440579	   18.5323	0.000441285	   18.5323	   11.0321	
   18.4092	0.000424796	   18.4556	0.000458411	   18.4401	0.000440162	    18.435	0.000441123	    18.435	   11.0281	
   18.3115	0.000424588	   18.3567	0.000458706	   18.3417	0.000439697	   18.3366	0.000440997	   18.3366	   11.0249	
   18.2132	0.000424383	   18.2579	0.000459076	   18.2428	0.000439194	    18.238	0.000440884	    18.238	   11.0221	
   18.1144	0.000424185	   18.1587	0.000459477	   18.1426	0.000438662	   18.1386	0.000440775	   18.1386	   11.0194	
   18.0149	0.000424009	   18.0589	0.000459847	   18.0419	0.000438113	   18.0386	0.000440657	   18.0386	   11.0164	
   17.9147	0.000423844	   17.9589	0.00046016	   17.9405	0.000437562	    17.938	0.000440522	    17.938	   11.0131	
   17.8131	0.000423691	   17.8589	0.000460375	   17.8387	0.000437022	   17.8369	0.000440363	   17.8369	   11.0091	
   17.7114	0.00042353	   17.7578	0.000460429	   17.7359	0.000436498	    17.735	0.000440152	    17.735	   11.0038	
   17.6092	0.000423344	   17.6553	0.000460299	    17.632	0.000435997	   17.6322	0.00043988	   17.6322	    10.997	
   17.5067	0.00042312	   17.5521	0.000459996	    17.528	0.000435516	   17.5289	0.000439544	   17.5289	   10.9886	
   17.4028	0.000422847	   17.4475	0.000459542	   17.4235	0.00043505	   17.4246	0.000439146	   17.4246	   10.9787	
   17.2979	0.000422518	   17.3421	0.000458984	   17.3191	0.000434593	   17.3197	0.000438698	   17.3197	   10.9675	
   17.1925	0.000422107	   17.2361	0.00045838	   17.2134	0.00043413	    17.214	0.000438206	    17.214	   10.9551	
   17.0861	0.000421595	     17.13	0.000457782	    17.107	0.000433652	   17.1077	0.000437676	   17.1077	   10.9419	
   16.9785	0.000420999	   17.0236	0.00045724	   16.9998	0.000433147	   17.0006	0.000437129	   17.0006	   10.9282	
   16.8694	0.000420323	    16.917	0.000456809	   16.8926	0.000432608	    16.893	0.00043658	    16.893	   10.9145	
   16.7589	0.000419598	   16.8098	0.000456535	   16.7845	0.00043203	   16.7844	0.000436054	   16.7844	   10.9014	
   16.6485	0.000418858	    16.701	0.000456406	   16.6763	0.000431411	   16.6753	0.000435559	   16.6753	    10.889	
   16.5371	0.000418124	   16.5915	0.000456404	   16.5665	0.000430763	    16.565	0.000435097	    16.565	   10.8774	
    16.425	0.000417434	   16.4819	0.000456503	   16.4567	0.000430091	   16.4546	0.000434676	   16.4546	   10.8669	
   16.3128	0.000416831	   16.3719	0.000456648	   16.3451	0.000429405	   16.3433	0.000434295	   16.3433	   10.8574	
   16.1999	0.000416313	   16.2611	0.000456776	   16.2329	0.000428719	   16.2313	0.000433936	   16.2313	   10.8484	
   16.0857	0.000415857	   16.1496	0.000456831	   16.1208	0.000428039	   16.1187	0.000433576	   16.1187	   10.8394	
    15.971	0.000415464	   16.0375	0.000456772	   16.0073	0.000427402	   16.0053	0.000433213	   16.0053	   10.8303	
   15.8562	0.000415113	   15.9235	0.000456566	    15.893	0.00042681	   15.8909	0.00043283	   15.8909	   10.8207	
   15.7403	0.000414756	   15.8088	0.000456218	    15.778	0.000426249	   15.7757	0.000432408	   15.7757	   10.8102	
   15.6244	0.000414359	   15.6939	0.000455753	   15.6615	0.000425687	   15.6599	0.000431933	   15.6599	   10.7983	
   15.5082	0.000413914	   15.5789	0.000455186	   15.5452	0.000425118	   15.5441	0.000431406	   15.5441	   10.7852	
   15.3912	0.000413382	   15.4631	0.000454561	   15.4282	0.000424521	   15.4275	0.000430822	   15.4275	   10.7705	
   15.2742	0.000412739	   15.3462	0.000453928	   15.3107	0.000423858	   15.3104	0.000430175	   15.3104	   10.7544	
   15.1566	  0.000412	   15.2284	0.000453329	   15.1927	0.000423115	   15.1926	0.000429482	   15.1926	    10.737	
   15.0387	0.000411194	     15.11	0.000452797	    15.074	0.000422281	   15.0742	0.000428758	   15.0742	   10.7189	
   14.9202	0.000410322	   14.9909	0.000452354	   14.9555	0.000421353	   14.9555	0.000428009	   14.9555	   10.7002	
   14.8013	0.000409419	   14.8713	0.000452005	   14.8362	0.000420353	   14.8363	0.000427259	   14.8363	   10.6815	
   14.6813	0.000408539	   14.7513	0.000451736	   14.7157	0.000419306	   14.7161	0.000426527	   14.7161	   10.6632	
   14.5611	0.000407698	   14.6304	0.000451523	   14.5945	0.000418229	   14.5954	0.000425816	   14.5954	   10.6454	
   14.4404	0.000406918	   14.5098	0.00045134	   14.4724	0.000417157	   14.4742	0.000425138	   14.4742	   10.6285	
    14.319	0.000406218	   14.3892	0.000451152	   14.3497	0.000416128	   14.3526	0.000424499	   14.3526	   10.6125	
   14.1973	0.000405593	   14.2677	0.000450926	   14.2264	0.000415178	   14.2305	0.000423899	   14.2305	   10.5975	
   14.0757	0.000405031	   14.1463	0.000450636	   14.1034	0.000414307	   14.1085	0.000423325	   14.1085	   10.5831	
   13.9537	0.000404522	   14.0238	0.000450264	   13.9801	0.000413515	   13.9859	0.000422767	   13.9859	   10.5692	
   13.8311	0.000404047	   13.9008	0.000449825	   13.8564	0.000412799	   13.8627	0.000422224	   13.8627	   10.5556	
   13.7079	0.000403577	   13.7771	0.000449312	   13.7323	0.000412133	   13.7391	0.000421674	   13.7391	   10.5418	
   13.5843	0.000403076	   13.6522	0.000448728	   13.6071	0.000411483	   13.6145	0.000421096	   13.6145	   10.5274	
   13.4604	0.000402514	   13.5266	0.000448124	   13.4819	0.000410812	   13.4896	0.000420483	   13.4896	   10.5121	
   13.3362	0.000401872	   13.4001	0.000447522	   13.3573	0.000410078	   13.3645	0.000419824	   13.3645	   10.4956	
   13.2114	0.00040114	    13.273	0.00044693	   13.2321	0.00040925	   13.2388	0.000419107	   13.2388	   10.4777	
   13.0861	0.000400322	   13.1456	0.000446363	   13.1065	0.000408316	   13.1127	0.000418334	   13.1127	   10.4583	
   12.9595	0.000399411	   13.0171	0.000445845	   12.9805	0.000407276	   12.9857	0.000417511	   12.9857	   10.4378	
   12.8325	0.000398426	   12.8881	0.000445365	   12.8536	0.000406135	   12.8581	0.000416642	   12.8581	   10.4161	
   12.7051	0.000397408	    12.759	0.000444904	   12.7271	0.000404918	   12.7304	0.000415744	   12.7304	   10.3936	
    12.577	0.000396378	   12.6298	0.000444464	      12.6	0.000403661	   12.6023	0.000414835	   12.6023	   10.3709	
   12.4488	0.000395364	   12.5012	0.000444016	   12.4727	0.000402398	   12.4742	0.000413926	   12.4742	   10.3482	
   12.3198	0.000394401	   12.3719	0.000443529	   12.3451	0.000401161	   12.3456	0.00041303	   12.3456	   10.3258	
   12.1908	0.000393521	   12.2418	0.000443009	   12.2167	0.000399981	   12.2164	0.00041217	   12.2164	   10.3043	
   12.0609	0.000392727	   12.1114	0.000442457	   12.0874	0.000398868	   12.0866	0.000411351	   12.0866	   10.2838	
   11.9311	0.000392018	   11.9797	0.000441869	   11.9575	0.000397824	   11.9561	0.00041057	   11.9561	   10.2643	
   11.8004	0.00039139	   11.8479	0.000441251	   11.8267	0.000396844	    11.825	0.000409828	    11.825	   10.2457	
   11.6686	0.000390799	   11.7157	0.000440628	   11.6955	0.000395905	   11.6933	0.000409111	   11.6933	   10.2278	
   11.5369	0.000390212	   11.5827	0.00044001	    11.565	0.000394984	   11.5615	0.000408402	   11.5615	   10.2101	
   11.4046	0.000389602	   11.4493	0.000439412	   11.4334	0.000394054	   11.4291	0.000407689	   11.4291	   10.1922	
   11.2709	0.000388927	   11.3147	0.000438855	   11.3005	0.000393095	   11.2954	0.000406959	   11.2954	    10.174	
   11.1372	0.00038816	   11.1795	0.000438334	   11.1675	0.000392089	   11.1614	0.000406194	   11.1614	   10.1549	
   11.0031	0.000387289	   11.0434	0.000437845	   11.0341	0.000391027	   11.0269	0.000405387	   11.0269	   10.1347	
   10.8683	0.000386314	   10.9068	0.000437393	   10.9004	0.000389908	   10.8918	0.000404538	   10.8918	   10.1135	
   10.7333	0.000385244	   10.7694	0.000436958	   10.7665	0.000388737	   10.7564	0.000403646	   10.7564	   10.0912	
   10.5985	0.000384098	   10.6315	0.000436514	   10.6328	0.000387529	   10.6209	0.000402714	   10.6209	   10.0678	
   10.4628	0.000382918	    10.493	0.000436045	   10.4982	0.000386303	   10.4847	0.000401755	   10.4847	   10.0439	
   10.3269	0.000381731	   10.3538	0.000435535	   10.3639	0.000385074	   10.3482	0.00040078	   10.3482	   10.0195	
   10.1905	0.000380569	   10.2149	0.000434968	   10.2287	0.000383857	   10.2114	0.000399798	   10.2114	   9.99495	
    10.054	0.000379463	   10.0761	0.000434337	   10.0931	0.000382669	   10.0744	0.000398823	   10.0744	   9.97058	
   9.91696	0.000378426	   9.93714	0.000433656	    9.9571	0.00038151	   9.93707	0.000397864	   9.93707	    9.9466	
   9.77994	0.000377466	   9.79764	0.000432931	   9.81954	0.000380367	   9.79904	0.000396921	   9.79904	   9.92304	
   9.64284	0.000376585	   9.65835	0.000432183	   9.68196	0.000379245	   9.66105	0.000396004	   9.66105	   9.90011	
   9.50584	0.000375769	   9.51798	0.000431452	   9.54383	0.000378137	   9.52255	0.000395119	   9.52255	   9.87798	
   9.36816	0.000374992	    9.3773	0.00043075	   9.40464	0.000377019	   9.38337	0.000394253	   9.38337	   9.85633	
   9.23003	0.00037422	   9.23724	0.000430082	   9.26514	0.000375883	   9.24414	0.000393395	   9.24414	   9.83487	
   9.09119	0.000373431	   9.09674	0.000429452	   9.12459	0.000374726	   9.10417	0.000392536	   9.10417	   9.81341	
   8.95068	0.000372589	   8.95554	0.000428861	   8.98397	0.000373528	   8.96339	0.00039166	   8.96339	   9.79149	
   8.81049	0.000371673	   8.81412	0.000428288	   8.84372	0.000372272	   8.82278	0.000390744	   8.82278	   9.76861	
   8.67007	0.000370677	   8.67222	0.00042771	   8.70281	0.000370968	    8.6817	0.000389785	    8.6817	   9.74462	
   8.52938	0.000369585	    8.5303	0.000427108	   8.56243	0.000369628	    8.5407	0.000388774	    8.5407	   9.71934	
   8.38792	 0.0003684	   8.38784	0.000426461	   8.42176	0.00036825	   8.39917	0.000387704	   8.39917	   9.69259	
   8.24569	0.000367157	   8.24484	0.000425755	    8.2803	0.000366858	   8.25694	0.00038659	   8.25694	   9.66475	
   8.10319	0.000365881	    8.1013	0.000424988	   8.13903	0.000365473	   8.11451	0.000385447	   8.11451	   9.63618	
   7.95945	0.000364594	   7.95672	0.000424155	   7.99643	0.000364103	   7.97087	0.000384284	   7.97087	   9.60709	
   7.81546	0.000363326	   7.81213	0.00042326	   7.85353	0.000362754	   7.82704	0.000383113	   7.82704	   9.57783	
   7.67121	0.000362111	   7.66747	0.000422303	   7.71031	0.000361439	     7.683	0.000381951	     7.683	   9.54877	
   7.52668	0.000360955	   7.52272	0.00042131	    7.5677	0.000360156	   7.53904	0.000380807	   7.53904	   9.52018	
   7.38138	0.000359853	   7.37881	0.000420311	    7.4249	0.000358899	   7.39503	0.000379688	   7.39503	    9.4922	
   7.23581	0.000358811	   7.23467	0.000419315	   7.28164	0.000357659	   7.25071	0.000378595	   7.25071	   9.46487	
   7.08995	0.00035781	   7.09075	0.000418345	   7.13839	0.000356399	   7.10637	0.000377518	   7.10637	   9.43795	
   6.94331	0.000356812	   6.94677	0.000417413	   6.99487	 0.0003551	   6.96165	0.000376442	   6.96165	   9.41104	
    6.7964	0.000355802	   6.80243	0.000416528	   6.85081	0.00035377	   6.81655	0.000375367	   6.81655	   9.38417	
   6.64969	0.000354759	    6.6575	0.000415687	   6.70671	0.000352375	    6.6713	0.000374274	    6.6713	   9.35684	
   6.50314	0.000353657	   6.51221	0.000414875	   6.56251	0.000350913	   6.52595	0.000373148	   6.52595	   9.32871	
   6.35692	0.000352479	   6.36584	0.000414087	   6.41771	0.000349411	   6.38016	0.000371992	   6.38016	   9.29981	
   6.21076	0.000351231	   6.21965	0.000413301	   6.27232	0.000347888	   6.23424	0.000370807	   6.23424	   9.27016	
   6.06364	0.000349914	   6.07333	0.000412494	   6.12658	0.000346357	   6.08785	0.000369588	   6.08785	    9.2397	
   5.91609	0.000348538	   5.92712	0.000411644	   5.97977	0.000344842	   5.94099	0.000368341	   5.94099	   9.20853	
   5.76787	0.000347131	   5.78096	0.00041073	    5.8329	0.000343372	   5.79391	0.000367078	   5.79391	   9.17694	
    5.6195	0.000345711	   5.63386	0.000409741	   5.68643	0.000341946	    5.6466	0.000365799	    5.6466	   9.14498	
    5.4707	0.000344292	   5.48683	0.000408668	    5.5398	0.000340569	   5.49911	0.000364509	   5.49911	   9.11274	
   5.32198	0.000342894	   5.33909	0.000407524	   5.39228	0.000339242	   5.35112	0.00036322	   5.35112	   9.08051	
   5.17234	0.00034153	   5.19141	0.000406327	   5.24511	0.000337932	   5.20295	0.00036193	   5.20295	   9.04824	
   5.02302	0.000340201	   5.04327	0.000405093	   5.09799	0.000336602	   5.05476	0.000360632	   5.05476	    9.0158	
   4.87375	0.000338901	   4.89467	0.000403851	   4.95112	0.000335229	   4.90651	0.000359327	   4.90651	   8.98318	
   4.72424	0.000337626	   4.74586	0.000402626	   4.80445	0.000333786	   4.75818	0.000358013	   4.75818	   8.95032	
   4.57473	0.000336362	   4.59756	0.000401429	   4.65699	0.000332248	   4.60976	0.000356679	   4.60976	   8.91698	
   4.42521	0.000335086	   4.44849	0.00040028	    4.5085	0.000330606	   4.46073	0.000355324	   4.46073	   8.88309	
   4.27564	0.000333787	   4.29894	0.000399183	    4.3593	0.000328871	   4.31129	0.000353947	   4.31129	   8.84868	
   4.12553	0.000332446	   4.14891	0.000398138	   4.20868	0.000327058	   4.16104	0.000352547	   4.16104	   8.81368	
   3.97538	0.000331047	   3.99818	0.000397127	   4.05866	0.000325193	   4.01074	0.000351122	   4.01074	   8.77805	
   3.82517	0.000329587	   3.84702	0.00039613	   3.90894	0.000323318	   3.86038	0.000349678	   3.86038	   8.74196	
   3.67512	0.000328067	   3.69618	0.000395124	   3.75922	0.000321457	   3.71017	0.000348216	   3.71017	   8.70539	
   3.52448	0.000326492	   3.54536	0.000394078	   3.60925	0.000319643	    3.5597	0.000346738	    3.5597	   8.66844	
   3.37424	0.000324877	   3.39431	0.000392976	   3.45878	0.000317905	   3.40911	0.000345253	   3.40911	   8.63132	
   3.22386	0.000323242	   3.24423	0.000391801	   3.30855	0.000316251	   3.25888	0.000343765	   3.25888	   8.59412	
   3.07261	0.000321602	   3.09406	0.000390546	   3.15877	0.000314675	   3.10848	0.000342274	   3.10848	   8.55686	
   2.92175	0.000319968	    2.9433	0.000389218	   3.00865	0.000313161	    2.9579	0.000340782	    2.9579	   8.51956	
   2.77026	0.000318359	    2.7927	0.000387829	   2.85916	0.000311685	   2.80737	0.000339291	   2.80737	   8.48228	
   2.61864	0.000316777	   2.64247	0.000386398	   2.70926	0.000310208	   2.65679	0.000337794	   2.65679	   8.44486	
   2.46739	0.00031522	   2.49111	0.000384947	   2.55944	0.000308695	   2.50598	0.000336287	   2.50598	   8.40718	
    2.3162	0.000313687	   2.33991	0.000383495	   2.40944	0.000307117	   2.35518	0.000334766	   2.35518	   8.36916	
   2.16531	0.000312165	   2.18858	0.000382061	   2.25948	0.000305443	   2.20446	0.000333223	   2.20446	   8.33058	
   2.01465	0.00031064	   2.03687	0.000380655	   2.11027	0.000303654	   2.05393	0.00033165	   2.05393	   8.29124	
    1.8642	0.000309092	   1.88457	0.000379278	     1.961	0.000301754	   1.90326	0.000330041	   1.90326	   8.25104	
   1.71344	0.000307508	   1.73289	0.000377927	   1.81045	0.000299756	   1.75226	0.000328397	   1.75226	   8.20992	
   1.56285	0.000305874	   1.58107	0.000376588	   1.66086	0.00029768	   1.60159	0.000326714	   1.60159	   8.16784	
   1.41216	0.000304179	    1.4286	0.000375247	   1.51092	0.000295561	   1.45056	0.000324996	   1.45056	   8.12489	
   1.26207	0.000302425	   1.27649	0.000373884	   1.36137	0.000293437	   1.29998	0.000323249	   1.29998	   8.08122	
    1.1106	0.000300615	   1.12398	0.000372473	    1.2124	0.000291339	   1.14899	0.000321476	   1.14899	   8.03689	
  0.959283	0.000298759	  0.972267	0.000371001	   1.06272	0.00028929	  0.998091	0.000319683	  0.998091	   7.99209	
  0.807596	0.000296875	   0.82105	0.000369459	  0.912373	0.000287309	  0.847006	0.000317881	  0.847006	   7.94703	
  0.656037	0.000294981	  0.670023	0.000367845	  0.761864	0.000285394	  0.695975	0.000316073	  0.695975	   7.90183	
  0.504581	0.000293095	  0.519157	0.000366163	   0.61119	0.000283536	  0.544976	0.000314265	  0.544976	   7.85661	
  0.352717	0.000291228	  0.368659	0.000364423	  0.461303	0.000281718	  0.394226	0.000312456	  0.394226	   7.81141	
  0.201425	0.000289385	  0.218236	0.000362642	  0.311156	0.000279908	  0.243606	0.000310645	  0.243606	   7.76613	
 0.0499213	0.000287565	 0.0683412	0.000360836	  0.161228	0.000278074	 0.0931637	0.000308825	 0.0931637	   7.72062	
 -0.101556	0.000285758	 -0.081567	0.000359022	 0.0105192	0.000276184	-0.0575347	0.000306988	-0.0575347	    7.6747	
 -0.252305	0.00028395	 -0.231513	0.000357218	 -0.141169	0.000274215	 -0.208329	0.000305128	 -0.208329	   7.62819	
 -0.403123	0.000282122	 -0.381994	0.000355433	 -0.292094	0.000272149	  -0.35907	0.000303235	  -0.35907	   7.58087	
 -0.554508	0.000280254	 -0.532992	0.000353673	 -0.443779	0.000269983	 -0.510426	0.000301303	 -0.510426	   7.53258	
 -0.705471	0.000278337	 -0.684482	0.000351936	  -0.59522	0.000267728	 -0.661724	0.000299334	 -0.661724	   7.48334	
 -0.857508	0.000276354	 -0.835486	0.000350213	 -0.745731	 0.0002654	 -0.812908	0.000297322	 -0.812908	   7.43305	
  -1.00935	0.000274301	 -0.986297	0.000348491	  -0.89709	0.000263022	 -0.964245	0.000295271	 -0.964245	   7.38178	
  -1.16126	0.000272189	  -1.13671	0.000346753	  -1.04829	0.000260626	  -1.11542	0.000293189	  -1.11542	   7.32973	
  -1.31206	0.000270028	   -1.2875	0.000344984	  -1.20007	0.000258241	  -1.26655	0.000291084	  -1.26655	   7.27711	
   -1.4621	0.000267834	  -1.43842	0.000343168	  -1.35218	0.000255888	  -1.41757	0.000288963	  -1.41757	   7.22409	
  -1.61312	0.000265631	  -1.58948	0.000341291	   -1.5046	0.000253584	  -1.56907	0.000286835	  -1.56907	   7.17088	
  -1.76389	0.000263444	  -1.74068	0.000339347	  -1.65636	0.000251336	  -1.72031	0.000284709	  -1.72031	   7.11773	
  -1.91539	0.000261275	  -1.89179	0.000337335	  -1.80824	0.000249134	  -1.87181	0.000282581	  -1.87181	   7.06453	
  -2.06712	0.000259133	  -2.04308	0.000335261	  -1.96003	0.000246961	  -2.02341	0.000280452	  -2.02341	   7.01129	
  -2.21786	0.000257034	  -2.19407	0.000333139	  -2.11245	0.000244797	  -2.17479	0.000278323	  -2.17479	   6.95809	
  -2.36843	0.000254963	  -2.34481	0.000330979	   -2.2638	0.000242617	  -2.32568	0.000276186	  -2.32568	   6.90466	
  -2.51862	0.000252902	  -2.49581	0.000328798	  -2.41562	0.000240397	  -2.47669	0.000274032	  -2.47669	   6.85081	
  -2.66874	0.000250838	  -2.64708	0.000326612	  -2.56789	0.000238118	   -2.6279	0.000271856	   -2.6279	    6.7964	
  -2.81904	0.000248758	  -2.79837	0.000324434	   -2.7189	0.000235761	  -2.77877	0.000269651	  -2.77877	   6.74127	
  -2.96833	0.000246638	  -2.94993	0.000322272	  -2.86974	0.000233322	  -2.92933	0.000267411	  -2.92933	   6.68527	
  -3.11768	0.000244461	  -3.10129	0.000320121	  -3.02019	0.000230807	  -3.07972	0.00026513	  -3.07972	   6.62824	
  -3.26663	0.000242229	  -3.25344	0.000317982	  -3.17104	0.000228227	  -3.23037	0.000262813	  -3.23037	   6.57032	
  -3.41523	0.000239929	  -3.40538	0.000315841	  -3.32202	0.000225607	  -3.38088	0.000260459	  -3.38088	   6.51148	
  -3.56474	0.000237556	   -3.5564	0.000313683	  -3.47243	0.000222969	  -3.53119	0.000258069	  -3.53119	   6.45174	
  -3.71438	0.000235127	  -3.70733	0.000311494	  -3.62257	0.000220337	  -3.68143	0.000255653	  -3.68143	   6.39132	
  -3.86466	0.000232654	  -3.85795	0.000309252	  -3.77129	0.00021773	   -3.8313	0.000253212	   -3.8313	    6.3303	
  -4.01507	0.000230142	  -4.00855	0.000306951	   -3.9204	0.000215228	  -3.98134	0.000250774	  -3.98134	   6.26935	
  -4.16513	0.000227614	  -4.15939	0.000304585	  -4.07014	0.000212792	  -4.13155	0.00024833	  -4.13155	   6.20825	
   -4.3149	0.000225087	  -4.30974	0.000302151	   -4.2188	0.000210388	  -4.28115	0.000245875	  -4.28115	   6.14689	
  -4.46417	0.000222572	  -4.46016	0.000299661	  -4.36721	0.000207981	  -4.43051	0.000243405	  -4.43051	   6.08511	
  -4.61253	0.000220077	  -4.60944	0.00029712	  -4.51422	0.00020554	  -4.57873	0.000240912	  -4.57873	   6.02281	
  -4.76129	0.00021761	  -4.75844	0.000294548	  -4.65901	0.000203017	  -4.72624	0.000238392	  -4.72624	   5.95979	
  -4.90899	0.000215167	  -4.90694	0.000291957	  -4.80178	0.000200307	  -4.87257	0.00023581	  -4.87257	   5.89525	
  -5.05624	0.000212734	  -5.05479	0.000289359	  -4.94515	0.000197418	  -5.01872	0.00023317	  -5.01872	   5.82926	
  -5.20308	0.000210304	  -5.20277	0.000286769	  -5.09007	0.000194371	  -5.16531	0.000230482	  -5.16531	   5.76204	
   -5.3496	0.000207862	  -5.35068	0.000284191	  -5.23358	0.000191125	  -5.31128	0.000227726	  -5.31128	   5.69315	
  -5.49632	0.000205383	  -5.49781	0.000281627	  -5.37557	0.000187694	  -5.45657	0.000224901	  -5.45657	   5.62252	
  -5.64279	0.000202855	  -5.64548	0.000279062	   -5.5208	0.000184167	  -5.60302	0.000222028	  -5.60302	    5.5507	
  -5.78929	0.000200273	  -5.79221	0.000276484	  -5.67072	0.000180648	  -5.75074	0.000219135	  -5.75074	   5.47837	
  -5.93561	0.000197626	  -5.93908	0.000273884	  -5.82043	0.000177217	  -5.89838	0.000216242	  -5.89838	   5.40605	
  -6.08109	0.000194916	  -6.08564	0.000271252	  -5.96923	0.000173992	  -6.04532	0.000213387	  -6.04532	   5.33467	
  -6.22679	0.000192156	  -6.23145	0.000268586	  -6.11892	0.000171044	  -6.19239	0.000210595	  -6.19239	   5.26488	
  -6.37199	0.000189358	  -6.37709	0.000265879	  -6.27185	0.000168384	  -6.34031	0.000207874	  -6.34031	   5.19685	
  -6.51654	0.000186535	  -6.52188	0.000263141	  -6.42586	0.000165993	   -6.4881	0.000205223	   -6.4881	   5.13057	
  -6.66173	0.000183706	  -6.66666	0.00026038	  -6.57798	0.000163824	  -6.63546	0.000202637	  -6.63546	   5.06592	
  -6.80611	0.000180888	  -6.81122	0.000257557	  -6.73103	0.000161752	  -6.78279	0.000200066	  -6.78279	   5.00164	
  -6.94978	0.000178086	  -6.95489	0.000254684	  -6.88374	0.000159653	  -6.92947	0.000197474	  -6.92947	   4.93686	
  -7.09331	0.000175309	  -7.09899	0.000251819	  -7.03568	0.000157423	  -7.07599	0.000194851	  -7.07599	   4.87127	
  -7.23676	0.000172557	  -7.24232	0.000248932	  -7.18596	0.000154975	  -7.22168	0.000192155	  -7.22168	   4.80386	
  -7.38065	0.000169821	  -7.38596	0.000246021	  -7.33617	0.000152196	  -7.36759	0.000189346	  -7.36759	   4.73364	
  -7.52453	0.00016709	  -7.52943	0.000243129	  -7.48538	0.000149029	  -7.51311	0.000186416	  -7.51311	    4.6604	
  -7.66794	0.000164348	  -7.67304	 0.0002403	  -7.63296	0.000145504	  -7.65798	0.000183384	  -7.65798	    4.5846	
   -7.8112	0.000161582	  -7.81632	0.00023752	  -7.78004	0.000141672	  -7.80252	0.000180258	  -7.80252	   4.50644	
  -7.95414	0.000158777	  -7.95863	0.000234805	  -7.92645	0.000137632	  -7.94641	0.000177071	  -7.94641	   4.42678	
  -8.09681	0.000155925	  -8.10058	0.000232174	  -8.07155	0.000133512	  -8.08965	0.00017387	  -8.08965	   4.34676	
  -8.23928	0.000153024	  -8.24319	0.000229602	  -8.21476	0.000129439	  -8.23241	0.000170688	  -8.23241	   4.26721	
  -8.38138	0.000150074	  -8.38599	0.000227078	  -8.35748	0.000125526	  -8.37495	0.000167559	  -8.37495	   4.18898	
  -8.52342	0.000147086	  -8.52804	0.000224575	  -8.50002	0.000121871	  -8.51716	0.00016451	  -8.51716	   4.11276	
  -8.66425	0.00014407	  -8.66944	0.000222038	  -8.64268	0.000118538	  -8.65879	0.000161549	  -8.65879	   4.03871	
  -8.80569	0.000141035	  -8.81029	0.000219407	  -8.78479	0.000115525	  -8.80026	0.000158656	  -8.80026	    3.9664	
  -8.94655	0.000137999	  -8.95189	0.000216652	  -8.92474	0.000112796	  -8.94106	0.000155816	  -8.94106	   3.89539	
  -9.08717	0.000134971	  -9.09351	0.000213738	  -9.06492	0.000110274	  -9.08186	0.000152994	  -9.08186	   3.82485	
  -9.22784	0.000131959	  -9.23494	0.00021065	  -9.20585	0.000107851	  -9.22288	0.000150153	  -9.22288	   3.75383	
  -9.36814	0.000128968	  -9.37578	0.000207395	  -9.34704	0.000105414	  -9.36365	0.000147259	  -9.36365	   3.68148	
  -9.50791	  0.000126	  -9.51588	0.000204007	  -9.48755	0.000102852	  -9.50378	0.000144286	  -9.50378	   3.60716	
  -9.64652	0.000123049	   -9.6568	0.000200542	  -9.62822	0.00010007	  -9.64385	0.00014122	  -9.64385	   3.53051	
  -9.78484	0.000120103	   -9.7966	0.000197063	  -9.76883	9.70111e-05	  -9.78342	0.000138059	  -9.78342	   3.45148	
  -9.92344	0.000117155	  -9.93637	0.000193654	  -9.90801	9.36686e-05	  -9.92261	0.000134826	  -9.92261	   3.37064	
  -10.0609	0.000114192	  -10.0762	0.000190348	  -10.0459	9.00743e-05	   -10.061	0.000131538	   -10.061	   3.28845	
  -10.1971	0.000111199	  -10.2151	0.000187181	  -10.1832	8.62709e-05	  -10.1985	0.000128217	  -10.1985	   3.20543	
   -10.333	0.000108169	  -10.3533	0.00018419	  -10.3204	8.23704e-05	  -10.3356	0.00012491	  -10.3356	   3.12275	
  -10.4677	0.000105097	  -10.4906	0.00018137	   -10.457	7.84867e-05	  -10.4718	0.000121651	  -10.4718	   3.04128	
  -10.6023	0.000101978	  -10.6274	0.000178674	  -10.5932	7.46935e-05	  -10.6076	0.000118448	  -10.6076	   2.96121	
  -10.7364	9.88198e-05	  -10.7641	0.000176056	  -10.7279	7.10813e-05	  -10.7428	0.000115319	  -10.7428	   2.88297	
  -10.8703	9.56256e-05	  -10.9001	0.000173458	  -10.8617	6.77167e-05	  -10.8774	0.000112267	  -10.8774	   2.80667	
  -11.0035	9.24062e-05	   -11.035	0.000170792	   -10.995	6.45986e-05	  -11.0112	0.000109266	  -11.0112	   2.73164	
  -11.1351	8.91733e-05	  -11.1694	  0.000168	  -11.1288	6.16924e-05	  -11.1444	0.000106289	  -11.1444	   2.65721	
  -11.2667	8.59378e-05	  -11.3028	0.000165051	  -11.2613	5.89492e-05	  -11.2769	0.000103313	  -11.2769	   2.58282	
  -11.3982	8.2711e-05	  -11.4365	0.00016192	  -11.3943	5.62794e-05	  -11.4096	0.000100303	  -11.4096	   2.50758	
  -11.5298	7.9495e-05	  -11.5694	0.000158595	  -11.5277	5.35682e-05	  -11.5423	9.72194e-05	  -11.5423	   2.43048	
  -11.6606	7.62968e-05	  -11.7011	0.000155072	  -11.6598	5.07279e-05	  -11.6738	9.40323e-05	  -11.6738	   2.35081	
  -11.7908	7.31143e-05	  -11.8323	0.000151432	  -11.7917	4.7688e-05	   -11.805	9.07446e-05	   -11.805	   2.26862	
  -11.9216	6.99398e-05	  -11.9616	0.000147736	  -11.9232	4.43814e-05	  -11.9354	8.73523e-05	  -11.9354	   2.18381	
  -12.0519	6.67685e-05	  -12.0908	0.000144057	   -12.054	4.08092e-05	  -12.0656	8.38783e-05	  -12.0656	   2.09696	
  -12.1813	6.35887e-05	  -12.2196	0.000140467	  -12.1851	3.70158e-05	  -12.1954	8.03571e-05	  -12.1954	   2.00893	
  -12.3108	6.03921e-05	  -12.3476	0.000137007	  -12.3154	3.30564e-05	  -12.3246	7.68186e-05	  -12.3246	   1.92047	
  -12.4398	5.71709e-05	   -12.475	0.000133729	   -12.445	2.90157e-05	  -12.4533	7.3305e-05	  -12.4533	   1.83263	
  -12.5675	5.39165e-05	  -12.6016	0.000130634	   -12.573	2.49969e-05	  -12.5807	6.98493e-05	  -12.5807	   1.74623	
  -12.6945	5.06296e-05	  -12.7274	0.000127695	  -12.7006	2.10958e-05	  -12.7075	6.64736e-05	  -12.7075	   1.66184	
   -12.821	4.73121e-05	  -12.8518	0.000124865	  -12.8282	1.73757e-05	  -12.8337	6.31844e-05	  -12.8337	   1.57961	
  -12.9476	4.40038e-05	  -12.9757	0.000122075	  -12.9547	1.38859e-05	  -12.9593	5.99883e-05	  -12.9593	   1.49971	
  -13.0736	4.06874e-05	  -13.1005	0.000119256	  -13.0812	1.06394e-05	  -13.0851	5.6861e-05	  -13.0851	   1.42153	
   -13.199	3.73593e-05	   -13.225	0.000116346	  -13.2074	7.59612e-06	  -13.2105	5.37671e-05	  -13.2105	   1.34418	
  -13.3246	3.40209e-05	  -13.3489	0.000113279	  -13.3329	4.70072e-06	  -13.3354	5.0667e-05	  -13.3354	   1.26668	
  -13.4483	3.06678e-05	  -13.4727	0.000110005	  -13.4577	1.87036e-06	  -13.4596	4.75145e-05	  -13.4596	   1.18786	
  -13.5716	2.72967e-05	  -13.5966	0.000106496	  -13.5827	-9.92533e-07	  -13.5836	4.42668e-05	  -13.5836	   1.10667	
  -13.6942	2.38734e-05	  -13.7203	0.000102775	  -13.7073	-3.97845e-06	  -13.7072	4.08899e-05	  -13.7072	   1.02225	
  -13.8159	2.03953e-05	  -13.8428	9.88809e-05	  -13.8312	-7.15222e-06	    -13.83	3.73746e-05	    -13.83	  0.934366	
  -13.9377	1.68675e-05	   -13.965	9.48654e-05	  -13.9541	-1.05539e-05	  -13.9523	3.37264e-05	  -13.9523	  0.843159	
  -14.0595	1.32887e-05	   -14.087	9.0805e-05	  -14.0767	-1.41948e-05	  -14.0744	2.99663e-05	  -14.0744	  0.749157	
  -14.1805	9.67938e-06	   -14.208	8.67766e-05	  -14.1983	-1.80375e-05	  -14.1956	2.61395e-05	  -14.1956	  0.653487	
  -14.3013	6.04892e-06	   -14.329	8.28551e-05	  -14.3194	-2.20183e-05	  -14.3166	2.22953e-05	  -14.3166	  0.557382	
  -14.4208	2.39454e-06	  -14.4492	7.90975e-05	  -14.4412	-2.6068e-05	   -14.437	1.84747e-05	   -14.437	  0.461867	
  -14.5398	-1.25326e-06	  -14.5681	7.55394e-05	  -14.5616	-3.00953e-05	  -14.5565	1.47303e-05	  -14.5565	  0.368257	
  -14.6583	-4.86517e-06	  -14.6871	7.2175e-05	  -14.6827	-3.4014e-05	  -14.6761	1.10986e-05	  -14.6761	  0.277465	
  -14.7758	-8.42053e-06	  -14.8048	6.89734e-05	  -14.8033	-3.7767e-05	  -14.7946	7.59529e-06	  -14.7946	  0.189882	
  -14.8929	-1.19175e-05	  -14.9218	6.58844e-05	  -14.9231	-4.13157e-05	  -14.9126	4.21706e-06	  -14.9126	  0.105427	
  -15.0093	-1.53568e-05	  -15.0387	6.28343e-05	  -15.0424	-4.46489e-05	  -15.0301	9.42865e-07	  -15.0301	 0.0235716	
  -15.1252	-1.87373e-05	  -15.1547	5.97463e-05	  -15.1603	-4.77898e-05	  -15.1467	-2.26027e-06	  -15.1467	-0.0565066	
  -15.2405	-2.2081e-05	  -15.2714	5.65441e-05	  -15.2771	-5.07959e-05	   -15.263	-5.44428e-06	   -15.263	 -0.136107	
  -15.3546	-2.54088e-05	   -15.387	5.31809e-05	  -15.3939	-5.37347e-05	  -15.3785	-8.65421e-06	  -15.3785	 -0.216355	
  -15.4691	-2.87414e-05	  -15.5033	4.96295e-05	  -15.5091	-5.66819e-05	  -15.4938	-1.19313e-05	  -15.4938	 -0.298282	
  -15.5822	-3.21097e-05	  -15.6194	4.58921e-05	  -15.6231	-5.97195e-05	  -15.6082	-1.53124e-05	  -15.6082	 -0.382809	
   -15.695	-3.5526e-05	  -15.7339	4.2005e-05	  -15.7358	-6.29047e-05	  -15.7216	-1.88086e-05	  -15.7216	 -0.470214	
  -15.8074	-3.89929e-05	  -15.8481	3.80167e-05	  -15.8478	-6.627e-05	  -15.8344	-2.24154e-05	  -15.8344	 -0.560385	
  -15.9181	-4.25207e-05	  -15.9609	3.39952e-05	    -15.96	-6.98271e-05	  -15.9463	-2.61175e-05	  -15.9463	 -0.652938	
  -16.0284	-4.61061e-05	  -16.0728	3.00145e-05	   -16.071	-7.35542e-05	  -16.0574	-2.98819e-05	  -16.0574	 -0.747049	
  -16.1386	-4.9736e-05	  -16.1843	2.61379e-05	  -16.1815	-7.74043e-05	  -16.1681	-3.36675e-05	  -16.1681	 -0.841687	
  -16.2492	-5.3385e-05	  -16.2951	2.24094e-05	  -16.2922	-8.13129e-05	  -16.2788	-3.74295e-05	  -16.2788	 -0.935737	
  -16.3602	-5.70304e-05	   -16.405	1.88454e-05	   -16.402	-8.52088e-05	  -16.3891	-4.11313e-05	  -16.3891	  -1.02828	
  -16.4687	-6.06542e-05	  -16.5137	1.54479e-05	  -16.5128	-8.90215e-05	  -16.4984	-4.47426e-05	  -16.4984	  -1.11857	
  -16.5767	-6.42332e-05	  -16.6216	1.2181e-05	  -16.6216	-9.26905e-05	  -16.6066	-4.82476e-05	  -16.6066	  -1.20619	
  -16.6832	-6.77356e-05	  -16.7291	8.97916e-06	  -16.7307	-9.61858e-05	  -16.7143	-5.16474e-05	  -16.7143	  -1.29118	
  -16.7891	-7.11543e-05	  -16.8352	5.77894e-06	  -16.8393	-9.94993e-05	  -16.8212	-5.49582e-05	  -16.8212	  -1.37396	
  -16.8952	-7.45115e-05	  -16.9404	2.52149e-06	  -16.9475	-0.000102644	  -16.9277	-5.82115e-05	  -16.9277	  -1.45529	
  -17.0006	-7.78109e-05	  -17.0443	-8.496e-07	  -17.0546	-0.000105668	  -17.0332	-6.14427e-05	  -17.0332	  -1.53607	
  -17.1055	-8.10535e-05	  -17.1468	-4.37175e-06	  -17.1608	-0.000108625	  -17.1377	-6.46836e-05	  -17.1377	  -1.61709	
  -17.2102	-8.42769e-05	  -17.2486	-8.05387e-06	  -17.2664	-0.000111585	  -17.2417	-6.79718e-05	  -17.2417	   -1.6993	
  -17.3138	-8.75177e-05	  -17.3492	-1.18802e-05	  -17.3719	-0.000114613	   -17.345	-7.13371e-05	   -17.345	  -1.78343	
  -17.4169	-9.07878e-05	    -17.45	-1.58243e-05	   -17.475	-0.000117766	  -17.4473	-7.47927e-05	  -17.4473	  -1.86982	
  -17.5194	-9.41183e-05	  -17.5502	-1.98356e-05	  -17.5777	-0.000121079	  -17.5491	-7.83444e-05	  -17.5491	  -1.95861	
  -17.6208	-9.75214e-05	  -17.6492	-2.38551e-05	  -17.6796	-0.00012456	  -17.6499	-8.19788e-05	  -17.6499	  -2.04947	
  -17.7211	-0.000100991	  -17.7485	-2.7834e-05	  -17.7811	-0.000128189	  -17.7502	-8.56715e-05	  -17.7502	  -2.14179	
  -17.8191	-0.00010452	  -17.8468	-3.17347e-05	  -17.8821	-0.000131926	  -17.8493	-8.93935e-05	  -17.8493	  -2.23484	
  -17.9167	-0.00010809	  -17.9445	-3.55161e-05	   -17.982	-0.000135711	  -17.9477	-9.31057e-05	  -17.9477	  -2.32764	
  -18.0138	-0.000111665	  -18.0421	-3.9158e-05	  -18.0817	-0.000139483	  -18.0459	-9.67685e-05	  -18.0459	  -2.41921	
  -18.1104	-0.000115184	  -18.1395	-4.2666e-05	  -18.1803	-0.000143174	  -18.1434	-0.000100341	  -18.1434	  -2.50853	
  -18.2067	-0.000118619	  -18.2362	-4.60594e-05	  -18.2781	-0.000146737	  -18.2404	-0.000103805	  -18.2404	  -2.59513	
   -18.303	-0.00012195	  -18.3322	-4.93852e-05	  -18.3754	-0.000150136	  -18.3369	-0.000107157	  -18.3369	  -2.67893	
  -18.3991	-0.000125161	  -18.4264	-5.27008e-05	  -18.4714	-0.00015336	  -18.4323	-0.000110407	  -18.4323	  -2.76018	
  -18.4948	-0.000128254	  -18.5208	-5.60498e-05	  -18.5674	-0.000156425	  -18.5277	-0.000113576	  -18.5277	  -2.83941	
  -18.5897	-0.000131259	  -18.6147	-5.94762e-05	   -18.663	-0.000159363	  -18.6225	-0.000116699	  -18.6225	  -2.91749	
   -18.685	-0.000134138	  -18.7083	-6.30273e-05	  -18.7566	-0.000162228	  -18.7167	-0.000119798	  -18.7167	  -2.99494	
  -18.7794	-0.000136959	  -18.8013	-6.67245e-05	   -18.849	-0.00016508	  -18.8099	-0.000122921	  -18.8099	  -3.07303	
  -18.8724	-0.000139795	  -18.8936	-7.05576e-05	  -18.9406	-0.000167972	  -18.9022	-0.000126108	  -18.9022	  -3.15271	
  -18.9654	-0.000142734	  -18.9857	-7.44969e-05	  -19.0315	-0.00017096	  -18.9942	-0.000129397	  -18.9942	  -3.23493	
  -19.0566	-0.000145776	  -19.0765	-7.85127e-05	  -19.1232	-0.000174073	  -19.0854	-0.000132787	  -19.0854	  -3.31969	
   -19.145	-0.000148954	  -19.1669	-8.25458e-05	  -19.2132	-0.000177322	   -19.175	-0.000136274	   -19.175	  -3.40684	
  -19.2299	-0.000152338	  -19.2569	-8.65299e-05	  -19.3021	-0.000180695	   -19.263	-0.000139854	   -19.263	  -3.49636	
  -19.3144	-0.000155926	   -19.346	-9.04137e-05	  -19.3899	-0.000184162	  -19.3501	-0.000143501	  -19.3501	  -3.58752	
  -19.4024	-0.000159682	  -19.4343	-9.41498e-05	  -19.4763	-0.00018768	  -19.4376	-0.000147171	  -19.4376	  -3.67927	
  -19.4882	-0.000163553	  -19.5217	-9.77112e-05	  -19.5632	-0.000191189	  -19.5244	-0.000150818	  -19.5244	  -3.77044	
  -19.5714	-0.00016744	  -19.6084	-0.000101101	  -19.6484	-0.000194638	  -19.6094	-0.000154393	  -19.6094	  -3.85983	
  -19.6545	-0.000171273	  -19.6952	-0.000104345	   -19.733	-0.000197981	  -19.6942	-0.000157866	  -19.6942	  -3.94666	
  -19.7418	-0.000174993	    -19.78	-0.000107481	   -19.817	-0.000201184	  -19.7796	-0.000161219	  -19.7796	  -4.03048	
  -19.8311	-0.000178527	  -19.8637	-0.000110556	  -19.8992	-0.00020424	  -19.8647	-0.000164441	  -19.8647	  -4.11103	
  -19.9173	-0.000181809	  -19.9461	-0.000113643	  -19.9815	-0.000207158	  -19.9483	-0.000167537	  -19.9483	  -4.18842	
  -20.0021	-0.000184801	  -20.0278	-0.000116793	  -20.0631	-0.000209961	   -20.031	-0.000170518	   -20.031	  -4.26296	
  -20.0895	-0.000187537	  -20.1083	-0.000120049	  -20.1438	-0.00021269	  -20.1139	-0.000173426	  -20.1139	  -4.33564	
  -20.1771	-0.000190069	  -20.1878	-0.000123439	  -20.2235	-0.000215393	  -20.1961	-0.0001763	  -20.1961	  -4.40751	
  -20.2626	-0.000192461	  -20.2667	-0.000126968	  -20.3019	-0.000218119	  -20.2771	-0.000179183	  -20.2771	  -4.47957	
  -20.3472	-0.000194807	   -20.345	-0.000130614	  -20.3804	-0.000220909	  -20.3575	-0.00018211	  -20.3575	  -4.55275	
  -20.4306	-0.000197185	  -20.4219	-0.000134341	  -20.4573	-0.000223792	  -20.4366	-0.000185106	  -20.4366	  -4.62765	
  -20.5135	-0.000199692	  -20.4985	-0.000138096	  -20.5339	-0.000226785	  -20.5153	-0.000188191	  -20.5153	  -4.70477	
  -20.5941	-0.000202392	  -20.5741	-0.000141818	  -20.6093	-0.000229882	  -20.5925	-0.000191364	  -20.5925	   -4.7841	
  -20.6734	-0.000205314	  -20.6496	-0.000145459	  -20.6841	-0.000233064	   -20.669	-0.000194612	   -20.669	   -4.8653	
  -20.7525	-0.00020844	  -20.7243	-0.000148977	   -20.758	-0.00023629	  -20.7449	-0.000197902	  -20.7449	  -4.94756	
  -20.8308	-0.000211724	  -20.7981	-0.000152348	   -20.832	-0.000239504	  -20.8203	-0.000201192	  -20.8203	   -5.0298	
  -20.9084	-0.00021511	  -20.8708	-0.000155561	   -20.904	-0.000242655	  -20.8944	-0.000204442	  -20.8944	  -5.11105	
  -20.9844	-0.000218507	  -20.9433	-0.000158639	  -20.9753	-0.000245696	  -20.9677	-0.000207614	  -20.9677	  -5.19034	
  -21.0588	-0.000221827	  -21.0143	-0.000161619	  -21.0458	-0.000248588	  -21.0396	-0.000210678	  -21.0396	  -5.26695	
  -21.1319	-0.000224991	  -21.0852	-0.000164539	  -21.1152	-0.000251315	  -21.1108	-0.000213615	  -21.1108	  -5.34038	
  -21.2023	-0.000227937	  -21.1552	-0.000167448	  -21.1844	-0.000253881	  -21.1806	-0.000216422	  -21.1806	  -5.41055	
  -21.2727	-0.000230664	  -21.2242	-0.000170391	  -21.2527	-0.000256313	  -21.2499	-0.000219122	  -21.2499	  -5.47806	
  -21.3439	-0.000233185	  -21.2933	-0.000173398	  -21.3196	-0.000258653	   -21.319	-0.000221745	   -21.319	  -5.54363	
  -21.4142	-0.000235501	   -21.361	-0.000176494	  -21.3858	-0.000260954	   -21.387	-0.000224316	   -21.387	  -5.60791	
  -21.4828	-0.000237687	  -21.4282	-0.000179684	  -21.4517	-0.000263272	  -21.4542	-0.000226881	  -21.4542	  -5.67202	
  -21.5495	-0.000239835	  -21.4937	-0.000182952	  -21.5172	-0.000265652	  -21.5202	-0.00022948	  -21.5202	  -5.73699	
  -21.6165	-0.000241993	  -21.5585	-0.000186272	  -21.5821	-0.000268122	  -21.5857	-0.000232129	  -21.5857	  -5.80323	
  -21.6827	-0.000244201	  -21.6235	-0.000189609	  -21.6463	-0.000270714	  -21.6508	-0.000234841	  -21.6508	  -5.87103	
  -21.7477	-0.000246523	  -21.6866	-0.000192921	  -21.7105	-0.000273428	  -21.7149	-0.000237624	  -21.7149	   -5.9406	
  -21.8125	-0.000248992	  -21.7496	-0.000196163	  -21.7731	-0.000276237	  -21.7784	-0.000240464	  -21.7784	   -6.0116	
  -21.8763	-0.000251571	  -21.8128	-0.000199317	  -21.8348	-0.000279103	  -21.8413	-0.00024333	  -21.8413	  -6.08326	
  -21.9396	-0.000254259	  -21.8748	-0.000202362	  -21.8954	-0.000281982	  -21.9033	-0.000246201	  -21.9033	  -6.15502	
  -22.0012	-0.000257037	  -21.9362	-0.000205276	   -21.955	-0.000284832	  -21.9641	-0.000249048	  -21.9641	   -6.2262	
  -22.0606	-0.000259829	  -21.9962	-0.000208078	  -22.0147	-0.000287602	  -22.0238	-0.000251836	  -22.0238	  -6.29591	
  -22.1191	-0.000262603	  -22.0554	-0.000210793	  -22.0743	-0.000290252	  -22.0829	-0.000254549	  -22.0829	  -6.36373	
  -22.1763	-0.000265339	  -22.1137	-0.000213442	  -22.1334	-0.000292771	  -22.1411	-0.000257184	  -22.1411	   -6.4296	
  -22.2325	-0.000268001	  -22.1717	-0.000216063	  -22.1914	-0.000295153	  -22.1986	-0.000259739	  -22.1986	  -6.49347	
  -22.2877	-0.000270561	  -22.2286	-0.000218694	  -22.2486	-0.000297412	   -22.255	-0.000262222	   -22.255	  -6.55556	
   -22.341	-0.000273036	  -22.2835	-0.000221375	  -22.3067	-0.000299576	  -22.3104	-0.000264662	  -22.3104	  -6.61656	
  -22.3931	-0.000275439	  -22.3366	-0.000224114	  -22.3636	-0.000301685	  -22.3644	-0.000267079	  -22.3644	  -6.67698	
  -22.4447	-0.000277755	  -22.3892	-0.000226916	  -22.4204	-0.000303777	  -22.4181	-0.000269482	  -22.4181	  -6.73706	
  -22.4949	-0.000280006	  -22.4413	-0.000229788	  -22.4758	-0.000305887	  -22.4707	-0.000271894	  -22.4707	  -6.79734	
  -22.5459	-0.000282219	  -22.4927	-0.000232698	  -22.5293	-0.000308053	  -22.5226	-0.000274323	  -22.5226	  -6.85808	
  -22.5953	-0.000284404	  -22.5428	-0.000235611	  -22.5828	-0.000310292	  -22.5736	-0.000276769	  -22.5736	  -6.91923	
  -22.6437	-0.000286589	  -22.5921	-0.000238501	  -22.6357	-0.000312608	  -22.6238	-0.000279233	  -22.6238	  -6.98081	
  -22.6912	-0.000288798	  -22.6402	-0.000241325	  -22.6879	-0.000314996	  -22.6731	-0.000281706	  -22.6731	  -7.04266	
  -22.7378	-0.000291038	   -22.687	-0.000244052	  -22.7397	-0.000317435	  -22.7215	-0.000284175	  -22.7215	  -7.10438	
   -22.784	-0.000293309	  -22.7334	-0.000246668	  -22.7898	-0.000319892	  -22.7691	-0.000286623	  -22.7691	  -7.16558	
  -22.8292	-0.000295617	  -22.7793	-0.000249178	   -22.839	-0.00032234	  -22.8158	-0.000289045	  -22.8158	  -7.22613	
  -22.8738	-0.000297957	  -22.8246	-0.000251587	   -22.887	-0.000324722	  -22.8618	-0.000291422	  -22.8618	  -7.28555	
  -22.9182	-0.000300301	  -22.8691	-0.00025392	  -22.9344	-0.000327003	  -22.9072	-0.000293741	  -22.9072	  -7.34353	
  -22.9611	-0.000302638	  -22.9121	-0.000256222	  -22.9806	-0.000329174	  -22.9513	-0.000296011	  -22.9513	  -7.40029	
  -23.0032	-0.000304956	  -22.9543	-0.000258519	  -23.0256	-0.000331237	  -22.9943	-0.000298238	  -22.9943	  -7.45594	
  -23.0437	-0.000307223	  -22.9963	-0.000260847	  -23.0706	-0.000333178	  -23.0369	-0.000300416	  -23.0369	   -7.5104	
  -23.0828	-0.000309428	  -23.0369	-0.000263235	  -23.1147	-0.00033503	  -23.0781	-0.000302564	  -23.0781	   -7.5641	
  -23.1218	-0.000311564	  -23.0764	-0.000265692	  -23.1573	-0.000336843	  -23.1185	-0.0003047	  -23.1185	  -7.61749	
   -23.159	-0.000313623	  -23.1149	-0.000268219	  -23.1984	-0.000338643	  -23.1574	-0.000306828	  -23.1574	  -7.67071	
  -23.1953	-0.00031561	  -23.1524	-0.000270805	  -23.2379	-0.000340474	  -23.1952	-0.000308963	  -23.1952	  -7.72407	
  -23.2298	-0.000317544	  -23.1894	-0.000273423	  -23.2766	-0.00034237	  -23.2319	-0.000311112	  -23.2319	   -7.7778	
  -23.2638	-0.00031944	  -23.2257	-0.000276038	  -23.3147	-0.000344355	  -23.2681	-0.000313278	  -23.2681	  -7.83194	
  -23.2975	-0.000321308	  -23.2615	-0.00027862	  -23.3511	-0.000346424	  -23.3034	-0.000315451	  -23.3034	  -7.88627	
  -23.3301	-0.000323165	   -23.296	-0.000281148	  -23.3864	-0.000348571	  -23.3375	-0.000317628	  -23.3375	   -7.9407	
  -23.3623	-0.000325035	  -23.3292	-0.00028359	  -23.4208	-0.000350767	  -23.3707	-0.000319797	  -23.3707	  -7.99493	
  -23.3937	-0.000326919	  -23.3615	-0.000285933	  -23.4539	-0.000352957	   -23.403	-0.000321936	   -23.403	   -8.0484	
  -23.4239	-0.000328822	  -23.3924	-0.000288184	   -23.486	-0.000355098	  -23.4341	-0.000324035	  -23.4341	  -8.10087	
  -23.4543	-0.000330746	  -23.4235	-0.000290342	  -23.5165	-0.000357151	  -23.4648	-0.000326079	  -23.4648	  -8.15199	
  -23.4827	-0.000332674	  -23.4539	-0.000292446	   -23.546	-0.000359076	  -23.4942	-0.000328065	  -23.4942	  -8.20163	
  -23.5105	-0.000334595	  -23.4835	-0.000294526	  -23.5745	-0.000360849	  -23.5228	-0.00032999	  -23.5228	  -8.24975	
   -23.537	-0.000336497	   -23.512	-0.000296599	  -23.6018	-0.000362473	  -23.5503	-0.000331856	  -23.5503	   -8.2964	
  -23.5629	-0.000338367	  -23.5391	-0.000298688	  -23.6288	-0.000363961	  -23.5769	-0.000333672	  -23.5769	   -8.3418	
  -23.5885	-0.000340197	  -23.5651	-0.00030083	  -23.6541	-0.000365347	  -23.6026	-0.000335458	  -23.6026	  -8.38645	
  -23.6126	-0.000341982	  -23.5911	-0.000303016	  -23.6792	-0.000366682	  -23.6276	-0.000337227	  -23.6276	  -8.43066	
  -23.6359	-0.000343729	  -23.6155	-0.000305225	  -23.7035	-0.000368018	  -23.6516	-0.00033899	  -23.6516	  -8.47476	
  -23.6586	-0.000345436	  -23.6392	-0.000307458	  -23.7267	-0.000369401	  -23.6748	-0.000340765	  -23.6748	  -8.51913	
  -23.6804	-0.000347106	  -23.6623	-0.000309693	  -23.7486	-0.000370878	  -23.6971	-0.000342559	  -23.6971	  -8.56398	
  -23.7016	-0.000348757	  -23.6838	-0.000311881	  -23.7696	-0.000372479	  -23.7183	-0.000344372	  -23.7183	  -8.60931	
  -23.7224	-0.000350393	  -23.7048	 -0.000314	  -23.7898	-0.000374206	   -23.739	-0.0003462	   -23.739	  -8.65499	
  -23.7424	-0.000352024	   -23.725	-0.000316047	  -23.8097	-0.000376048	   -23.759	-0.00034804	   -23.759	  -8.70099	
  -23.7632	-0.000353657	  -23.7452	-0.000317994	  -23.8279	-0.00037798	  -23.7788	-0.000349877	  -23.7788	  -8.74693	
   -23.783	-0.000355295	  -23.7642	-0.00031985	  -23.8453	-0.000379955	  -23.7975	-0.0003517	  -23.7975	   -8.7925	
  -23.8012	-0.000356936	   -23.781	-0.000321594	  -23.8612	-0.000381919	  -23.8144	-0.000353483	  -23.8144	  -8.83708	
  -23.8189	-0.000358575	  -23.7968	-0.000323375	  -23.8763	-0.000383824	  -23.8307	-0.000355258	  -23.8307	  -8.88145	
  -23.8345	-0.00036021	   -23.812	-0.000325211	  -23.8921	-0.000385623	  -23.8462	-0.000357015	  -23.8462	  -8.92537	
  -23.8487	-0.00036183	  -23.8262	-0.000327121	  -23.9062	-0.000387277	  -23.8604	-0.000358742	  -23.8604	  -8.96856	
  -23.8616	-0.000363425	  -23.8391	-0.00032912	  -23.9202	-0.000388778	  -23.8736	-0.000360441	  -23.8736	  -9.01103	
  -23.8738	-0.000364993	  -23.8474	-0.000331215	  -23.9334	-0.00039013	  -23.8849	-0.000362113	  -23.8849	  -9.05282	
  -23.8855	-0.000366521	  -23.8525	-0.000333483	  -23.9458	-0.000391346	  -23.8946	-0.000363783	  -23.8946	  -9.09458	
  -23.8969	-0.000368007	  -23.8583	-0.000335863	  -23.9571	-0.000392477	  -23.9041	-0.000365449	  -23.9041	  -9.13623	
  -23.9079	-0.000369449	  -23.8648	-0.000338318	  -23.9669	-0.000393573	  -23.9132	-0.000367114	  -23.9132	  -9.17784	
  -23.9176	-0.00037085	  -23.8689	-0.000340811	  -23.9767	-0.000394669	  -23.9211	-0.000368777	  -23.9211	  -9.21942	
  -23.9267	-0.000372219	    -23.87	-0.00034325	  -23.9855	-0.000395815	  -23.9274	-0.000370428	  -23.9274	   -9.2607	
  -23.9347	-0.000373562	  -23.8728	-0.00034561	  -23.9922	-0.000397049	  -23.9332	-0.000372074	  -23.9332	  -9.30184	
  -23.9411	-0.000374892	  -23.8802	-0.000347868	  -23.9985	-0.000398382	  -23.9399	-0.000373714	  -23.9399	  -9.34285	
  -23.9473	-0.000376213	  -23.8866	-0.000349972	  -24.0036	-0.000399801	  -23.9458	-0.000375329	  -23.9458	  -9.38322	
  -23.9525	-0.000377529	  -23.8897	-0.000351929	   -24.007	-0.000401292	  -23.9498	-0.000376917	  -23.9498	  -9.42292	
  -23.9561	-0.000378851	  -23.8936	-0.000353745	  -24.0094	-0.000402835	   -23.953	-0.000378477	   -23.953	  -9.46193	
  -23.9585	-0.000380177	   -23.901	-0.000355487	  -24.0107	-0.00040437	  -23.9567	-0.000380011	  -23.9567	  -9.50028	
  -23.9601	-0.000381505	  -23.9089	-0.000357184	  -24.0112	-0.000405863	  -23.9601	-0.000381517	  -23.9601	  -9.53794	
  -23.9606	-0.000382832	  -23.9141	-0.000358876	  -24.0108	-0.000407287	  -23.9619	-0.000382998	  -23.9619	  -9.57496	
  -23.9606	-0.000384147	  -23.9185	-0.000360635	  -24.0096	-0.000408602	  -23.9629	-0.000384461	  -23.9629	  -9.61153	
  -23.9594	-0.000385445	  -23.9227	-0.000362491	  -24.0085	-0.000409791	  -23.9635	-0.000385909	  -23.9635	  -9.64772	
  -23.9572	-0.000386714	  -23.9246	-0.000364479	  -24.0052	-0.000410862	  -23.9623	-0.000387352	  -23.9623	   -9.6838	
  -23.9533	-0.000387952	  -23.9243	-0.000366601	  -24.0021	-0.000411835	  -23.9599	-0.000388796	  -23.9599	   -9.7199	
  -23.9482	-0.000389156	  -23.9216	-0.000368823	  -23.9984	-0.000412734	  -23.9561	-0.000390238	  -23.9561	  -9.75595	
  -23.9423	-0.000390323	  -23.9179	-0.000371103	  -23.9929	-0.000413598	   -23.951	-0.000391675	   -23.951	  -9.79187	
  -23.9354	-0.000391458	  -23.9125	-0.000373388	  -23.9865	-0.00041447	  -23.9448	-0.000393106	  -23.9448	  -9.82764	
  -23.9279	-0.000392564	  -23.9055	-0.000375644	  -23.9791	-0.000415376	  -23.9375	-0.000394528	  -23.9375	   -9.8632	
  -23.9197	-0.000393647	  -23.8977	-0.000377811	  -23.9702	-0.000416346	  -23.9292	-0.000395935	  -23.9292	  -9.89837	
  -23.9095	-0.000394716	  -23.8885	-0.000379843	  -23.9606	-0.000417398	  -23.9195	-0.000397319	  -23.9195	  -9.93298	
  -23.8983	-0.000395773	  -23.8777	-0.000381725	  -23.9497	-0.000418522	  -23.9086	-0.000398674	  -23.9086	  -9.96684	
  -23.8862	-0.000396826	  -23.8666	-0.000383451	  -23.9382	-0.00041971	   -23.897	-0.000399996	   -23.897	  -9.99989	
  -23.8733	-0.00039788	  -23.8539	-0.000385036	  -23.9256	-0.000420934	  -23.8843	-0.000401283	  -23.8843	  -10.0321	
  -23.8598	-0.000398933	  -23.8418	-0.000386522	   -23.912	-0.00042216	  -23.8712	-0.000402538	  -23.8712	  -10.0635	
  -23.8449	-0.000399985	  -23.8282	-0.000387948	  -23.8976	-0.000423349	  -23.8569	-0.000403761	  -23.8569	   -10.094	
  -23.8296	-0.000401027	  -23.8125	-0.000389365	  -23.8814	-0.000424473	  -23.8412	-0.000404955	  -23.8412	  -10.1239	
  -23.8132	-0.000402055	  -23.7964	-0.000390822	  -23.8646	-0.000425508	  -23.8247	-0.000406129	  -23.8247	  -10.1532	
  -23.7961	-0.000403062	    -23.78	-0.000392356	  -23.8468	-0.000426437	  -23.8076	-0.000407285	  -23.8076	  -10.1821	
  -23.7782	-0.000404044	  -23.7633	-0.000393981	  -23.8265	-0.000427261	  -23.7893	-0.000408429	  -23.7893	  -10.2107	
  -23.7593	-0.000404999	  -23.7454	-0.000395696	  -23.8052	-0.000427997	    -23.77	-0.000409564	    -23.77	  -10.2391	
  -23.7398	-0.000405917	  -23.7254	-0.000397497	  -23.7824	-0.000428664	  -23.7492	-0.000410693	  -23.7492	  -10.2673	
    -23.72	-0.000406799	   -23.705	-0.000399352	  -23.7584	-0.000429292	  -23.7278	-0.000411815	  -23.7278	  -10.2954	
  -23.6992	-0.000407647	  -23.6835	-0.000401217	  -23.7342	-0.000429917	  -23.7056	-0.000412927	  -23.7056	  -10.3232	
  -23.6781	-0.000408461	  -23.6602	-0.000403051	  -23.7089	-0.000430565	  -23.6824	-0.000414026	  -23.6824	  -10.3506	
  -23.6556	-0.000409249	  -23.6357	-0.000404807	  -23.6829	-0.000431256	   -23.658	-0.000415104	   -23.658	  -10.3776	
  -23.6331	-0.000410013	  -23.6098	-0.000406451	  -23.6555	-0.000432004	  -23.6328	-0.000416156	  -23.6328	  -10.4039	
    -23.61	-0.000410761	  -23.5834	-0.000407971	  -23.6276	-0.000432811	   -23.607	-0.000417181	   -23.607	  -10.4295	
  -23.5849	-0.000411495	   -23.556	-0.000409356	  -23.5994	-0.000433665	  -23.5801	-0.000418172	  -23.5801	  -10.4543	
  -23.5596	-0.000412216	  -23.5275	-0.000410617	    -23.57	-0.000434544	  -23.5523	-0.000419126	  -23.5523	  -10.4781	
  -23.5333	-0.000412931	  -23.4989	-0.000411787	  -23.5398	-0.000435424	   -23.524	-0.000420047	   -23.524	  -10.5012	
   -23.506	-0.000413638	  -23.4691	-0.0004129	  -23.5087	-0.000436274	  -23.4946	-0.000420937	  -23.4946	  -10.5234	
  -23.4781	-0.000414338	  -23.4381	-0.000414003	  -23.4765	-0.000437063	  -23.4642	-0.000421801	  -23.4642	   -10.545	
  -23.4495	-0.000415032	  -23.4071	-0.00041513	  -23.4438	-0.000437777	  -23.4335	-0.000422646	  -23.4335	  -10.5662	
  -23.4191	-0.00041571	  -23.3752	-0.000416317	   -23.411	-0.000438405	  -23.4018	-0.000423477	  -23.4018	  -10.5869	
  -23.3879	-0.000416371	  -23.3426	-0.000417586	  -23.3767	-0.000438946	  -23.3691	-0.000424301	  -23.3691	  -10.6075	
  -23.3556	-0.000417011	  -23.3094	-0.000418939	  -23.3418	-0.000439404	  -23.3356	-0.000425118	  -23.3356	  -10.6279	
  -23.3228	-0.000417627	  -23.2759	-0.000420371	  -23.3059	-0.000439797	  -23.3016	-0.000425931	  -23.3016	  -10.6483	
  -23.2887	-0.000418218	  -23.2416	-0.000421852	  -23.2703	-0.000440155	  -23.2669	-0.000426742	  -23.2669	  -10.6685	
  -23.2531	-0.000418783	  -23.2065	-0.000423347	  -23.2332	-0.000440505	  -23.2309	-0.000427545	  -23.2309	  -10.6886	
  -23.2166	-0.000419326	  -23.1714	-0.000424816	  -23.1952	-0.000440864	  -23.1944	-0.000428335	  -23.1944	  -10.7084	
  -23.1782	-0.00041985	  -23.1358	-0.000426221	  -23.1569	-0.000441252	   -23.157	-0.000429108	   -23.157	  -10.7277	
  -23.1399	-0.000420353	  -23.0986	-0.00042753	  -23.1171	-0.000441682	  -23.1185	-0.000429855	  -23.1185	  -10.7464	
     -23.1	-0.000420845	  -23.0605	-0.000428718	  -23.0773	-0.000442159	  -23.0793	-0.000430574	  -23.0793	  -10.7643	
  -23.0587	-0.000421326	  -23.0212	-0.000429777	  -23.0368	-0.000442675	  -23.0389	-0.000431259	  -23.0389	  -10.7815	
  -23.0171	-0.000421799	  -22.9814	-0.000430715	  -22.9945	-0.00044321	  -22.9977	-0.000431908	  -22.9977	  -10.7977	
  -22.9738	-0.000422268	  -22.9406	-0.000431548	   -22.952	-0.000443746	  -22.9555	-0.000432521	  -22.9555	   -10.813	
  -22.9297	-0.000422733	  -22.8987	-0.000432306	  -22.9086	-0.000444258	  -22.9123	-0.000433099	  -22.9123	  -10.8275	
  -22.8845	-0.000423195	  -22.8562	-0.000433024	  -22.8646	-0.000444723	  -22.8684	-0.000433647	  -22.8684	  -10.8412	
  -22.8384	-0.000423649	   -22.812	-0.000433729	    -22.82	-0.000445123	  -22.8235	-0.000434167	  -22.8235	  -10.8542	
  -22.7916	-0.000424093	  -22.7669	-0.000434467	  -22.7745	-0.000445439	  -22.7777	-0.000434667	  -22.7777	  -10.8667	
  -22.7433	-0.000424523	  -22.7216	-0.000435262	  -22.7288	-0.000445672	  -22.7312	-0.000435152	  -22.7312	  -10.8788	
  -22.6941	-0.00042493	  -22.6758	-0.000436131	  -22.6818	-0.000445835	  -22.6839	-0.000435632	  -22.6839	  -10.8908	
  -22.6434	-0.000425316	  -22.6291	-0.000437074	  -22.6346	-0.000445948	  -22.6357	-0.000436113	  -22.6357	  -10.9028	
  -22.5915	-0.000425677	  -22.5815	-0.000438092	  -22.5865	-0.00044603	  -22.5865	-0.0004366	  -22.5865	   -10.915	
  -22.5387	-0.000426009	   -22.533	-0.000439168	  -22.5371	-0.000446103	  -22.5363	-0.000437093	  -22.5363	  -10.9273	
  -22.4845	-0.000426314	  -22.4841	-0.000440264	   -22.488	-0.000446207	  -22.4855	-0.000437595	  -22.4855	  -10.9399	
  -22.4299	-0.00042659	  -22.4335	-0.000441352	  -22.4379	-0.00044638	  -22.4338	-0.000438108	  -22.4338	  -10.9527	
  -22.3745	-0.000426845	  -22.3817	-0.000442398	  -22.3871	-0.000446641	  -22.3811	-0.000438628	  -22.3811	  -10.9657	
  -22.3177	-0.000427084	  -22.3295	-0.000443362	  -22.3365	-0.000446986	  -22.3279	-0.000439144	  -22.3279	  -10.9786	
  -22.2608	-0.000427309	  -22.2765	-0.00044421	  -22.2855	-0.0004474	  -22.2743	-0.00043964	  -22.2743	   -10.991	
  -22.2028	-0.000427524	  -22.2236	-0.00044493	  -22.2336	-0.000447861	    -22.22	-0.000440105	    -22.22	  -11.0026	
  -22.1432	-0.000427725	  -22.1688	-0.00044553	  -22.1817	-0.000448333	  -22.1646	-0.000440529	  -22.1646	  -11.0132	
  -22.0839	-0.000427919	   -22.113	-0.000446032	  -22.1293	-0.000448775	  -22.1087	-0.000440908	  -22.1087	  -11.0227	
  -22.0234	-0.000428106	   -22.057	-0.000446404	  -22.0753	-0.000449134	  -22.0519	-0.000441215	  -22.0519	  -11.0304	
  -21.9622	-0.000428283	   -21.999	-0.000446709	  -22.0198	-0.000449375	  -21.9937	-0.000441456	  -21.9937	  -11.0364	
  -21.8998	-0.000428452	  -21.9398	-0.000447019	  -21.9644	-0.000449481	  -21.9347	-0.000441651	  -21.9347	  -11.0413	
  -21.8366	-0.000428607	  -21.8791	-0.000447342	  -21.9078	-0.000449451	  -21.8745	-0.0004418	  -21.8745	   -11.045	
  -21.7735	-0.000428747	  -21.8167	-0.000447693	  -21.8498	-0.000449323	  -21.8133	-0.000441921	  -21.8133	   -11.048	
  -21.7089	-0.00042887	   -21.753	-0.000448132	  -21.7901	-0.000449113	  -21.7507	-0.000442038	  -21.7507	   -11.051	
  -21.6442	-0.000428971	  -21.6867	-0.000448698	  -21.7295	-0.000448824	  -21.6868	-0.000442164	  -21.6868	  -11.0541	
  -21.5792	-0.000429049	  -21.6198	-0.000449321	  -21.6683	-0.000448513	  -21.6224	-0.000442294	  -21.6224	  -11.0574	
  -21.5129	-0.000429104	  -21.5531	-0.000450017	  -21.6067	-0.000448239	  -21.5576	-0.000442453	  -21.5576	  -11.0613	
  -21.4454	-0.000429139	  -21.4844	-0.000450798	  -21.5429	-0.000448016	  -21.4909	-0.000442651	  -21.4909	  -11.0663	
  -21.3773	-0.000429153	  -21.4128	-0.000451628	  -21.4786	-0.000447855	  -21.4229	-0.000442879	  -21.4229	   -11.072	
   -21.308	-0.000429149	  -21.3415	-0.000452489	  -21.4124	-0.000447772	   -21.354	-0.000443137	   -21.354	  -11.0784	
  -21.2387	-0.000429137	  -21.2729	-0.000453382	   -21.344	-0.000447788	  -21.2852	-0.000443436	  -21.2852	  -11.0859	
  -21.1673	-0.000429118	  -21.2043	-0.000454262	  -21.2753	-0.000447887	  -21.2156	-0.000443756	  -21.2156	  -11.0939	
  -21.0957	-0.000429096	  -21.1323	-0.000455073	  -21.2051	-0.00044801	  -21.1444	-0.00044406	  -21.1444	  -11.1015	
  -21.0231	-0.00042907	  -21.0613	-0.00045581	  -21.1328	-0.000448159	  -21.0724	-0.000444346	  -21.0724	  -11.1087	
  -20.9502	-0.00042905	  -20.9918	-0.000456464	  -21.0589	-0.000448297	  -21.0003	-0.000444603	  -21.0003	  -11.1151	
  -20.8772	-0.000429071	  -20.9225	-0.000456999	  -20.9847	-0.000448377	  -20.9281	-0.000444815	  -20.9281	  -11.1204	
  -20.8035	-0.000429108	  -20.8513	-0.00045742	  -20.9112	-0.000448394	  -20.8553	-0.000444974	  -20.8553	  -11.1244	
  -20.7295	-0.000429135	  -20.7795	-0.000457765	  -20.8363	-0.000448334	  -20.7817	-0.000445078	  -20.7817	  -11.1269	
  -20.6548	-0.000429142	  -20.7078	-0.00045804	  -20.7592	-0.000448182	  -20.7073	-0.000445121	  -20.7073	   -11.128	
  -20.5789	-0.000429114	  -20.6345	-0.000458277	  -20.6837	-0.000447939	  -20.6323	-0.00044511	  -20.6323	  -11.1278	
  -20.5029	-0.000429046	  -20.5596	-0.000458519	  -20.6084	-0.000447631	   -20.557	-0.000445065	   -20.557	  -11.1266	
  -20.4256	-0.000428904	  -20.4836	-0.000458798	  -20.5321	-0.000447283	  -20.4804	-0.000444995	  -20.4804	  -11.1249	
  -20.3468	-0.000428688	  -20.4063	-0.000459135	  -20.4542	-0.000446909	  -20.4024	-0.000444911	  -20.4024	  -11.1228	
  -20.2674	-0.000428409	  -20.3272	-0.000459554	  -20.3759	-0.000446548	  -20.3235	-0.000444837	  -20.3235	  -11.1209	
  -20.1872	-0.000428073	  -20.2464	-0.000460068	  -20.2963	-0.000446234	  -20.2433	-0.000444791	  -20.2433	  -11.1198	
  -20.1062	-0.000427714	  -20.1632	-0.000460654	  -20.2139	-0.000445967	  -20.1611	-0.000444779	  -20.1611	  -11.1195	
  -20.0248	-0.000427354	  -20.0794	-0.000461307	    -20.13	-0.000445761	  -20.0781	-0.000444807	  -20.0781	  -11.1202	
  -19.9426	-0.00042701	  -19.9941	-0.000462009	  -20.0459	-0.000445619	  -19.9942	-0.000444879	  -19.9942	   -11.122	
  -19.8597	-0.00042672	  -19.9082	-0.00046272	   -19.961	-0.000445537	  -19.9096	-0.000444992	  -19.9096	  -11.1248	
  -19.7757	-0.000426508	  -19.8219	-0.000463411	  -19.8746	-0.000445484	  -19.8241	-0.000445135	  -19.8241	  -11.1284	
   -19.691	-0.000426384	  -19.7343	-0.000464052	  -19.7858	-0.000445441	   -19.737	-0.000445292	   -19.737	  -11.1323	
  -19.6057	-0.000426332	  -19.6465	-0.000464613	  -19.6968	-0.000445384	  -19.6497	-0.000445443	  -19.6497	  -11.1361	
   -19.519	-0.000426336	  -19.5564	-0.000465074	  -19.6084	-0.000445277	  -19.5613	-0.000445562	  -19.5613	  -11.1391	
  -19.4319	-0.000426382	  -19.4665	-0.000465438	  -19.5184	-0.000445107	  -19.4723	-0.000445642	  -19.4723	  -11.1411	
  -19.3434	-0.00042643	  -19.3765	-0.000465717	  -19.4275	-0.000444864	  -19.3824	-0.00044567	  -19.3824	  -11.1418	
  -19.2541	-0.000426451	  -19.2857	-0.000465923	  -19.3362	-0.000444535	   -19.292	-0.000445636	   -19.292	  -11.1409	
  -19.1648	-0.000426414	  -19.1947	-0.000466085	  -19.2445	-0.000444126	  -19.2014	-0.000445542	  -19.2014	  -11.1385	
  -19.0736	-0.000426288	  -19.1024	-0.000466246	  -19.1515	-0.000443652	  -19.1092	-0.000445395	  -19.1092	  -11.1349	
  -18.9823	-0.000426067	  -19.0103	-0.000466425	  -19.0567	-0.00044314	  -19.0164	-0.000445211	  -19.0164	  -11.1303	
  -18.8904	-0.000425758	  -18.9183	-0.000466644	   -18.962	-0.000442612	  -18.9235	-0.000445004	  -18.9235	  -11.1251	
  -18.7971	-0.000425377	  -18.8251	-0.00046692	  -18.8676	-0.00044209	    -18.83	-0.000444795	    -18.83	  -11.1199	
  -18.7026	-0.000424939	  -18.7304	-0.000467248	  -18.7711	-0.00044159	  -18.7347	-0.000444592	  -18.7347	  -11.1148	
  -18.6075	-0.000424476	  -18.6349	-0.000467613	  -18.6737	-0.000441114	  -18.6387	-0.000444401	  -18.6387	    -11.11	
  -18.5118	-0.000424021	   -18.538	-0.000467993	  -18.5764	-0.000440673	  -18.5421	-0.000444229	  -18.5421	  -11.1057	
  -18.4157	-0.000423602	  -18.4405	-0.000468356	  -18.4794	-0.000440263	  -18.4452	-0.000444074	  -18.4452	  -11.1018	
  -18.3184	-0.00042324	  -18.3416	-0.000468669	  -18.3815	-0.000439868	  -18.3472	-0.000443926	  -18.3472	  -11.0981	
  -18.2208	-0.000422947	  -18.2425	-0.00046891	  -18.2827	-0.000439476	  -18.2487	-0.000443778	  -18.2487	  -11.0944	
  -18.1226	-0.000422721	   -18.144	-0.000469081	  -18.1831	-0.000439069	  -18.1499	-0.000443624	  -18.1499	  -11.0906	
  -18.0242	-0.000422559	  -18.0445	-0.000469176	  -18.0837	-0.000438634	  -18.0508	-0.000443456	  -18.0508	  -11.0864	
  -17.9252	-0.000422445	  -17.9446	-0.000469201	  -17.9835	-0.00043816	  -17.9511	-0.000443269	  -17.9511	  -11.0817	
  -17.8251	-0.000422347	  -17.8437	-0.000469184	  -17.8827	-0.000437647	  -17.8505	-0.000443059	  -17.8505	  -11.0765	
  -17.7241	-0.000422232	  -17.7421	-0.000469149	  -17.7803	-0.000437086	  -17.7489	-0.000442822	  -17.7489	  -11.0706	
  -17.6222	-0.000422068	  -17.6402	-0.000469117	  -17.6782	-0.000436486	  -17.6469	-0.000442557	  -17.6469	  -11.0639	
  -17.5202	-0.000421832	   -17.538	-0.000469106	  -17.5753	-0.000435871	  -17.5445	-0.00044227	  -17.5445	  -11.0567	
  -17.4179	-0.0004215	  -17.4353	-0.000469134	  -17.4711	-0.000435246	  -17.4414	-0.00044196	  -17.4414	   -11.049	
  -17.3147	-0.000421054	  -17.3321	-0.000469204	  -17.3668	-0.00043462	  -17.3379	-0.000441626	  -17.3379	  -11.0407	
  -17.2113	-0.0004205	  -17.2277	-0.000469308	   -17.262	-0.000434009	  -17.2337	-0.000441272	  -17.2337	  -11.0318	
  -17.1077	-0.000419854	  -17.1229	-0.000469445	  -17.1569	-0.000433431	  -17.1292	-0.00044091	  -17.1292	  -11.0227	
  -17.0023	-0.000419151	  -17.0178	-0.000469593	  -17.0506	-0.000432881	  -17.0235	-0.000440542	  -17.0235	  -11.0135	
  -16.8963	-0.000418423	  -16.9126	-0.000469731	  -16.9427	-0.000432354	  -16.9172	-0.000440169	  -16.9172	  -11.0042	
  -16.7894	-0.000417707	  -16.8067	-0.000469819	  -16.8347	-0.000431857	  -16.8103	-0.000439795	  -16.8103	  -10.9949	
  -16.6827	-0.000417029	     -16.7	-0.000469841	   -16.726	-0.000431371	  -16.7029	-0.000439414	  -16.7029	  -10.9853	
  -16.5757	-0.000416408	  -16.5928	-0.000469803	  -16.6165	-0.000430871	   -16.595	-0.000439027	   -16.595	  -10.9757	
  -16.4682	-0.000415866	  -16.4856	-0.000469688	  -16.5078	-0.000430355	  -16.4872	-0.000438636	  -16.4872	  -10.9659	
  -16.3597	-0.00041541	  -16.3782	-0.000469484	  -16.3984	-0.000429809	  -16.3788	-0.000438234	  -16.3788	  -10.9559	
  -16.2506	-0.000415014	  -16.2715	-0.000469224	  -16.2883	-0.000429216	  -16.2701	-0.000437818	  -16.2701	  -10.9454	
    -16.14	-0.000414662	  -16.1632	-0.000468951	  -16.1779	-0.000428574	  -16.1604	-0.000437396	  -16.1604	  -10.9349	
  -16.0282	-0.000414325	   -16.054	-0.000468681	  -16.0653	-0.000427887	  -16.0492	-0.000436964	  -16.0492	  -10.9241	
  -15.9153	-0.000413989	  -15.9438	-0.000468455	  -15.9524	-0.00042716	  -15.9371	-0.000436534	  -15.9371	  -10.9134	
   -15.802	-0.00041365	  -15.8328	-0.000468302	  -15.8396	-0.000426403	  -15.8248	-0.000436118	  -15.8248	   -10.903	
  -15.6874	-0.000413252	  -15.7215	-0.000468235	  -15.7259	-0.000425636	  -15.7116	-0.000435708	  -15.7116	  -10.8927	
  -15.5724	-0.00041277	  -15.6089	-0.000468259	  -15.6114	-0.000424872	  -15.5976	-0.0004353	  -15.5976	  -10.8825	
  -15.4569	-0.000412185	  -15.4959	-0.000468367	  -15.4961	-0.000424118	   -15.483	-0.00043489	   -15.483	  -10.8723	
  -15.3403	-0.000411495	   -15.382	-0.000468529	   -15.381	-0.000423387	  -15.3677	-0.000434471	  -15.3677	  -10.8618	
  -15.2233	-0.00041072	  -15.2664	-0.000468689	   -15.265	-0.000422684	  -15.2516	-0.000434031	  -15.2516	  -10.8508	
   -15.106	-0.000409849	  -15.1512	-0.000468813	  -15.1485	 -0.000422	  -15.1352	-0.000433554	  -15.1352	  -10.8389	
  -14.9884	-0.00040892	  -15.0359	-0.000468865	  -15.0312	-0.000421332	  -15.0185	-0.000433039	  -15.0185	   -10.826	
  -14.8704	-0.000407958	  -14.9192	-0.000468795	  -14.9138	-0.00042067	  -14.9011	-0.000432475	  -14.9011	  -10.8119	
  -14.7521	-0.000406998	  -14.8025	-0.00046858	  -14.7957	-0.000419997	  -14.7834	-0.000431858	  -14.7834	  -10.7965	
  -14.6331	-0.000406087	  -14.6848	-0.000468225	  -14.6767	-0.000419295	  -14.6649	-0.000431202	  -14.6649	  -10.7801	
  -14.5146	-0.00040523	  -14.5672	-0.000467738	  -14.5572	-0.000418558	  -14.5463	-0.000430509	  -14.5463	  -10.7627	
  -14.3948	-0.000404461	  -14.4479	-0.000467152	  -14.4369	-0.000417775	  -14.4265	-0.000429796	  -14.4265	  -10.7449	
  -14.2751	-0.000403792	  -14.3283	-0.000466517	  -14.3165	-0.000416942	  -14.3066	-0.000429084	  -14.3066	  -10.7271	
  -14.1542	-0.000403228	  -14.2087	-0.000465882	  -14.1961	-0.000416066	  -14.1863	-0.000428392	  -14.1863	  -10.7098	
  -14.0323	-0.00040276	  -14.0881	-0.000465288	  -14.0753	-0.000415155	  -14.0652	-0.000427734	  -14.0652	  -10.6934	
  -13.9108	-0.00040234	  -13.9668	-0.000464781	  -13.9539	-0.000414218	  -13.9438	-0.000427113	  -13.9438	  -10.6778	
  -13.7886	-0.000401947	  -13.8454	-0.000464389	   -13.832	-0.000413274	   -13.822	-0.000426537	   -13.822	  -10.6634	
  -13.6654	-0.000401537	  -13.7241	-0.000464108	   -13.708	-0.000412339	  -13.6992	-0.000425994	  -13.6992	  -10.6499	
  -13.5424	-0.00040107	   -13.602	-0.000463932	  -13.5841	-0.000411421	  -13.5762	-0.000425474	  -13.5762	  -10.6369	
  -13.4185	-0.000400518	  -13.4801	-0.000463832	  -13.4612	-0.000410533	  -13.4533	-0.000424961	  -13.4533	   -10.624	
  -13.2932	-0.000399841	  -13.3568	-0.000463763	  -13.3371	-0.000409677	   -13.329	-0.000424427	   -13.329	  -10.6107	
  -13.1672	-0.000399035	  -13.2331	-0.000463671	  -13.2126	-0.000408854	  -13.2043	-0.000423853	  -13.2043	  -10.5963	
   -13.041	-0.00039811	  -13.1085	-0.000463513	  -13.0876	-0.000408054	   -13.079	-0.000423225	   -13.079	  -10.5806	
  -12.9142	-0.000397088	  -12.9835	-0.00046325	   -12.962	-0.000407266	  -12.9532	-0.000422535	  -12.9532	  -10.5634	
  -12.7866	-0.000396016	  -12.8585	-0.000462848	  -12.8367	-0.000406476	  -12.8273	-0.00042178	  -12.8273	  -10.5445	
  -12.6593	-0.000394929	  -12.7324	-0.000462307	  -12.7113	-0.000405662	   -12.701	-0.000420966	   -12.701	  -10.5241	
   -12.532	-0.000393877	  -12.6065	-0.00046164	  -12.5861	-0.000404816	  -12.5749	-0.000420111	  -12.5749	  -10.5028	
  -12.4034	-0.00039291	  -12.4797	-0.000460869	  -12.4606	-0.000403928	  -12.4479	-0.000419236	  -12.4479	  -10.4809	
  -12.2757	-0.00039206	  -12.3526	-0.000460039	  -12.3339	-0.00040299	  -12.3207	-0.000418363	  -12.3207	  -10.4591	
   -12.147	-0.000391337	  -12.2255	-0.000459199	  -12.2059	-0.000402007	  -12.1928	-0.000417514	  -12.1928	  -10.4379	
  -12.0184	-0.000390741	  -12.0982	-0.000458395	   -12.077	-0.000400984	  -12.0645	-0.000416707	  -12.0645	  -10.4177	
  -11.8893	-0.00039027	  -11.9707	-0.000457667	  -11.9471	-0.000399932	  -11.9357	-0.000415956	  -11.9357	  -10.3989	
  -11.7598	-0.000389878	   -11.843	-0.00045704	  -11.8174	-0.000398863	  -11.8067	-0.000415261	  -11.8067	  -10.3815	
   -11.631	-0.000389496	  -11.7147	-0.000456526	  -11.6859	-0.000397794	  -11.6772	-0.000414605	  -11.6772	  -10.3651	
  -11.5023	-0.000389065	  -11.5857	-0.00045611	   -11.554	-0.00039674	  -11.5473	-0.000413972	  -11.5473	  -10.3493	
  -11.3736	-0.000388535	  -11.4556	-0.000455772	  -11.4227	-0.000395708	  -11.4173	-0.000413338	  -11.4173	  -10.3335	
  -11.2463	-0.000387854	  -11.3247	-0.000455477	  -11.2903	-0.000394707	  -11.2871	-0.000412679	  -11.2871	   -10.317	
   -11.119	-0.000386992	  -11.1929	-0.000455175	  -11.1588	-0.000393734	  -11.1569	-0.000411967	  -11.1569	  -10.2992	
  -10.9918	-0.000385962	  -11.0602	-0.000454824	  -11.0265	-0.000392782	  -11.0262	-0.000411189	  -11.0262	  -10.2797	
  -10.8639	-0.000384789	  -10.9277	-0.000454392	  -10.8936	-0.000391842	   -10.895	-0.000410341	   -10.895	  -10.2585	
  -10.7355	-0.000383509	  -10.7942	-0.00045385	  -10.7599	-0.000390897	  -10.7632	-0.000409419	  -10.7632	  -10.2355	
  -10.6065	-0.000382184	  -10.6609	-0.000453192	  -10.6266	-0.000389932	  -10.6313	-0.000408436	  -10.6313	  -10.2109	
  -10.4755	-0.000380883	  -10.5271	-0.000452418	  -10.4928	-0.000388931	  -10.4985	-0.000407411	  -10.4985	  -10.1853	
  -10.3428	-0.000379625	  -10.3922	-0.00045155	  -10.3581	-0.000387883	  -10.3644	-0.000406353	  -10.3644	  -10.1588	
  -10.2097	-0.000378457	  -10.2575	-0.00045062	  -10.2222	-0.000386783	  -10.2298	-0.000405287	  -10.2298	  -10.1322	
  -10.0765	-0.000377425	  -10.1221	-0.000449666	  -10.0858	-0.000385635	  -10.0948	-0.000404242	  -10.0948	   -10.106	
  -9.94301	-0.000376537	  -9.98697	-0.000448729	  -9.94847	-0.000384443	  -9.95948	-0.000403236	  -9.95948	  -10.0809	
  -9.80795	-0.000375769	  -9.85207	-0.000447838	  -9.81115	-0.000383219	  -9.82372	-0.000402275	  -9.82372	  -10.0569	
  -9.67209	-0.000375095	   -9.7168	-0.00044702	  -9.67378	-0.000381974	  -9.68756	-0.000401363	  -9.68756	  -10.0341	
  -9.53471	-0.000374498	  -9.58114	-0.000446289	  -9.53583	-0.000380717	  -9.55056	-0.000400501	  -9.55056	  -10.0125	
   -9.3961	-0.000373934	  -9.44455	-0.000445638	  -9.39728	-0.000379477	  -9.41264	-0.000399683	  -9.41264	  -9.99208	
  -9.25752	-0.000373348	  -9.30801	-0.000445056	  -9.25763	-0.000378275	  -9.27439	-0.000398893	  -9.27439	  -9.97232	
  -9.11793	-0.000372694	  -9.17074	-0.000444514	  -9.11838	-0.000377102	  -9.13568	-0.000398104	  -9.13568	  -9.95259	
  -8.97688	-0.000371952	    -9.032	-0.000443978	  -8.97894	-0.000375945	  -8.99594	-0.000397292	  -8.99594	  -9.93229	
  -8.83588	-0.000371074	  -8.89282	-0.000443412	  -8.83927	-0.00037482	  -8.85599	-0.000396435	  -8.85599	  -9.91088	
   -8.6968	-0.000370057	  -8.75365	-0.000442782	  -8.69983	-0.0003737	  -8.71676	-0.000395513	  -8.71676	  -9.88783	
  -8.55751	-0.000368918	  -8.61349	-0.000442063	  -8.55958	-0.000372551	  -8.57686	-0.000394511	  -8.57686	  -9.86276	
  -8.41652	-0.000367657	  -8.47356	-0.000441237	  -8.41829	-0.000371361	  -8.43612	-0.000393418	  -8.43612	  -9.83546	
  -8.27585	-0.000366325	  -8.33305	-0.000440306	  -8.27767	-0.000370106	  -8.29552	-0.000392246	  -8.29552	  -9.80615	
  -8.13734	-0.000364956	   -8.1915	-0.000439285	  -8.13546	-0.000368767	  -8.15476	-0.000391002	  -8.15476	  -9.77506	
  -7.99788	-0.000363585	  -8.04988	-0.000438196	  -7.99341	-0.000367334	  -8.01372	-0.000389705	  -8.01372	  -9.74262	
  -7.85701	-0.000362266	  -7.90744	-0.000437068	  -7.85075	-0.000365819	  -7.87173	-0.000388385	  -7.87173	  -9.70961	
  -7.71671	-0.000361034	  -7.76443	-0.000435937	  -7.70772	-0.000364226	  -7.72962	-0.000387066	  -7.72962	  -9.67665	
  -7.57665	-0.000359907	  -7.62087	-0.000434838	  -7.56502	-0.000362579	  -7.58751	-0.000385775	  -7.58751	  -9.64437	
  -7.43458	-0.000358883	  -7.47674	-0.000433795	  -7.42235	-0.000360927	  -7.44456	-0.000384535	  -7.44456	  -9.61337	
  -7.29015	-0.000357951	  -7.33302	-0.000432826	  -7.27942	-0.000359299	  -7.30086	-0.000383359	  -7.30086	  -9.58396	
  -7.14613	-0.000357092	  -7.18867	-0.000431934	  -7.13669	-0.000357718	  -7.15716	-0.000382248	  -7.15716	   -9.5562	
  -7.00366	-0.000356257	  -7.04465	-0.000431107	  -6.99337	-0.000356209	   -7.0139	-0.000381191	   -7.0139	  -9.52978	
  -6.86018	-0.000355407	  -6.90019	-0.000430322	  -6.85043	-0.000354789	  -6.87027	-0.000380173	  -6.87027	  -9.50432	
   -6.7157	-0.000354505	  -6.75504	-0.00042955	  -6.70732	-0.000353423	  -6.72602	-0.000379159	  -6.72602	  -9.47898	
  -6.57125	-0.000353509	  -6.60969	-0.000428755	    -6.564	-0.00035209	  -6.58165	-0.000378118	  -6.58165	  -9.45295	
  -6.42724	-0.000352396	  -6.46365	-0.000427905	  -6.42045	-0.000350777	  -6.43711	-0.000377026	  -6.43711	  -9.42565	
   -6.2841	-0.000351156	  -6.31765	-0.000426975	  -6.27617	-0.000349472	  -6.29264	-0.000375868	  -6.29264	   -9.3967	
  -6.14027	-0.000349794	  -6.17142	-0.000425947	  -6.13212	-0.000348133	  -6.14794	-0.000374625	  -6.14794	  -9.36562	
  -5.99599	-0.000348322	  -6.02469	-0.00042482	  -5.98754	-0.000346743	  -6.00274	-0.000373295	  -6.00274	  -9.33238	
  -5.85247	-0.000346782	   -5.8782	-0.000423601	  -5.84267	-0.000345301	  -5.85778	-0.000371895	  -5.85778	  -9.29737	
  -5.70721	-0.000345218	   -5.7307	-0.000422313	   -5.6982	-0.000343791	  -5.71204	-0.000370441	  -5.71204	  -9.26102	
  -5.56149	-0.000343669	  -5.58343	-0.000420985	  -5.55384	-0.000342224	  -5.56625	-0.000368959	  -5.56625	  -9.22398	
  -5.41509	-0.000342173	  -5.43586	-0.000419644	  -5.40953	-0.000340613	  -5.42016	-0.000367477	  -5.42016	  -9.18692	
  -5.26994	-0.000340755	    -5.288	-0.000418325	  -5.26475	-0.000338968	  -5.27423	-0.000366016	  -5.27423	  -9.15039	
  -5.12496	-0.000339429	  -5.14031	-0.000417048	  -5.11902	-0.000337307	   -5.1281	-0.000364595	   -5.1281	  -9.11487	
  -4.97912	-0.000338199	  -4.99251	-0.000415829	  -4.97309	-0.000335659	  -4.98157	-0.000363229	  -4.98157	  -9.08072	
  -4.83391	-0.000337045	  -4.84434	-0.000414668	  -4.82671	-0.000334038	  -4.83498	-0.000361917	  -4.83498	  -9.04793	
  -4.68875	-0.000335929	    -4.697	-0.000413555	  -4.68035	-0.000332444	   -4.6887	-0.000360643	   -4.6887	  -9.01607	
  -4.54312	-0.000334754	  -4.54968	-0.00041236	    -4.534	-0.000330941	  -4.54227	-0.000359352	  -4.54227	   -8.9838	
  -4.39846	-0.00033357	  -4.40258	-0.000411127	  -4.38712	-0.000329469	  -4.39606	-0.000358056	  -4.39606	  -8.95139	
  -4.25323	-0.000332337	   -4.2559	-0.000409848	  -4.24022	-0.000328023	  -4.24978	-0.000356736	  -4.24978	   -8.9184	
  -4.10766	-0.000331026	  -4.10813	-0.000408522	  -4.09229	-0.000326625	  -4.10269	-0.000355391	  -4.10269	  -8.88477	
  -3.96198	-0.00032965	   -3.9598	-0.00040715	  -3.94436	-0.000325238	  -3.95538	-0.000354013	  -3.95538	  -8.85032	
