# User: ACHyster
# File name: C:/ACHYSTER/ACHyster SENS/SHAMS/CoFe2O4-1gl-water-80 Glycerol-Sens-08-03-2023/CoFe2O4-1gl-water-80 Glycerol- 10_100F-24 kAm -Sens-08-03-20230002#1.txt
# Saved at: mi. mar. 8 16:19:26 2023
# Hyster Loop (3 iterations). Intensity: 24.0 kA/m; Tuned frequency: 29.5 kHz
# Units x axis: (kA/m)
# Units y axis: "Repeats y" & "Average y" (10^(-3)Am^2); "Mass avg y" (Am^2/kg)
# Magnetic mass: 4e-05 g
# Parameter      	Repeat   1	Repeat   2	Repeat   3	Average   	Sigma     
# H_C (kA/m)     	      13.5	      13.8	      13.8	      13.7	       0.1
# M_R (Am^2/kg)  	      11.8	      12.3	      11.9	      12.0	       0.2
# M_max (Am^2/kg)	      16.5	      16.9	      16.0	      16.4	       0.4
# Area (mJ/kg)   	     998.9	    1046.6	    1009.2	    1018.2	      20.5
# SAR (W/g)      	      29.5	      30.9	      29.8	      30.0	       0.6
#Repeat 1 x	Repeat 1 y	Repeat 2 x	Repeat 2 y	Repeat 3 x	Repeat 3 y	Average x 	Average y 	Mass avg x 	Mass avg y 
  -3.56796	-0.000545773	  -3.59765	-0.000557409	  -3.55839	-0.000550646	  -3.57467	-0.000551276	  -3.57467	  -13.7819	
   -3.4203	-0.0005431	  -3.45013	-0.000554771	  -3.41052	-0.000547943	  -3.42699	-0.000548605	  -3.42699	  -13.7151	
  -3.27236	-0.000540493	  -3.30197	-0.00055218	  -3.26334	-0.000545241	  -3.27922	-0.000545971	  -3.27922	  -13.6493	
  -3.12462	-0.000537711	  -3.15382	-0.000549485	  -3.11605	-0.000542589	   -3.1315	-0.000543261	   -3.1315	  -13.5815	
  -2.97699	-0.000534743	   -3.0063	-0.000546585	  -2.96878	-0.000539907	  -2.98402	-0.000540412	  -2.98402	  -13.5103	
  -2.82947	-0.000531807	  -2.86048	-0.000543623	  -2.82134	-0.00053712	  -2.83709	-0.000537517	  -2.83709	  -13.4379	
  -2.68164	-0.000529014	  -2.71507	-0.000540784	  -2.67374	-0.000534257	  -2.69015	-0.000534685	  -2.69015	  -13.3671	
  -2.53367	-0.000526194	   -2.5684	-0.000538019	  -2.52538	-0.000531403	  -2.54248	-0.000531872	  -2.54248	  -13.2968	
  -2.38544	-0.000523171	  -2.42058	-0.000535081	  -2.37672	-0.000528566	  -2.39425	-0.000528939	  -2.39425	  -13.2235	
  -2.23722	-0.000520025	  -2.27235	-0.00053205	  -2.22805	-0.000525674	  -2.24587	-0.000525917	  -2.24587	  -13.1479	
  -2.08916	-0.000516959	  -2.12208	-0.000529127	  -2.07932	-0.000522728	  -2.09685	-0.000522938	  -2.09685	  -13.0735	
  -1.94122	-0.000513985	  -1.97136	-0.000526301	  -1.93052	-0.000519764	   -1.9477	-0.000520017	   -1.9477	  -13.0004	
  -1.79322	-0.000510918	  -1.82268	-0.000523298	  -1.78147	-0.000516776	  -1.79912	-0.000516997	  -1.79912	  -12.9249	
  -1.64507	-0.000507669	  -1.67571	-0.000520073	  -1.63322	-0.000513728	  -1.65133	-0.000513823	  -1.65133	  -12.8456	
  -1.49668	-0.000504391	  -1.52845	-0.000516812	  -1.48488	-0.000510621	  -1.50333	-0.000510608	  -1.50333	  -12.7652	
  -1.34812	-0.00050121	  -1.38071	-0.000513705	  -1.33595	-0.000507486	  -1.35493	-0.000507467	  -1.35493	  -12.6867	
  -1.19975	-0.000498037	  -1.23255	-0.000510681	  -1.18679	-0.00050435	  -1.20636	-0.000504356	  -1.20636	  -12.6089	
  -1.05146	-0.000494742	  -1.08367	-0.000507485	  -1.03752	-0.000501184	  -1.05755	-0.000501137	  -1.05755	  -12.5284	
 -0.902894	-0.00049134	 -0.934899	-0.000504041	 -0.888554	-0.000497941	 -0.908782	-0.000497774	 -0.908782	  -12.4444	
 -0.754428	-0.00048798	 -0.786897	-0.000500585	 -0.739064	-0.000494621	  -0.76013	-0.000494395	  -0.76013	  -12.3599	
 -0.605995	-0.000484698	 -0.638868	-0.000497302	 -0.589652	-0.000491292	 -0.611505	-0.000491097	 -0.611505	  -12.2774	
 -0.457246	-0.000481358	 -0.490329	-0.000494048	 -0.440579	-0.000487997	 -0.462718	-0.000487801	 -0.462718	   -12.195	
 -0.308675	-0.000477847	 -0.341384	-0.000490595	 -0.291677	-0.000484678	 -0.313912	-0.000484373	 -0.313912	  -12.1093	
  -0.16041	-0.000474268	  -0.19221	-0.000486953	 -0.142872	-0.000481257	 -0.165164	-0.000480826	 -0.165164	  -12.0206	
-0.0120359	-0.000470764	-0.0428002	-0.000483361	0.00584947	-0.000477759	-0.0163289	-0.000477295	-0.0163289	  -11.9324	
  0.136244	-0.00046732	  0.106786	-0.000479909	  0.154478	-0.000474271	  0.132503	-0.000473834	  0.132503	  -11.8458	
  0.284518	-0.000463782	  0.256269	-0.000476419	  0.302923	-0.000470811	  0.281237	-0.000470337	  0.281237	  -11.7584	
  0.432909	-0.000460099	  0.405711	-0.000472725	  0.451499	-0.000467317	   0.43004	-0.000466714	   0.43004	  -11.6678	
  0.581347	-0.000456394	  0.555301	-0.000468941	  0.600133	-0.00046375	  0.578927	-0.000463028	  0.578927	  -11.5757	
  0.729889	-0.000452761	  0.704827	-0.000465242	  0.748679	-0.000460127	  0.727798	-0.000459377	  0.727798	  -11.4844	
  0.877989	-0.000449129	   0.85437	-0.000461606	   0.89717	-0.000456501	   0.87651	-0.000455745	   0.87651	  -11.3936	
   1.02621	-0.000445392	   1.00425	-0.000457852	   1.04558	-0.000452886	   1.02535	-0.000452044	   1.02535	  -11.3011	
   1.17409	-0.000441565	   1.15417	-0.000453915	   1.19401	-0.000449227	   1.17409	-0.000448235	   1.17409	  -11.2059	
   1.32171	-0.000437728	   1.30357	-0.000449939	   1.34216	-0.000445493	   1.32248	-0.000444387	   1.32248	  -11.1097	
   1.46927	-0.000433916	   1.45312	-0.000446068	   1.49006	-0.000441707	   1.47081	-0.000440564	   1.47081	  -11.0141	
   1.61681	-0.000430067	   1.60297	-0.000442219	   1.63792	-0.000437903	   1.61923	-0.00043673	   1.61923	  -10.9182	
   1.76421	-0.000426109	    1.7526	-0.000438217	   1.78564	-0.000434102	   1.76748	-0.00043281	   1.76748	  -10.8202	
   1.91133	-0.000422084	   1.90243	-0.000434077	   1.93325	-0.000430303	   1.91567	-0.000428821	   1.91567	  -10.7205	
   2.05837	-0.000418052	   2.05203	-0.000429967	   2.08116	-0.000426463	   2.06385	-0.000424827	   2.06385	  -10.6207	
   2.20522	-0.000413936	   2.20171	-0.000425949	   2.22846	-0.000422527	    2.2118	-0.000420804	    2.2118	  -10.5201	
   2.35222	-0.000409653	   2.35176	-0.000421893	   2.37548	-0.000418511	   2.35982	-0.000416686	   2.35982	  -10.4171	
   2.49893	-0.000405324	   2.50192	-0.000417681	   2.52241	-0.000414468	   2.50775	-0.000412491	   2.50775	  -10.3123	
    2.6456	-0.000401101	   2.65179	-0.000413381	   2.66949	-0.000410407	   2.65563	-0.000408296	   2.65563	  -10.2074	
   2.79264	-0.00039694	   2.80165	-0.000409142	   2.81655	-0.000406309	   2.80361	-0.00040413	   2.80361	  -10.1033	
   2.94043	-0.000392642	   2.95123	-0.000404967	   2.96355	-0.000402153	   2.95174	-0.000399921	   2.95174	  -9.99801	
    3.0882	-0.000388176	   3.10069	-0.000400713	   3.11115	-0.000397898	   3.10001	-0.000395596	   3.10001	  -9.88989	
   3.23586	-0.000383717	   3.25011	-0.000396303	   3.25866	-0.000393599	   3.24821	-0.000391206	   3.24821	  -9.78016	
   3.38358	-0.000379373	    3.3993	-0.000391845	   3.40607	-0.00038934	   3.39632	-0.000386853	   3.39632	  -9.67131	
   3.53118	-0.000375032	   3.54845	-0.000387451	   3.55382	-0.000385104	   3.54448	-0.000382529	   3.54448	  -9.56322	
   3.67855	-0.000370552	   3.69746	-0.000383068	   3.70098	-0.000380784	   3.69233	-0.000378135	   3.69233	  -9.45337	
   3.82585	-0.000365981	   3.84624	-0.000378573	   3.84809	-0.000376303	   3.84006	-0.000373619	   3.84006	  -9.34047	
   3.97355	-0.000361464	   3.99479	-0.000373964	   3.99493	-0.000371763	   3.98776	-0.000369064	   3.98776	  -9.22659	
   4.12136	-0.000357014	   4.14313	-0.000369359	   4.14133	-0.000367279	   4.13528	-0.000364551	   4.13528	  -9.11377	
   4.26888	-0.000352478	   4.29099	-0.000364809	   4.28778	-0.000362862	   4.28255	-0.00036005	   4.28255	  -9.00124	
   4.41673	-0.000347787	    4.4381	-0.000360222	   4.43405	-0.000358374	   4.42962	-0.000355461	   4.42962	  -8.88653	
   4.56472	-0.000343085	   4.58507	-0.000355506	   4.58008	-0.000353738	   4.57662	-0.000350776	   4.57662	  -8.76941	
   4.71218	-0.000338519	   4.73197	-0.000350709	    4.7264	-0.00034904	   4.72351	-0.000346089	   4.72351	  -8.65224	
   4.85966	-0.000334035	   4.87912	-0.000345947	   4.87266	-0.000344405	   4.87048	-0.000341462	   4.87048	  -8.53656	
   5.00669	-0.000329454	   5.02607	-0.000341229	   5.01863	-0.000339809	   5.01713	-0.000336831	   5.01713	  -8.42077	
   5.15297	-0.000324679	   5.17306	-0.000336446	   5.16459	-0.000335131	   5.16354	-0.000332085	   5.16354	  -8.30214	
   5.29899	-0.000319852	   5.31958	-0.00033155	   5.31055	-0.000330333	    5.3097	-0.000327245	    5.3097	  -8.18112	
   5.44537	-0.000315152	   5.46577	-0.000326658	   5.45692	-0.000325516	   5.45602	-0.000322442	   5.45602	  -8.06105	
   5.59227	-0.000310544	   5.61182	-0.000321817	   5.60334	-0.000320755	   5.60247	-0.000317705	   5.60247	  -7.94264	
   5.73968	-0.000305822	    5.7576	-0.000316927	   5.74933	-0.000315994	   5.74887	-0.000312914	   5.74887	  -7.82286	
   5.88687	-0.000300933	   5.90316	-0.000311929	   5.89511	-0.000311138	   5.89505	 -0.000308	   5.89505	      -7.7	
   6.03332	-0.000296026	   6.04852	-0.000306896	   6.04053	-0.0003062	   6.04079	-0.000303041	   6.04079	  -7.57602	
   6.17918	-0.000291211	   6.19377	-0.000301942	   6.18534	-0.000301276	    6.1861	-0.000298143	    6.1861	  -7.45358	
   6.32483	-0.000286423	   6.33866	-0.000297031	   6.32968	-0.000296392	   6.33106	-0.000293282	   6.33106	  -7.33205	
   6.47058	-0.000281531	   6.48321	-0.000292035	   6.47359	-0.000291483	   6.47579	-0.00028835	   6.47579	  -7.20874	
   6.61634	-0.000276527	   6.62768	-0.000286938	   6.61714	-0.00028647	   6.62039	-0.000283311	   6.62039	  -7.08278	
   6.76156	-0.000271536	   6.77194	-0.000281838	   6.76059	-0.000281368	    6.7647	-0.000278247	    6.7647	  -6.95618	
   6.90685	-0.000266626	   6.91597	-0.000276794	   6.90355	-0.000276247	   6.90879	-0.000273222	   6.90879	  -6.83056	
    7.0519	-0.000261711	   7.05992	-0.000271759	   7.04638	-0.000271186	   7.05274	-0.000268219	   7.05274	  -6.70546	
   7.19626	-0.000256685	   7.20368	-0.000266638	   7.18942	-0.000266148	   7.19645	-0.000263157	   7.19645	  -6.57893	
   7.34017	-0.000251582	   7.34767	-0.000261448	   7.33278	-0.00026103	   7.34021	-0.00025802	   7.34021	   -6.4505	
   7.48391	-0.000246513	    7.4915	-0.000256279	   7.47654	-0.000255817	   7.48398	-0.00025287	   7.48398	  -6.32175	
   7.62721	-0.000241489	    7.6355	-0.00025115	   7.61996	-0.00025059	   7.62756	-0.000247743	   7.62756	  -6.19358	
   7.77029	-0.000236407	   7.77912	-0.000245974	   7.76329	-0.000245371	    7.7709	-0.000242584	    7.7709	   -6.0646	
   7.91322	-0.000231224	   7.92236	-0.000240714	   7.90614	-0.000240178	   7.91391	-0.000237372	   7.91391	   -5.9343	
   8.05572	-0.000226017	   8.06501	-0.000235447	   8.04904	-0.000234995	   8.05659	-0.000232153	   8.05659	  -5.80383	
   8.19753	-0.000220854	   8.20678	-0.00023021	   8.19135	-0.000229768	   8.19855	-0.000226944	   8.19855	   -5.6736	
   8.33911	-0.00021569	   8.34784	-0.000224935	   8.33313	-0.000224478	   8.34003	-0.000221701	   8.34003	  -5.54253	
   8.48033	-0.000210448	     8.489	-0.000219583	   8.47403	-0.000219146	   8.48112	-0.000216393	   8.48112	  -5.40981	
   8.62094	-0.000205135	   8.63015	-0.000214217	   8.61464	-0.000213781	   8.62191	-0.000211044	   8.62191	  -5.27611	
   8.76111	-0.00019982	   8.77185	-0.000208901	   8.75452	-0.000208386	    8.7625	-0.000205702	    8.7625	  -5.14256	
   8.90088	-0.000194532	   8.91308	-0.000203603	   8.89378	-0.000202978	   8.90258	-0.000200371	   8.90258	  -5.00927	
   9.03972	-0.000189218	   9.05388	-0.000198293	   9.03267	-0.000197601	   9.04209	-0.000195037	   9.04209	  -4.87593	
   9.17822	-0.000183824	   9.19366	-0.000192885	   9.17097	-0.000192224	   9.18095	-0.000189644	   9.18095	  -4.74111	
   9.31576	-0.000178385	   9.33198	-0.000187384	   9.30925	-0.000186775	     9.319	-0.000184181	     9.319	  -4.60454	
   9.45284	-0.00017296	   9.46943	-0.000181931	   9.44694	-0.00018127	    9.4564	-0.00017872	    9.4564	    -4.468	
   9.58996	-0.000167549	   9.60771	-0.00017658	   9.58412	-0.000175777	   9.59393	-0.000173302	   9.59393	  -4.33255	
   9.72643	-0.0001621	   9.74618	-0.000171203	   9.72112	-0.000170313	   9.73124	-0.000167872	   9.73124	  -4.19681	
   9.86247	-0.000156591	   9.88443	-0.000165688	   9.85836	-0.000164829	   9.86842	-0.000162369	   9.86842	  -4.05923	
   9.99792	-0.000151068	   10.0226	-0.000160114	     9.995	-0.000159291	   10.0052	-0.000156824	   10.0052	  -3.92061	
   10.1329	-0.000145563	   10.1603	-0.000154568	   10.1314	-0.000153726	   10.1415	-0.000151286	   10.1415	  -3.78214	
   10.2676	-0.000140033	   10.2966	-0.000149067	   10.2673	-0.000148177	   10.2772	-0.000145759	   10.2772	  -3.64397	
   10.4017	-0.000134461	   10.4324	-0.000143539	   10.4027	-0.000142636	   10.4123	-0.000140212	   10.4123	  -3.50529	
    10.535	-0.000128926	   10.5678	-0.000137934	   10.5378	-0.000137066	   10.5469	-0.000134642	   10.5469	  -3.36605	
   10.6681	-0.000123441	   10.7032	-0.00013228	   10.6723	-0.000131449	   10.6812	-0.000129057	   10.6812	  -3.22642	
   10.8012	-0.000117932	   10.8381	-0.00012664	   10.8065	-0.000125817	   10.8152	-0.000123463	   10.8152	  -3.08657	
   10.9336	-0.000112315	   10.9729	-0.000121056	   10.9399	-0.000120208	   10.9488	-0.00011786	   10.9488	   -2.9465	
   11.0656	-0.000106654	    11.108	-0.000115466	   11.0734	-0.000114614	   11.0823	-0.000112245	   11.0823	  -2.80611	
   11.1974	-0.000101063	   11.2428	-0.000109764	   11.2062	-0.000108986	   11.2155	-0.000106604	   11.2155	  -2.66511	
   11.3294	-9.55252e-05	   11.3767	-0.000103957	   11.3389	-0.00010332	   11.3483	-0.000100934	   11.3483	  -2.52335	
   11.4611	-8.99247e-05	   11.5099	-9.81808e-05	   11.4713	-9.76548e-05	   11.4808	-9.52534e-05	   11.4808	  -2.38134	
   11.5921	-8.42323e-05	   11.6423	-9.24986e-05	   11.6031	-9.20114e-05	   11.6125	-8.95808e-05	   11.6125	  -2.23952	
   11.7232	-7.85388e-05	   11.7739	-8.68195e-05	   11.7342	-8.63698e-05	   11.7438	-8.39093e-05	   11.7438	  -2.09773	
   11.8539	-7.29022e-05	   11.9049	-8.10216e-05	   11.8647	-8.07007e-05	   11.8745	-7.82082e-05	   11.8745	   -1.9552	
   11.9843	-6.72722e-05	   12.0354	-7.51251e-05	   11.9939	-7.50138e-05	   12.0045	-7.24704e-05	   12.0045	  -1.81176	
   12.1145	-6.15682e-05	   12.1658	-6.92601e-05	   12.1228	-6.93425e-05	   12.1344	-6.67236e-05	   12.1344	  -1.66809	
   12.2443	-5.57867e-05	   12.2954	-6.34747e-05	   12.2514	-6.3687e-05	   12.2637	-6.09828e-05	   12.2637	  -1.52457	
   12.3739	-5.00066e-05	   12.4243	-5.76748e-05	   12.3794	-5.80203e-05	   12.3926	-5.52339e-05	   12.3926	  -1.38085	
    12.503	-4.43043e-05	   12.5527	-5.17728e-05	   12.5072	-5.2326e-05	    12.521	-4.94677e-05	    12.521	  -1.23669	
   12.6318	-3.86298e-05	   12.6808	-4.58195e-05	   12.6348	-4.66235e-05	   12.6491	-4.36909e-05	   12.6491	  -1.09227	
   12.7606	-3.28667e-05	   12.8084	-3.99296e-05	   12.7619	-4.09411e-05	   12.7769	-3.79125e-05	   12.7769	 -0.947812	
    12.889	-2.70325e-05	   12.9353	-3.4106e-05	   12.8885	-3.52746e-05	   12.9043	-3.21377e-05	   12.9043	 -0.803443	
    13.017	-2.1211e-05	   13.0619	-2.82428e-05	   13.0148	-2.95973e-05	   13.0312	-2.63503e-05	   13.0312	 -0.658759	
   13.1447	-1.54454e-05	   13.1885	-2.22983e-05	   13.1404	-2.39048e-05	   13.1579	-2.05495e-05	   13.1579	 -0.513737	
    13.272	-9.66601e-06	   13.3149	-1.63554e-05	   13.2657	-1.82126e-05	   13.2842	-1.47447e-05	   13.2842	 -0.368617	
   13.3987	-3.82359e-06	     13.44	-1.04873e-05	   13.3908	-1.25282e-05	   13.4098	-8.94635e-06	   13.4098	 -0.223659	
   13.5245	2.09801e-06	   13.5642	-4.65901e-06	   13.5156	-6.85413e-06	   13.5348	-3.13838e-06	   13.5348	-0.0784595	
   13.6498	7.99862e-06	   13.6878	1.21462e-06	   13.6401	-1.1804e-06	   13.6592	2.67761e-06	   13.6592	 0.0669403	
   13.7747	1.38205e-05	   13.8109	7.06211e-06	   13.7643	4.50144e-06	   13.7833	8.46135e-06	   13.7833	  0.211534	
   13.8993	1.96377e-05	   13.9336	1.29101e-05	   13.8882	1.01804e-05	    13.907	1.42428e-05	    13.907	  0.356069	
   14.0231	2.55176e-05	   14.0558	1.88353e-05	   14.0115	1.58625e-05	   14.0301	2.00718e-05	   14.0301	  0.501795	
   14.1463	3.14232e-05	   14.1778	2.47768e-05	   14.1343	2.15406e-05	   14.1528	2.59135e-05	   14.1528	  0.647838	
   14.2685	3.72584e-05	   14.2988	3.06118e-05	   14.2564	2.72118e-05	   14.2746	3.1694e-05	   14.2746	   0.79235	
   14.3899	4.30651e-05	   14.4192	3.63414e-05	   14.3779	3.28914e-05	   14.3957	3.74326e-05	   14.3957	  0.935816	
   14.5109	4.89433e-05	   14.5388	4.21095e-05	   14.4986	3.85538e-05	   14.5161	4.32022e-05	   14.5161	   1.08006	
   14.6317	5.48779e-05	   14.6577	4.79784e-05	   14.6191	4.41987e-05	   14.6362	4.90183e-05	   14.6362	   1.22546	
   14.7519	6.07601e-05	   14.7758	5.38639e-05	   14.7389	4.98448e-05	   14.7555	5.48229e-05	   14.7555	   1.37057	
   14.8713	6.65673e-05	   14.8935	5.96543e-05	   14.8581	5.54942e-05	   14.8743	6.05719e-05	   14.8743	    1.5143	
   14.9902	7.23839e-05	   15.0105	6.5383e-05	   14.9766	6.11451e-05	   14.9924	6.6304e-05	   14.9924	    1.6576	
   15.1089	7.82727e-05	   15.1268	7.11536e-05	   15.0944	6.67915e-05	     15.11	7.20726e-05	     15.11	   1.80181	
   15.2272	8.41757e-05	   15.2427	7.6997e-05	   15.2121	7.24258e-05	   15.2273	7.78662e-05	   15.2273	   1.94665	
   15.3441	8.9959e-05	   15.3581	8.28397e-05	   15.3292	7.80614e-05	   15.3438	 8.362e-05	   15.3438	    2.0905	
   15.4606	9.56874e-05	   15.4728	8.86164e-05	    15.445	8.37066e-05	   15.4595	8.93368e-05	   15.4595	   2.23342	
   15.5769	0.000101514	    15.587	9.43088e-05	   15.5603	8.93475e-05	   15.5747	9.50567e-05	   15.5747	   2.37642	
   15.6917	0.000107415	   15.7008	9.99921e-05	   15.6749	9.49738e-05	   15.6891	0.000100794	   15.6891	   2.51984	
    15.806	0.000113229	    15.814	0.000105733	   15.7888	0.000100587	   15.8029	0.000106516	   15.8029	   2.66291	
   15.9196	0.000118887	   15.9268	0.000111524	    15.902	0.000106198	   15.9161	0.000112203	   15.9161	   2.80508	
   16.0323	0.000124528	   16.0392	0.000117281	   16.0146	0.000111806	   16.0287	0.000117872	   16.0287	    2.9468	
   16.1446	0.00013029	   16.1509	0.000122948	   16.1269	0.000117402	   16.1408	0.000123547	   16.1408	   3.08867	
   16.2562	0.000136115	    16.262	0.000128576	   16.2386	0.00012298	   16.2523	0.000129224	   16.2523	   3.23059	
   16.3672	0.000141832	   16.3722	0.000134242	   16.3494	0.000128545	    16.363	0.000134873	    16.363	   3.37183	
   16.4776	0.000147425	   16.4818	0.000139974	   16.4594	0.000134102	   16.4729	 0.0001405	   16.4729	    3.5125	
   16.5869	0.000153035	   16.5908	0.000145707	   16.5684	0.000139651	    16.582	0.000146131	    16.582	   3.65327	
   16.6958	0.000158753	   16.6994	0.000151388	   16.6766	0.000145183	   16.6906	0.000151775	   16.6906	   3.79436	
    16.804	0.000164488	   16.8073	0.000157058	   16.7838	0.000150705	   16.7984	0.000157417	   16.7984	   3.93542	
   16.9113	0.000170118	   16.9147	0.000162748	   16.8902	0.000156227	   16.9054	0.000163031	   16.9054	   4.07578	
   17.0179	0.000175678	   17.0212	0.000168439	   16.9957	0.000161723	   17.0116	0.000168613	   17.0116	   4.21534	
   17.1241	0.000181296	    17.127	0.000174135	   17.1002	0.000167181	   17.1171	0.000174204	   17.1171	    4.3551	
   17.2295	0.000186996	   17.2321	0.000179872	   17.2042	0.00017264	   17.2219	0.000179836	   17.2219	    4.4959	
   17.3341	0.000192663	   17.3369	0.000185653	   17.3074	0.000178129	   17.3262	0.000185482	   17.3262	   4.63705	
   17.4383	0.000198225	    17.441	0.000191433	   17.4098	0.000183621	   17.4297	0.000191093	   17.4297	   4.77733	
   17.5414	0.000203754	   17.5443	0.000197185	   17.5116	0.000189093	   17.5324	0.000196677	   17.5324	   4.91693	
   17.6435	0.000209352	   17.6469	0.000202918	   17.6129	0.000194537	   17.6344	0.000202269	   17.6344	   5.05672	
   17.7452	0.000214987	   17.7492	0.000208659	   17.7135	0.000199907	    17.736	0.000207851	    17.736	   5.19627	
   17.8462	0.000220549	   17.8511	0.000214415	   17.8138	0.000205266	    17.837	0.00021341	    17.837	   5.33524	
   17.9467	0.000226017	    17.952	0.000220162	   17.9132	0.000210655	   17.9373	0.000218945	   17.9373	   5.47362	
   18.0466	0.000231484	    18.052	0.000225878	   18.0122	0.000216039	    18.037	0.000224467	    18.037	   5.61168	
   18.1459	0.000237015	   18.1512	0.000231576	   18.1106	0.000221364	   18.1359	0.000229985	   18.1359	   5.74962	
    18.244	0.000242549	   18.2499	0.000237278	    18.209	0.000226609	   18.2343	0.000235479	   18.2343	   5.88697	
   18.3417	0.000247996	   18.3477	0.000242982	   18.3068	0.000231818	   18.3321	0.000240932	   18.3321	    6.0233	
   18.4389	0.000253376	   18.4444	0.000248664	   18.4037	0.000237057	    18.429	0.000246366	    18.429	   6.15914	
   18.5354	0.000258781	   18.5403	0.000254331	   18.4997	0.000242321	   18.5252	0.000251811	   18.5252	   6.29528	
   18.6316	0.00026423	   18.6354	0.000259987	   18.5953	0.00024752	   18.6208	0.000257246	   18.6208	   6.43115	
   18.7273	0.00026964	   18.7302	0.000265581	   18.6901	0.000252629	   18.7159	0.000262617	   18.7159	   6.56541	
   18.8222	0.000274953	   18.8241	0.000271124	   18.7843	0.000257718	   18.8102	0.000267932	   18.8102	   6.69829	
   18.9162	0.00028022	   18.9172	0.000276668	   18.8777	0.000262859	   18.9037	0.000273249	   18.9037	   6.83123	
   19.0095	0.000285511	   19.0095	0.000282246	   18.9706	0.000268001	   18.9965	0.000278586	   18.9965	   6.96465	
    19.102	0.000290796	   19.1016	0.000287795	   19.0631	0.000273054	   19.0889	0.000283882	   19.0889	   7.09704	
   19.1935	0.000296031	   19.1928	0.000293246	    19.155	0.000278037	   19.1804	0.000289105	   19.1804	   7.22762	
   19.2844	0.000301222	   19.2832	0.000298623	   19.2457	0.000283048	   19.2711	0.000294298	   19.2711	   7.35744	
   19.3742	0.000306392	   19.3724	0.000304001	   19.3353	0.000288106	   19.3606	 0.0002995	   19.3606	   7.48749	
   19.4629	0.00031155	    19.461	0.000309389	    19.424	0.000293124	   19.4493	0.000304688	   19.4493	    7.6172	
   19.5504	0.000316662	   19.5488	0.000314733	   19.5116	0.000298044	    19.537	0.000309813	    19.537	   7.74533	
   19.6374	0.00032172	   19.6361	0.000319988	   19.5982	0.000302924	   19.6239	0.000314877	   19.6239	   7.87193	
   19.7237	0.000326756	   19.7226	0.00032517	   19.6842	0.000307866	   19.7102	0.000319931	   19.7102	   7.99827	
    19.809	0.000331813	   19.8087	0.00033031	   19.7689	0.000312886	   19.7955	0.000325003	   19.7955	   8.12508	
   19.8935	0.000336856	    19.894	0.000335474	    19.853	0.000317857	   19.8801	0.000330062	   19.8801	   8.25156	
   19.9771	0.000341845	   19.9783	0.00034068	   19.9366	0.000322686	    19.964	0.00033507	    19.964	   8.37676	
   20.0602	0.000346786	   20.0618	0.000345849	    20.019	0.000327458	    20.047	0.000340031	    20.047	   8.50078	
   20.1428	0.000351727	   20.1442	0.000350923	   20.1006	0.000332326	   20.1292	0.000344992	   20.1292	    8.6248	
   20.2245	0.000356683	   20.2262	0.000355894	   20.1815	0.000337269	   20.2107	0.000349949	   20.2107	   8.74872	
   20.3056	0.000361614	   20.3074	0.000360832	   20.2619	0.00034213	   20.2916	0.000354859	   20.2916	   8.87147	
   20.3858	0.000366485	   20.3877	0.000365812	   20.3415	0.000346893	   20.3717	0.00035973	   20.3717	   8.99325	
   20.4651	0.000371321	   20.4673	0.000370795	     20.42	0.000351617	   20.4508	0.000364578	   20.4508	   9.11445	
   20.5436	0.000376154	   20.5463	0.000375684	   20.4975	0.000356347	   20.5292	0.000369395	   20.5292	   9.23487	
   20.6208	0.000380977	   20.6247	0.000380484	   20.5743	0.000361074	   20.6066	0.000374178	   20.6066	   9.35446	
   20.6972	0.000385755	   20.7021	0.000385274	   20.6504	0.000365764	   20.6832	0.000378931	   20.6832	   9.47328	
   20.7727	0.00039048	   20.7785	0.000390094	   20.7257	0.000370418	   20.7589	0.000383664	   20.7589	    9.5916	
   20.8475	0.000395176	    20.854	0.000394885	   20.8007	0.000375053	   20.8341	0.000388371	   20.8341	   9.70929	
   20.9213	0.00039985	   20.9285	0.000399586	   20.8748	0.00037966	   20.9082	0.000393032	   20.9082	    9.8258	
   20.9942	0.000404478	   21.0017	0.000404221	   20.9481	0.000384226	   20.9813	0.000397642	   20.9813	   9.94104	
   21.0663	0.000409083	   21.0741	0.000408857	    21.021	0.000388747	   21.0538	0.000402229	   21.0538	   10.0557	
   21.1375	0.000413699	   21.1465	0.000413502	   21.0925	0.000393237	   21.1255	0.000406813	   21.1255	   10.1703	
   21.2079	0.000418363	   21.2179	0.000418094	   21.1635	0.000397718	   21.1964	0.000411392	   21.1964	   10.2848	
   21.2776	0.000422936	   21.2887	0.000422596	   21.2339	0.000402177	   21.2667	0.000415903	   21.2667	   10.3976	
   21.3482	0.000427328	   21.3589	0.000427056	   21.3034	0.000406588	   21.3368	0.000420324	   21.3368	   10.5081	
   21.4181	0.000431706	   21.4285	0.000431567	   21.3721	0.000410948	   21.4062	0.00042474	   21.4062	   10.6185	
    21.485	 0.0004363	   21.4974	0.000436064	   21.4397	0.000415288	    21.474	0.000429217	    21.474	   10.7304	
   21.5491	0.000441008	   21.5657	0.000440413	   21.5065	0.000419624	   21.5404	0.000433681	   21.5404	    10.842	
   21.6125	0.000445514	    21.633	0.000444662	    21.573	0.000423934	   21.6061	0.000438037	   21.6061	   10.9509	
    21.676	0.000449767	   21.6991	0.000448926	    21.639	0.000428136	   21.6714	0.000442277	   21.6714	   11.0569	
   21.7389	0.000454013	   21.7645	0.000453243	    21.704	0.000432296	   21.7358	0.000446518	   21.7358	   11.1629	
   21.8011	0.000458397	   21.8295	0.000457534	    21.768	0.000436511	   21.7995	0.000450814	   21.7995	   11.2704	
   21.8626	0.00046277	   21.8936	0.000461699	   21.8306	0.000440749	   21.8623	0.000455073	   21.8623	   11.3768	
   21.9227	0.000466965	   21.9565	0.00046574	   21.8921	0.000444896	   21.9238	 0.0004592	   21.9238	     11.48	
   21.9818	0.000471007	   22.0185	0.000469778	   21.9527	0.000448905	   21.9843	0.00046323	   21.9843	   11.5808	
   22.0401	0.000475078	   22.0796	0.000473873	   22.0126	0.000452881	   22.0441	0.000467277	   22.0441	   11.6819	
   22.0979	0.000479213	   22.1392	0.000477951	   22.0718	0.00045693	    22.103	0.000471365	    22.103	   11.7841	
   22.1544	0.000483272	   22.1975	 0.0004819	   22.1298	0.000460991	   22.1606	0.000475388	   22.1606	   11.8847	
   22.2099	0.000487176	   22.2548	0.000485725	   22.1876	0.00046494	   22.2174	0.00047928	   22.2174	    11.982	
   22.2649	0.000491028	   22.3112	0.000489576	   22.2446	0.000468779	   22.2736	0.000483128	   22.2736	   12.0782	
    22.319	0.000494971	   22.3667	0.000493547	   22.3009	0.000472614	   22.3289	0.000487044	   22.3289	   12.1761	
   22.3721	0.000498949	   22.4217	0.000497513	   22.3561	0.00047649	   22.3833	0.000490984	   22.3833	   12.2746	
   22.4248	0.000502803	   22.4762	0.000501309	   22.4103	0.00048033	   22.4371	0.000494814	   22.4371	   12.3704	
   22.4766	0.000506524	   22.5296	0.000504984	   22.4638	0.000484051	     22.49	0.000498519	     22.49	    12.463	
    22.528	0.000510251	   22.5821	0.000508709	   22.5165	0.000487693	   22.5422	0.000502218	   22.5422	   12.5554	
   22.5785	0.000514052	   22.6336	0.000512518	   22.5683	0.000491351	   22.5935	0.000505974	   22.5935	   12.6493	
   22.6279	0.000517846	   22.6847	0.000516295	   22.6192	0.000495024	   22.6439	0.000509722	   22.6439	    12.743	
    22.676	0.000521518	   22.7347	0.000519954	    22.669	0.000498626	   22.6933	0.000513366	   22.6933	   12.8342	
   22.7233	0.000525097	   22.7839	0.00052355	    22.718	0.000502126	   22.7417	0.000516924	   22.7417	   12.9231	
   22.7699	0.000528699	   22.8322	0.00052719	   22.7661	0.000505595	   22.7894	0.000520495	   22.7894	   13.0124	
   22.8153	0.000532353	   22.8797	0.000530877	   22.8133	0.000509092	   22.8361	0.000524107	   22.8361	   13.1027	
   22.8601	0.000535958	   22.9265	0.000534498	   22.8596	0.000512584	   22.8821	0.00052768	   22.8821	    13.192	
   22.9042	0.000539436	   22.9722	0.000538026	   22.9047	0.000516005	    22.927	0.000531156	    22.927	   13.2789	
   22.9478	0.000542855	   23.0169	0.000541563	   22.9491	0.000519356	   22.9712	0.000534592	   22.9712	   13.3648	
     22.99	0.000546323	   23.0605	0.000545146	   22.9924	0.000522691	   23.0143	0.000538053	   23.0143	   13.4513	
   23.0311	0.000549821	   23.1027	0.000548665	   23.0346	0.000526039	   23.0561	0.000541508	   23.0561	   13.5377	
   23.0715	0.000553243	    23.144	0.000552057	   23.0755	0.000529357	    23.097	0.000544886	    23.097	   13.6221	
    23.111	0.000556552	    23.184	0.000555445	   23.1154	0.000532595	   23.1368	0.000548197	   23.1368	   13.7049	
   23.1499	0.000559824	   23.2233	0.000558943	   23.1541	0.000535774	   23.1758	0.000551514	   23.1758	   13.7878	
    23.188	0.00056312	   23.2614	0.00056241	   23.1916	0.000538958	   23.2137	0.00055483	   23.2137	   13.8707	
   23.2253	0.000566403	   23.2987	0.000565679	   23.2281	0.000542138	   23.2507	0.000558074	   23.2507	   13.9518	
   23.2614	0.000569597	   23.3349	0.000568836	   23.2635	0.000545256	   23.2866	0.00056123	   23.2866	   14.0307	
   23.2962	0.000572708	     23.37	0.000572098	    23.298	0.000548314	   23.3214	0.000564373	   23.3214	   14.1093	
     23.33	0.000575808	    23.404	0.000575477	   23.3315	0.000551377	   23.3551	0.000567554	   23.3551	   14.1889	
   23.3622	0.00057892	   23.4368	0.000578783	   23.3644	0.000554462	   23.3878	0.000570722	   23.3878	    14.268	
   23.3937	0.000581982	   23.4688	0.000581879	   23.3965	0.000557503	   23.4196	0.000573788	   23.4196	   14.3447	
   23.4241	0.000584951	   23.4998	0.000584888	   23.4277	0.000560468	   23.4505	0.000576769	   23.4505	   14.4192	
   23.4539	0.000587866	   23.5302	0.000588031	   23.4582	0.000563409	   23.4807	0.000579769	   23.4807	   14.4942	
   23.4827	0.000590784	   23.5597	0.000591296	   23.4877	0.000566381	     23.51	0.00058282	     23.51	   14.5705	
   23.5109	0.000593699	   23.5884	0.000594436	   23.5165	0.000569368	   23.5386	0.000585834	   23.5386	   14.6459	
   23.5378	0.000596547	    23.616	0.000597369	   23.5442	0.000572306	    23.566	0.000588741	    23.566	   14.7185	
    23.564	0.000599317	   23.6429	0.000600277	   23.5703	0.000575161	   23.5924	0.000591585	   23.5924	   14.7896	
   23.5893	0.000602055	   23.6685	0.000603321	   23.5957	0.000577986	   23.6178	0.000594454	   23.6178	   14.8613	
   23.6135	0.000604794	   23.6932	0.00060641	   23.6207	0.000580838	   23.6425	0.000597347	   23.6425	   14.9337	
   23.6374	0.000607529	   23.7173	0.000609373	    23.645	0.000583685	   23.6666	0.000600196	   23.6666	   15.0049	
   23.6601	0.000610072	   23.7407	0.000612162	   23.6682	0.000586471	   23.6897	0.000602902	   23.6897	   15.0725	
   23.6819	0.000612491	   23.7632	0.000614992	   23.6908	0.000589246	    23.712	0.000605576	    23.712	   15.1394	
   23.7031	0.000615025	   23.7845	0.000617999	   23.7129	0.00059204	   23.7335	0.000608355	   23.7335	   15.2089	
   23.7235	0.000617711	    23.805	0.000621016	   23.7355	0.000594793	   23.7547	0.000611173	   23.7547	   15.2793	
   23.7426	0.000620324	   23.8245	0.00062382	   23.7577	0.000597436	   23.7749	0.00061386	   23.7749	   15.3465	
   23.7608	0.000622665	   23.8438	0.000626461	   23.7775	0.000600098	    23.794	0.000616408	    23.794	   15.4102	
   23.7781	0.00062488	   23.8621	0.000629224	   23.7945	0.000602881	   23.8116	0.000618995	   23.8116	   15.4749	
   23.7944	0.000627271	   23.8796	0.000632192	   23.8104	0.000605674	   23.8281	0.000621712	   23.8281	   15.5428	
   23.8099	0.000629808	   23.8961	0.000635124	   23.8259	0.000608302	    23.844	0.000624412	    23.844	   15.6103	
   23.8246	0.00063217	   23.9118	0.000637812	   23.8414	0.000610777	   23.8593	0.00062692	   23.8593	    15.673	
   23.8388	0.000634257	   23.9266	0.000640358	   23.8558	0.000613273	   23.8737	0.000629296	   23.8737	   15.7324	
   23.8523	0.00063637	   23.9401	0.000643017	   23.8689	0.000615896	   23.8871	0.000631761	   23.8871	    15.794	
   23.8642	0.000638703	   23.9529	0.000645833	   23.8805	0.000618519	   23.8992	0.000634352	   23.8992	   15.8588	
   23.8756	0.000641066	   23.9653	0.000648574	   23.8915	0.000620995	   23.9108	0.000636879	   23.9108	    15.922	
   23.8861	0.000643185	   23.9769	0.000651108	   23.9017	0.000623385	   23.9216	0.000639226	   23.9216	   15.9807	
   23.8962	0.000645111	   23.9876	0.000653587	   23.9107	0.000625817	   23.9315	0.000641505	   23.9315	   16.0376	
   23.9053	0.000647141	   23.9971	0.000656192	   23.9191	0.00062826	   23.9405	0.000643864	   23.9405	   16.0966	
   23.9133	0.000649356	   24.0056	0.000658859	   23.9264	0.000630585	   23.9484	0.000646267	   23.9484	   16.1567	
     23.92	0.000651508	   24.0136	0.000661395	   23.9328	0.000632846	   23.9555	0.000648583	   23.9555	   16.2146	
   23.9258	0.000653409	   24.0206	0.000663765	   23.9383	0.000635159	   23.9616	0.000650778	   23.9616	   16.2694	
   23.9308	0.000655196	   24.0263	0.000666146	   23.9433	0.000637522	   23.9668	0.000652955	   23.9668	   16.3239	
   23.9349	0.000657085	   24.0308	0.00066864	    23.948	0.000639797	   23.9712	0.000655174	   23.9712	   16.3794	
   23.9379	0.000659095	    24.034	0.000671126	   23.9517	0.000641932	   23.9745	0.000657384	   23.9745	   16.4346	
    23.939	0.000661059	   24.0355	0.000673462	   23.9544	0.000644034	   23.9763	0.000659518	   23.9763	    16.488	
   23.9388	0.000662851	   24.0362	0.000675719	   23.9565	0.000646214	   23.9772	0.000661595	   23.9772	   16.5399	
   23.9379	0.000664566	   24.0359	0.000678023	   23.9576	0.000648414	   23.9771	0.000663668	   23.9771	   16.5917	
   23.9363	0.000666334	   24.0347	0.000680351	   23.9574	 0.0006505	   23.9762	0.000665729	   23.9762	   16.6432	
   23.9345	0.000668167	    24.033	0.000682567	   23.9564	0.000652451	   23.9746	0.000667728	   23.9746	   16.6932	
   23.9318	0.000669933	   24.0302	0.000684688	   23.9541	0.000654405	    23.972	0.000669676	    23.972	   16.7419	
   23.9285	0.000671575	   24.0264	0.000686836	   23.9512	0.000656446	   23.9687	0.000671619	   23.9687	   16.7905	
   23.9236	0.000673168	   24.0217	0.000689026	   23.9473	0.000658486	   23.9642	0.00067356	   23.9642	    16.839	
   23.9178	0.000674817	   24.0165	0.000691139	   23.9422	0.000660391	   23.9588	0.000675449	   23.9588	   16.8862	
   23.9118	0.000676476	     24.01	0.000693105	    23.936	0.00066216	   23.9526	0.000677247	   23.9526	   16.9312	
   23.9046	0.000678062	   24.0026	0.000695003	    23.929	0.00066395	   23.9454	0.000679005	   23.9454	   16.9751	
   23.8964	0.000679578	   23.9939	0.000696942	   23.9209	0.000665782	   23.9371	0.000680767	   23.9371	   17.0192	
   23.8872	0.000681107	   23.9843	0.000698894	   23.9115	0.000667569	   23.9277	0.000682523	   23.9277	   17.0631	
   23.8769	0.00068268	   23.9738	0.000700732	   23.9014	0.000669276	   23.9174	0.00068423	   23.9174	   17.1057	
   23.8656	0.000684261	   23.9625	0.00070244	   23.8902	0.000670965	   23.9061	0.000685889	   23.9061	   17.1472	
   23.8542	0.000685791	   23.9503	0.000704121	    23.878	0.000672655	   23.8942	0.000687522	   23.8942	   17.1881	
   23.8419	0.000687259	   23.9369	0.000705848	   23.8649	 0.0006743	   23.8812	0.000689135	   23.8812	   17.2284	
   23.8286	0.000688723	   23.9223	0.00070755	   23.8509	0.000675955	   23.8673	0.000690742	   23.8673	   17.2686	
   23.8142	0.000690227	   23.9068	0.000709127	   23.8362	0.000677571	   23.8524	0.000692308	   23.8524	   17.3077	
   23.7986	0.000691713	   23.8902	0.00071063	    23.823	0.00067907	   23.8372	0.000693804	   23.8372	   17.3451	
    23.782	0.00069312	   23.8728	0.000712123	   23.8086	0.00068047	   23.8211	0.000695238	   23.8211	   17.3809	
   23.7644	0.000694477	   23.8547	0.000713585	   23.7911	0.000681924	   23.8034	0.000696662	   23.8034	   17.4165	
   23.7454	0.000695818	   23.8359	0.000714982	   23.7719	0.000683476	   23.7844	0.000698092	   23.7844	   17.4523	
   23.7255	0.000697196	   23.8156	0.000716347	   23.7517	0.000685038	   23.7643	0.000699527	   23.7643	   17.4882	
   23.7046	0.000698605	   23.7942	0.000717708	   23.7314	0.000686474	   23.7434	0.000700929	   23.7434	   17.5232	
   23.6826	0.000699959	   23.7717	0.000719038	   23.7105	0.000687788	   23.7216	0.000702262	   23.7216	   17.5565	
   23.6592	0.00070121	   23.7485	0.000720297	   23.6896	0.000689109	   23.6991	0.000703539	   23.6991	   17.5885	
   23.6349	0.000702414	   23.7241	0.000721489	   23.6674	0.000690498	   23.6755	 0.0007048	   23.6755	     17.62	
   23.6094	0.000703645	   23.6985	0.000722662	    23.643	0.000691868	   23.6503	0.000706058	   23.6503	   17.6515	
   23.5835	0.000704914	   23.6723	0.000723826	   23.6171	0.00069312	   23.6243	0.000707287	   23.6243	   17.6822	
   23.5561	0.000706155	   23.6447	0.000724953	   23.5904	0.000694299	   23.5971	0.000708469	   23.5971	   17.7117	
   23.5279	0.000707318	    23.616	0.000726007	   23.5627	0.000695514	   23.5689	0.000709613	   23.5689	   17.7403	
   23.4985	0.00070845	   23.5866	0.000727003	   23.5339	0.000696777	   23.5397	0.000710743	   23.5397	   17.7686	
   23.4676	0.000709603	   23.5563	0.000727992	   23.5039	0.000697986	   23.5093	0.000711861	   23.5093	   17.7965	
   23.4359	0.000710762	   23.5255	0.000729005	   23.4729	0.000699099	   23.4781	0.000712956	   23.4781	   17.8239	
   23.4036	0.000711871	   23.4938	0.000729962	   23.4408	0.000700176	   23.4461	0.000714003	   23.4461	   17.8501	
   23.3706	0.000712923	   23.4609	0.000730792	   23.4076	0.00070127	    23.413	0.000714995	    23.413	   17.8749	
   23.3366	0.000713964	   23.4269	0.00073156	   23.3731	0.00070238	   23.3789	0.000715968	   23.3789	   17.8992	
   23.3023	0.000715016	   23.3918	0.000732386	    23.338	0.000703535	    23.344	0.000716979	    23.344	   17.9245	
    23.267	0.000716041	   23.3558	0.00073326	   23.3017	 0.0007047	   23.3082	  0.000718	   23.3082	     17.95	
   23.2308	0.00071701	   23.3185	0.00073408	   23.2642	0.000705794	   23.2712	0.000718961	   23.2712	    17.974	
   23.1937	0.000717942	   23.2807	0.000734815	   23.2259	0.000706732	   23.2334	0.00071983	   23.2334	   17.9957	
   23.1554	0.000718868	   23.2419	0.000735518	   23.1864	 0.0007076	   23.1946	0.000720662	   23.1946	   18.0165	
   23.1168	0.000719785	    23.202	0.00073625	   23.1459	0.00070854	   23.1549	0.000721525	   23.1549	   18.0381	
   23.0775	0.00072066	   23.1614	0.000737008	   23.1041	0.000709539	   23.1143	0.000722402	   23.1143	   18.0601	
   23.0373	0.000721483	     23.12	0.000737719	    23.061	0.000710447	   23.0728	0.000723216	   23.0728	   18.0804	
    22.996	0.000722286	   23.0777	0.000738351	   23.0166	0.000711223	   23.0301	0.000723953	   23.0301	   18.0988	
   22.9539	0.000723087	   23.0344	0.000738961	   22.9712	0.000711969	   22.9865	0.000724672	   22.9865	   18.1168	
   22.9109	0.000723869	     22.99	0.000739605	   22.9248	0.000712766	   22.9419	0.000725414	   22.9419	   18.1353	
   22.8673	0.000724608	   22.9448	0.000740245	   22.8778	0.000713562	   22.8966	0.000726138	   22.8966	   18.1535	
   22.8227	0.00072531	   22.8984	0.000740817	   22.8296	0.000714252	   22.8502	0.000726793	   22.8502	   18.1698	
   22.7773	0.000726002	   22.8506	0.000741333	   22.7809	0.000714839	    22.803	0.000727391	    22.803	   18.1848	
   22.7308	0.000726689	   22.8019	0.000741851	   22.7311	0.000715416	   22.7546	0.000727985	   22.7546	   18.1996	
   22.6836	0.000727408	   22.7521	0.000742382	   22.6809	0.000716043	   22.7055	0.000728611	   22.7055	   18.2153	
   22.6353	0.000728104	   22.7012	0.000742889	   22.6297	0.000716635	   22.6554	0.00072921	   22.6554	   18.2302	
   22.5859	0.000728697	   22.6498	0.000743358	   22.5779	0.000717111	   22.6045	0.000729722	   22.6045	    18.243	
   22.5353	0.000729231	   22.5972	0.000743782	   22.5253	0.000717484	   22.5526	0.000730166	   22.5526	   18.2541	
   22.4834	0.000729779	   22.5437	0.000744165	   22.4717	0.000717861	   22.4996	0.000730601	   22.4996	    18.265	
   22.4305	0.000730346	   22.4893	0.000744528	   22.4163	0.000718315	   22.4454	0.000731063	   22.4454	   18.2766	
   22.3765	0.000730888	   22.4342	0.000744855	   22.3605	0.000718773	   22.3904	0.000731505	   22.3904	   18.2876	
   22.3216	0.000731367	   22.3781	0.00074515	   22.3039	0.000719094	   22.3345	0.00073187	   22.3345	   18.2968	
   22.2662	0.000731779	    22.321	0.000745442	   22.2473	0.000719282	   22.2782	0.000732168	   22.2782	   18.3042	
   22.2096	0.000732198	    22.263	0.000745732	   22.1907	0.000719476	   22.2211	0.000732469	   22.2211	   18.3117	
   22.1524	0.000732642	   22.2043	0.000745971	   22.1333	0.000719713	   22.1633	0.000732775	   22.1633	   18.3194	
   22.0945	0.00073305	   22.1451	0.000746176	   22.0748	0.000719946	   22.1048	0.000733058	   22.1048	   18.3264	
   22.0358	0.000733382	   22.0853	0.000746364	   22.0148	 0.0007201	   22.0453	0.000733282	   22.0453	    18.332	
   21.9761	0.000733667	   22.0246	0.000746547	   21.9537	0.000720187	   21.9848	0.000733467	   21.9848	   18.3367	
   21.9154	0.00073397	   21.9631	0.000746711	    21.892	0.000720285	   21.9235	0.000733656	   21.9235	   18.3414	
   21.8535	0.000734304	   21.9009	0.000746836	   21.8294	0.000720432	   21.8613	0.000733857	   21.8613	   18.3464	
   21.7907	0.000734606	   21.8374	0.000746928	   21.7656	0.000720567	   21.7979	0.000734034	   21.7979	   18.3508	
   21.7268	0.000734825	   21.7731	0.000747006	   21.7008	0.000720626	   21.7336	0.000734152	   21.7336	   18.3538	
   21.6622	0.00073501	   21.7079	0.000747072	   21.6349	0.00072062	   21.6683	0.000734234	   21.6683	   18.3558	
   21.5967	0.000735228	   21.6416	0.000747115	   21.5682	0.000720632	   21.6021	0.000734325	   21.6021	   18.3581	
   21.5302	0.000735455	   21.5746	0.000747129	   21.5007	0.000720713	   21.5352	0.000734432	   21.5352	   18.3608	
   21.4626	0.000735631	   21.5069	0.000747122	   21.4325	0.000720803	   21.4673	0.000734519	   21.4673	    18.363	
   21.3938	0.000735748	   21.4382	0.000747118	   21.3635	0.000720819	   21.3985	0.000734562	   21.3985	    18.364	
   21.3239	0.000735864	   21.3683	0.000747112	   21.2938	0.000720767	   21.3287	0.000734581	   21.3287	   18.3645	
   21.2531	0.000736015	   21.2973	0.000747085	   21.2233	0.000720739	   21.2579	0.000734613	   21.2579	   18.3653	
   21.1816	0.000736164	   21.2253	0.000747025	    21.152	0.000720775	   21.1863	0.000734654	   21.1863	   18.3664	
   21.1089	0.000736248	   21.1524	0.000746956	   21.0802	0.000720825	   21.1138	0.000734676	   21.1138	   18.3669	
   21.0358	0.000736269	   21.0789	0.000746909	   21.0072	0.000720839	   21.0406	0.000734673	   21.0406	   18.3668	
   20.9619	0.000736299	   21.0043	0.000746879	   20.9327	0.000720817	   20.9663	0.000734665	   20.9663	   18.3666	
   20.8873	0.000736371	   20.9287	0.000746817	   20.8573	0.000720795	   20.8911	0.000734661	   20.8911	   18.3665	
   20.8119	0.000736427	   20.8523	0.000746717	    20.781	0.000720767	   20.8151	0.000734637	   20.8151	   18.3659	
   20.7356	0.000736419	   20.7754	0.000746624	    20.704	0.000720756	   20.7384	 0.0007346	   20.7384	    18.365	
   20.6583	0.000736378	   20.6979	0.000746553	   20.6266	0.00072077	   20.6609	0.000734567	   20.6609	   18.3642	
   20.5804	0.000736389	   20.6193	0.000746471	   20.5484	0.000720764	   20.5827	0.000734541	   20.5827	   18.3635	
   20.5017	0.000736401	   20.5396	0.000746355	   20.4693	0.000720674	   20.5035	0.000734477	   20.5035	   18.3619	
   20.4222	0.000736322	    20.459	0.000746215	   20.3899	0.000720523	   20.4237	0.000734353	   20.4237	   18.3588	
   20.3419	0.00073618	   20.3777	0.000746069	   20.3097	0.000720394	   20.3431	0.000734214	   20.3431	   18.3554	
   20.2607	0.000736107	   20.2953	0.000745927	   20.2286	0.000720302	   20.2615	0.000734112	   20.2615	   18.3528	
   20.1791	0.000736102	    20.212	0.00074577	   20.1466	0.00072019	   20.1792	0.000734021	   20.1792	   18.3505	
   20.0964	0.000736041	    20.128	0.000745583	   20.0639	0.000720011	   20.0961	0.000733878	   20.0961	    18.347	
   20.0127	0.000735858	   20.0432	0.000745373	   19.9805	0.000719773	   20.0121	0.000733668	   20.0121	   18.3417	
   19.9287	0.00073564	   19.9574	0.000745159	    19.896	0.000719533	   19.9274	0.000733444	   19.9274	   18.3361	
   19.8439	0.000735488	   19.8709	0.000744941	   19.8101	0.000719317	   19.8416	0.000733249	   19.8416	   18.3312	
   19.7583	0.000735377	   19.7835	0.000744674	   19.7234	0.000719061	   19.7551	0.000733037	   19.7551	   18.3259	
   19.6719	0.000735199	    19.695	0.000744375	    19.636	0.000718773	   19.6676	0.000732782	   19.6676	   18.3196	
   19.5849	0.000734902	   19.6057	0.000744102	   19.5461	0.000718554	   19.5789	0.000732519	   19.5789	    18.313	
   19.4981	0.000734586	   19.5156	0.000743845	   19.4555	0.000718363	   19.4897	0.000732264	   19.4897	   18.3066	
   19.4105	0.000734316	    19.425	0.000743554	   19.3652	0.000718054	   19.4002	0.000731975	   19.4002	   18.2994	
   19.3216	0.000734073	    19.334	0.000743198	   19.2748	0.000717642	   19.3101	0.000731637	   19.3101	   18.2909	
   19.2315	0.000733797	   19.2421	0.000742818	   19.1842	0.000717266	   19.2193	0.000731294	   19.2193	   18.2823	
   19.1403	0.000733486	   19.1496	0.000742471	   19.0929	0.000717021	   19.1276	0.000730993	   19.1276	   18.2748	
   19.0484	0.000733125	   19.0566	0.000742143	   19.0008	0.000716776	   19.0353	0.000730681	   19.0353	    18.267	
   18.9554	0.000732738	   18.9627	0.000741836	   18.9076	0.000716354	   18.9419	0.000730309	   18.9419	   18.2577	
   18.8616	0.00073236	   18.8679	0.000741545	   18.8138	0.000715832	   18.8478	0.000729912	   18.8478	   18.2478	
   18.7675	  0.000732	   18.7723	0.00074119	   18.7195	0.000715398	   18.7531	0.000729529	   18.7531	   18.2382	
   18.6732	0.000731624	   18.6755	0.000740764	   18.6241	0.000715095	   18.6576	0.000729161	   18.6576	    18.229	
   18.5776	0.000731189	   18.5783	0.000740321	   18.5279	0.000714748	   18.5613	0.000728753	   18.5613	   18.2188	
   18.4812	0.000730713	   18.4807	0.000739913	   18.4314	0.000714228	   18.4644	0.000728284	   18.4644	   18.2071	
   18.3834	0.000730238	   18.3826	0.000739518	   18.3338	0.000713663	   18.3666	0.000727806	   18.3666	   18.1952	
   18.2848	0.00072978	   18.2842	0.000739077	   18.2357	0.000713263	   18.2682	0.000727374	   18.2682	   18.1843	
   18.1854	 0.0007293	    18.185	0.000738568	   18.1369	0.000712912	   18.1691	0.000726927	   18.1691	   18.1732	
   18.0853	0.000728771	   18.0852	0.000738042	   18.0371	0.000712389	   18.0692	0.000726401	   18.0692	     18.16	
   17.9843	0.000728209	   17.9848	0.000737539	   17.9364	0.000711722	   17.9685	0.000725823	   17.9685	   18.1456	
   17.8827	0.000727653	   17.8837	0.000737024	   17.8345	0.000711153	    17.867	0.000725276	    17.867	   18.1319	
   17.7807	0.000727099	   17.7823	0.000736445	   17.7321	0.000710781	    17.765	0.000724775	    17.765	   18.1194	
   17.6779	0.000726516	   17.6798	0.000735815	   17.6292	0.000710433	   17.6623	0.000724255	   17.6623	   18.1064	
   17.5747	0.000725892	    17.577	0.000735185	   17.5257	0.000709849	   17.5591	0.000723642	   17.5591	   18.0911	
   17.4705	0.000725247	   17.4737	0.000734569	   17.4214	0.000709086	   17.4552	0.000722967	   17.4552	   18.0742	
   17.3653	0.000724603	   17.3693	0.000733917	   17.3167	0.000708434	   17.3504	0.000722318	   17.3504	   18.0579	
   17.2594	0.00072395	   17.2643	0.000733196	   17.2114	0.000707978	    17.245	0.000721708	    17.245	   18.0427	
   17.1527	0.000723265	    17.159	0.000732439	   17.1052	0.000707484	    17.139	0.000721063	    17.139	   18.0266	
   17.0454	0.000722549	   17.0526	0.000731687	   16.9987	0.000706744	   17.0322	0.000720327	   17.0322	   18.0082	
   16.9369	0.000721822	   16.9454	0.00073093	   16.8916	0.00070585	   16.9247	0.000719534	   16.9247	   17.9884	
   16.8277	0.000721089	   16.8381	0.000730122	    16.784	0.000705108	   16.8166	0.000718773	   16.8166	   17.9693	
   16.7176	0.000720382	   16.7303	0.000729256	   16.6759	0.000704577	   16.7079	0.000718071	   16.7079	   17.9518	
   16.6066	0.000719658	   16.6212	0.000728374	   16.5676	0.000704001	   16.5985	0.000717344	   16.5985	   17.9336	
   16.4948	0.000718846	   16.5113	0.000727497	   16.4587	0.000703107	   16.4883	0.000716484	   16.4883	   17.9121	
   16.3826	0.000718002	   16.4008	0.000726593	   16.3492	0.000702047	   16.3775	0.000715547	   16.3775	   17.8887	
   16.2698	0.000717223	   16.2895	0.000725632	   16.2387	0.000701173	    16.266	0.000714676	    16.266	   17.8669	
   16.1562	0.000716542	   16.1769	0.000724636	   16.1274	0.000700518	   16.1535	0.000713899	   16.1535	   17.8475	
   16.0419	0.000715823	   16.0641	0.000723639	   16.0153	0.000699793	   16.0404	0.000713085	   16.0404	   17.8271	
    15.927	0.000714962	   15.9509	0.000722642	   15.9028	0.000698774	   15.9269	0.000712126	   15.9269	   17.8031	
   15.8115	0.000714035	   15.8367	0.000721612	   15.7896	0.000697607	   15.8126	0.000711085	   15.8126	   17.7771	
   15.6955	0.000713179	   15.7216	0.000720535	   15.6753	0.000696626	   15.6975	0.000710113	   15.6975	   17.7528	
   15.5792	0.000712379	   15.6059	0.000719443	   15.5598	0.000695868	   15.5816	0.00070923	   15.5816	   17.7307	
   15.4616	0.000711519	   15.4893	0.000718363	   15.4437	0.000695034	   15.4648	0.000708305	   15.4648	   17.7076	
   15.3437	0.000710557	   15.3721	0.000717259	   15.3269	0.000693951	   15.3476	0.000707256	   15.3476	   17.6814	
   15.2252	0.000709558	   15.2544	0.000716107	   15.2092	0.000692813	   15.2296	0.000706159	   15.2296	    17.654	
   15.1067	0.000708558	    15.136	0.000714946	   15.0908	0.000691854	   15.1112	0.000705119	   15.1112	    17.628	
   14.9889	0.000707456	   15.0169	0.000713848	   14.9713	0.000690996	   14.9923	 0.0007041	   14.9923	   17.6025	
   14.8704	0.00070624	   14.8969	0.000712809	   14.8515	0.000689983	   14.8729	0.00070301	   14.8729	   17.5753	
   14.7509	0.000705073	   14.7769	0.000711718	   14.7311	0.000688778	    14.753	0.000701856	    14.753	   17.5464	
   14.6288	0.000704016	   14.6563	0.000710503	   14.6102	0.000687603	   14.6318	0.000700707	   14.6318	   17.5177	
   14.5061	0.000702903	   14.5348	0.000709261	   14.4884	0.000686584	   14.5097	0.000699583	   14.5097	   17.4896	
   14.3831	0.000701601	   14.4124	0.000708132	    14.366	0.000685572	   14.3872	0.000698435	   14.3872	   17.4609	
   14.2599	0.000700232	     14.29	0.000707082	   14.2433	0.000684383	   14.2644	0.000697232	   14.2644	   17.4308	
    14.136	0.000698986	   14.1667	0.000705957	   14.1196	0.000683073	   14.1408	0.000696005	   14.1408	   17.4001	
   14.0114	0.000697825	    14.043	0.000704685	   13.9953	0.000681839	   14.0166	0.000694783	   14.0166	   17.3696	
   13.8863	0.000696556	   13.9192	0.000703396	    13.871	0.000680722	   13.8922	0.000693558	   13.8922	   17.3389	
   13.7613	0.000695128	   13.7949	0.000702212	    13.746	0.000679548	   13.7674	0.000692296	   13.7674	   17.3074	
   13.6361	0.000693698	   13.6703	0.000701077	   13.6203	0.00067821	   13.6422	0.000690995	   13.6422	   17.2749	
   13.5106	0.000692381	   13.5446	0.000699848	   13.4941	0.000676828	   13.5164	0.000689686	   13.5164	   17.2421	
   13.3846	0.000691097	   13.4181	0.00069851	   13.3674	0.000675555	     13.39	0.000688387	     13.39	   17.2097	
   13.2578	0.000689689	   13.2913	0.000697193	   13.2401	0.000674347	   13.2631	0.000687076	   13.2631	   17.1769	
   13.1309	0.000688153	   13.1638	0.000695975	   13.1129	0.000673039	   13.1359	0.000685722	   13.1359	   17.1431	
   13.0038	0.000686645	   13.0358	0.000694765	   12.9848	0.000671598	   13.0082	0.000684336	   13.0082	   17.1084	
   12.8761	0.000685233	   12.9078	0.000693445	   12.8561	0.000670193	     12.88	0.000682957	     12.88	   17.0739	
   12.7476	0.000683792	   12.7791	0.000692039	   12.7272	0.000668888	   12.7513	0.000681573	   12.7513	   17.0393	
   12.6186	0.000682215	   12.6493	0.000690674	   12.5978	0.000667543	   12.6219	0.000680144	   12.6219	   17.0036	
   12.4889	0.000680601	   12.5194	0.000689348	   12.4683	0.000666054	   12.4922	0.000678668	   12.4922	   16.9667	
   12.3587	0.000679073	   12.3899	0.000687896	    12.338	0.000664502	   12.3622	0.000677157	   12.3622	   16.9289	
   12.2282	0.000677599	   12.2607	0.000686291	   12.2072	0.00066304	    12.232	0.000675643	    12.232	   16.8911	
   12.0975	0.00067603	   12.1305	0.000684798	   12.0758	0.000661664	   12.1013	0.000674164	   12.1013	   16.8541	
   11.9666	0.000674338	   11.9978	0.000683438	   11.9439	0.000660223	   11.9695	0.000672666	   11.9695	   16.8167	
   11.8351	0.000672656	   11.8658	0.000681934	   11.8112	0.000658643	   11.8374	0.000671078	   11.8374	   16.7769	
   11.7034	0.000671069	   11.7348	0.000680179	   11.6782	0.000657042	   11.7055	0.00066943	   11.7055	   16.7358	
   11.5712	0.00066949	   11.6025	0.000678497	   11.5444	0.000655543	   11.5727	0.000667843	   11.5727	   16.6961	
   11.4382	0.000667795	   11.4681	0.000677115	   11.4103	0.000654092	   11.4389	0.000666334	   11.4389	   16.6583	
   11.3047	0.000666005	   11.3331	0.000675809	    11.276	0.000652545	   11.3046	0.000664786	   11.3046	   16.6197	
   11.1707	0.000664255	   11.1983	0.000674272	   11.1414	0.000650885	   11.1701	0.000663137	   11.1701	   16.5784	
   11.0357	0.000662594	   11.0633	0.000672559	   11.0059	0.000649253	    11.035	0.000661469	    11.035	   16.5367	
   10.9002	0.000660918	   10.9281	0.000670981	   10.8699	0.000647729	   10.8994	0.000659876	   10.8994	   16.4969	
    10.764	0.000659124	   10.7929	0.000669664	   10.7331	0.000646212	   10.7633	0.000658333	   10.7633	   16.4583	
   10.6273	0.000657243	   10.6569	0.000668382	   10.5958	0.000644583	   10.6267	0.000656736	   10.6267	   16.4184	
   10.4907	0.000655412	   10.5212	0.000666893	   10.4581	0.000642877	     10.49	0.00065506	     10.49	   16.3765	
   10.3545	0.000653676	   10.3853	0.000665302	   10.3203	0.000641215	   10.3534	0.000653398	   10.3534	   16.3349	
   10.2176	0.000651957	   10.2485	0.000663879	    10.182	0.00063965	    10.216	0.000651829	    10.216	   16.2957	
   10.0805	0.000650231	   10.1111	0.000662621	   10.0436	0.000638086	   10.0784	0.000650313	   10.0784	   16.2578	
   9.94337	0.000648515	   9.97343	0.000661267	   9.90527	0.000636418	   9.94069	0.000648734	   9.94069	   16.2183	
   9.80577	0.000646728	   9.83529	0.000659724	   9.76683	0.00063467	   9.80263	0.000647041	   9.80263	    16.176	
   9.66766	0.000644847	   9.69705	0.000658193	   9.62819	0.000632967	    9.6643	0.000645336	    9.6643	   16.1334	
   9.52911	0.00064297	   9.55852	0.000656817	   9.48916	0.000631335	    9.5256	0.000643707	    9.5256	   16.0927	
   9.39036	0.000641129	   9.41961	0.00065549	   9.34948	0.000629689	   9.38648	0.000642103	   9.38648	   16.0526	
   9.25155	0.000639309	   9.28059	0.000654008	   9.20964	0.000627957	   9.24726	0.000640425	   9.24726	   16.0106	
   9.11244	0.000637451	   9.14111	0.000652406	   9.06928	0.000626189	   9.10761	0.000638682	   9.10761	   15.9671	
   8.97304	0.000635505	   9.00131	0.000650887	   8.92876	0.000624467	    8.9677	0.000636953	    8.9677	   15.9238	
   8.83307	0.000633503	   8.86115	0.000649513	   8.78784	0.000622779	   8.82736	0.000635265	   8.82736	   15.8816	
   8.69262	0.000631498	   8.72089	0.000648093	   8.64696	0.000621043	   8.68683	0.000633545	   8.68683	   15.8386	
   8.55212	0.000629492	   8.58001	0.000646498	   8.50596	0.000619235	   8.54603	0.000631742	   8.54603	   15.7935	
   8.41174	0.00062745	   8.43882	0.000644852	   8.36434	0.000617414	   8.40497	0.000629905	   8.40497	   15.7476	
   8.27135	0.000625356	   8.29716	0.000643342	   8.22254	0.000615623	   8.26369	0.000628107	   8.26369	   15.7027	
   8.13022	0.000623239	   8.15562	0.000641916	   8.08016	0.000613826	     8.122	0.000626327	     8.122	   15.6582	
   7.98849	0.000621134	    8.0137	0.000640366	   7.93755	0.000611972	   7.97991	0.00062449	   7.97991	   15.6123	
   7.84647	0.000619019	   7.87168	0.000638648	   7.79459	0.000610071	   7.83758	0.000622579	   7.83758	   15.5645	
   7.70448	0.000616862	   7.72944	0.000636935	   7.65139	0.000608127	    7.6951	0.000620642	    7.6951	    15.516	
   7.56252	0.000614659	   7.58689	0.000635338	   7.50806	0.00060618	   7.55249	0.000618726	   7.55249	   15.4681	
   7.42033	0.000612444	   7.44434	0.000633745	   7.36449	0.000604265	   7.40972	0.000616818	   7.40972	   15.4205	
   7.27791	0.000610236	   7.30141	0.000631998	   7.22108	0.000602321	    7.2668	0.000614852	    7.2668	   15.3713	
   7.13485	0.000608006	   7.15766	0.000630133	    7.0774	0.000600276	    7.1233	0.000612805	    7.1233	   15.3201	
   6.99134	0.000605731	   7.01388	0.00062831	   6.93361	0.000598165	   6.97961	0.000610735	   6.97961	   15.2684	
   6.84767	0.000603411	   6.86993	0.000626564	   6.78977	0.000596073	   6.83579	0.000608683	   6.83579	   15.2171	
   6.70386	0.000601087	   6.72552	0.000624759	   6.64555	0.000594019	   6.69164	0.000606621	   6.69164	   15.1655	
   6.55967	0.000598805	   6.58076	0.000622798	   6.50108	0.000591946	   6.54717	0.000604516	   6.54717	   15.1129	
   6.41493	0.000596501	    6.4357	0.000620767	   6.35602	0.000589792	   6.40221	0.000602354	   6.40221	   15.0588	
   6.27007	0.000594132	   6.29011	0.000618799	   6.21095	0.000587554	   6.25704	0.000600162	   6.25704	    15.004	
   6.12446	0.000591702	    6.1442	0.000616862	    6.0658	0.000585297	   6.11148	0.000597954	   6.11148	   14.9488	
   5.97857	0.000589281	   5.99823	0.000614818	   5.92083	0.000583111	   5.96588	0.000595736	   5.96588	   14.8934	
   5.83193	0.000586893	   5.85153	0.000612646	   5.77585	0.000580946	   5.81977	0.000593495	   5.81977	   14.8374	
   5.68488	0.000584502	   5.70461	0.000610447	   5.63042	0.000578703	    5.6733	0.000591217	    5.6733	   14.7804	
   5.53781	0.000582048	   5.55769	0.000608296	   5.48457	0.000576371	   5.52669	0.000588905	   5.52669	   14.7226	
   5.39058	0.00057954	   5.41037	0.000606132	   5.33853	0.00057401	   5.37983	0.000586561	   5.37983	    14.664	
   5.24327	0.000577031	   5.26283	0.000603856	   5.19222	0.000571708	   5.23277	0.000584198	   5.23277	    14.605	
   5.09561	0.000574552	   5.11493	0.000601472	   5.04574	0.000569469	   5.08543	0.000581831	   5.08543	   14.5458	
   4.94772	0.000572053	   4.96721	0.000599086	     4.899	0.000567143	   4.93798	0.000579427	   4.93798	   14.4857	
   4.79935	0.000569468	   4.81937	0.000596729	   4.75211	0.000564655	   4.79028	0.000576951	   4.79028	   14.4238	
   4.65061	0.000566839	   4.67111	0.000594305	   4.60499	0.000562112	   4.64223	0.000574419	   4.64223	   14.3605	
   4.50138	0.000564277	    4.5227	0.000591752	   4.45768	0.000559659	   4.49392	0.000571896	   4.49392	   14.2974	
   4.35167	0.000561763	   4.37412	0.000589146	   4.31017	0.000557257	   4.34532	0.000569389	   4.34532	   14.2347	
   4.20239	0.000559154	   4.22535	0.000586582	   4.16243	0.000554752	   4.19672	0.000566829	   4.19672	   14.1707	
   4.05325	0.000556411	   4.07665	0.000584064	   4.01451	0.000552093	   4.04814	0.000564189	   4.04814	   14.1047	
   3.90445	0.000553652	   3.92807	0.000581477	    3.8667	0.000549416	   3.89974	0.000561515	   3.89974	   14.0379	
   3.75513	0.000550954	   3.77914	0.000578743	   3.71872	0.000546835	     3.751	0.000558844	     3.751	   13.9711	
   3.60557	0.000548268	   3.62976	0.000575942	   3.57059	0.000544278	   3.60197	0.000556163	   3.60197	   13.9041	
   3.45577	0.000545492	   3.48049	0.000573193	   3.42212	0.00054159	    3.4528	0.000553425	    3.4528	   13.8356	
    3.3059	0.00054261	   3.33129	0.000570456	   3.27403	0.000538768	   3.30374	0.000550611	   3.30374	   13.7653	
   3.15685	0.000539718	   3.18181	0.000567599	     3.126	0.000535953	   3.15488	0.000547757	   3.15488	   13.6939	
    3.0076	0.00053689	   3.03216	0.000564647	   2.97806	0.00053322	   3.00594	0.000544919	   3.00594	    13.623	
   2.85751	0.000534064	   2.88228	0.000561744	   2.82997	0.00053047	   2.85659	0.000542092	   2.85659	   13.5523	
   2.70708	0.00053114	    2.7324	0.000558884	   2.68192	0.000527581	   2.70713	0.000539201	   2.70713	     13.48	
   2.55652	0.000528132	   2.58232	0.000555917	   2.53331	0.000524604	   2.55738	0.000536218	   2.55738	   13.4054	
   2.40633	0.000525144	   2.43202	0.000552814	   2.38454	0.000521668	   2.40763	0.000533209	   2.40763	   13.3302	
   2.25582	0.000522208	   2.28136	0.000549696	   2.23549	0.000518744	   2.25755	0.000530216	   2.25755	   13.2554	
   2.10552	0.00051924	   2.13069	0.000546648	   2.08649	0.000515774	   2.10756	0.00052722	   2.10756	   13.1805	
   1.95476	0.000516184	   1.97996	0.000543598	   1.93762	0.000512757	   1.95744	0.00052418	   1.95744	   13.1045	
   1.80384	0.000513082	   1.82903	0.000540437	   1.78859	0.000509727	   1.80716	0.000521082	   1.80716	   13.0271	
    1.6532	   0.00051	    1.6782	0.000537187	   1.63946	0.000506692	   1.65695	0.00051796	   1.65695	    12.949	
   1.50281	0.000506928	     1.527	0.000533931	    1.4906	0.000503584	   1.50681	0.000514814	   1.50681	   12.8704	
   1.35278	0.000503803	   1.37551	0.000530704	   1.34175	0.000500392	   1.35668	0.000511633	   1.35668	   12.7908	
   1.20258	0.000500604	   1.22332	0.000527475	   1.19274	0.00049722	   1.20621	0.000508433	   1.20621	   12.7108	
   1.05211	0.000497377	   1.07051	0.00052417	    1.0435	0.000494117	   1.05537	0.000505221	   1.05537	   12.6305	
  0.902128	0.00049417	  0.917764	0.000520733	  0.894156	0.000490977	  0.904683	0.00050196	  0.904683	    12.549	
  0.752003	0.000490976	  0.765675	0.000517316	  0.745091	0.000487697	  0.754256	0.000498663	  0.754256	   12.4666	
  0.601741	0.000487701	  0.613203	0.000514018	  0.595303	0.000484334	  0.603416	0.000495351	  0.603416	   12.3838	
  0.451662	0.000484292	  0.460789	0.000510699	  0.445234	0.00048103	  0.452562	0.000492007	  0.452562	   12.3002	
  0.301455	0.000480837	  0.308863	0.000507198	  0.294543	0.000477795	   0.30162	0.00048861	   0.30162	   12.2153	
  0.151375	0.000477423	  0.157457	0.000503569	  0.143772	0.000474538	  0.150868	0.000485177	  0.150868	   12.1294	
0.00118097	0.000474045	 0.0062756	0.00049995	-0.00693859	0.00047113	0.00017266	0.000481708	0.00017266	   12.0427	
 -0.148761	0.000470603	 -0.144674	0.000496385	 -0.157236	0.000467594	 -0.150224	0.000478194	 -0.150224	   11.9549	
 -0.299014	0.000467054	  -0.29541	0.000492809	 -0.307492	0.000464118	 -0.300638	0.00047466	 -0.300638	   11.8665	
 -0.449604	0.000463464	 -0.446181	0.000489116	 -0.457965	0.000460775	  -0.45125	0.000471119	  -0.45125	    11.778	
 -0.600234	0.000459871	 -0.596332	0.000485346	 -0.608772	0.000457415	 -0.601779	0.000467544	 -0.601779	   11.6886	
 -0.750674	0.000456222	 -0.746438	0.000481625	 -0.759799	0.000453882	 -0.752303	0.00046391	 -0.752303	   11.5977	
 -0.901353	0.000452478	 -0.896978	0.000477981	 -0.910894	0.000450253	 -0.903075	0.000460237	 -0.903075	   11.5059	
  -1.05234	0.000448686	   -1.0472	0.000474246	  -1.06214	0.00044669	  -1.05389	0.000456541	  -1.05389	   11.4135	
  -1.20318	0.000444894	  -1.19708	0.000470326	  -1.21328	0.000443204	  -1.20452	0.000452808	  -1.20452	   11.3202	
  -1.35349	0.000441089	   -1.3469	0.000466367	  -1.36434	0.000439639	  -1.35491	0.000449032	  -1.35491	   11.2258	
  -1.50357	0.000437211	  -1.49682	0.000462525	  -1.51518	0.000435923	  -1.50519	0.00044522	  -1.50519	   11.1305	
  -1.65337	0.000433258	  -1.64706	0.000458712	  -1.66554	0.000432162	  -1.65532	0.000441377	  -1.65532	   11.0344	
  -1.80305	0.00042926	  -1.79725	0.000454736	  -1.81577	0.000428465	  -1.80536	0.000437487	  -1.80536	   10.9372	
  -1.95266	0.000425254	  -1.94751	0.000450591	  -1.96577	0.000424778	  -1.95532	0.000433541	  -1.95532	   10.8385	
  -2.10205	0.000421204	  -2.09759	0.000446459	  -2.11573	0.000420985	  -2.10512	0.000429549	  -2.10512	   10.7387	
  -2.25138	0.000417061	  -2.24754	0.00044243	  -2.26586	0.000417074	  -2.25493	0.000425522	  -2.25493	    10.638	
  -2.40038	0.000412883	  -2.39775	0.000438378	  -2.41546	0.000413162	  -2.40453	0.000421474	  -2.40453	   10.5369	
  -2.54957	0.00040874	   -2.5478	0.000434163	  -2.56504	0.000409302	  -2.55414	0.000417402	  -2.55414	    10.435	
  -2.69885	0.000404571	  -2.69779	0.000429825	  -2.71455	0.000405412	  -2.70373	0.000413269	  -2.70373	   10.3317	
  -2.84787	0.000400259	  -2.84783	0.000425533	  -2.86363	0.000401403	  -2.85311	0.000409065	  -2.85311	   10.2266	
  -2.99671	0.00039584	  -2.99751	0.000421325	  -3.01274	0.000397329	  -3.00232	0.000404832	  -3.00232	   10.1208	
  -3.14572	0.000391463	  -3.14745	0.000417046	  -3.16186	0.000393295	  -3.15168	0.000400602	  -3.15168	    10.015	
  -3.29443	0.000387167	  -3.29692	0.000412598	  -3.31124	0.000389298	  -3.30086	0.000396354	  -3.30086	   9.90886	
  -3.44311	0.000382824	  -3.44625	0.000408089	   -3.4606	0.000385239	  -3.44999	0.000392051	  -3.44999	   9.80127	
  -3.59176	0.000378327	  -3.59521	0.000403653	   -3.6099	0.000381085	  -3.59896	0.000387688	  -3.59896	   9.69221	
   -3.7406	0.000373756	  -3.74386	0.00039925	  -3.75897	0.000376881	  -3.74781	0.000383296	  -3.74781	   9.58239	
   -3.8893	0.000369288	  -3.89253	0.000394756	  -3.90753	0.000372687	  -3.89645	0.00037891	  -3.89645	   9.47276	
  -4.03805	0.00036485	  -4.04116	0.000390145	  -4.05582	 0.0003685	  -4.04501	0.000374498	  -4.04501	   9.36246	
  -4.18646	0.000360228	   -4.1896	0.000385521	  -4.20386	0.000364258	  -4.19331	0.000370002	  -4.19331	   9.25006	
  -4.33502	0.000355418	  -4.33772	0.000380954	  -4.35157	0.000359937	  -4.34144	0.000365436	  -4.34144	    9.1359	
  -4.48345	0.000350714	  -4.48529	0.000376383	  -4.49887	0.000355599	   -4.4892	0.000360899	   -4.4892	   9.02247	
  -4.63137	0.000346212	   -4.6325	0.000371714	  -4.64614	0.000351275	  -4.63667	 0.0003564	  -4.63667	   8.91001	
  -4.77922	0.000341648	  -4.77944	0.000366963	  -4.79366	0.000346903	  -4.78411	0.000351838	  -4.78411	   8.79595	
  -4.92685	0.000336798	  -4.92615	0.000362212	  -4.94086	0.000342443	  -4.93129	0.000347151	  -4.93129	   8.67877	
  -5.07464	0.000331805	  -5.07284	0.000357488	  -5.08749	0.000337935	  -5.07832	0.000342409	  -5.07832	   8.56023	
  -5.22192	0.000326968	  -5.21903	0.000352691	  -5.23413	0.000333438	  -5.22502	0.000337699	  -5.22502	   8.44247	
  -5.36939	0.000322333	  -5.36525	0.000347868	  -5.38087	0.000328932	  -5.37184	0.000333044	  -5.37184	   8.32611	
  -5.51699	0.000317628	   -5.5111	0.000343125	  -5.52714	0.000324354	  -5.51841	0.000328369	  -5.51841	   8.20922	
  -5.66435	0.000312673	  -5.65682	0.00033839	  -5.67314	0.000319697	  -5.66477	0.000323587	  -5.66477	   8.08967	
  -5.81121	0.000307602	  -5.80228	0.000333501	  -5.81882	0.00031502	  -5.81077	0.000318708	  -5.81077	   7.96769	
  -5.95829	0.000302669	  -5.94726	0.000328511	  -5.96429	0.00031035	  -5.95662	0.000313844	  -5.95662	   7.84609	
  -6.10514	0.00029788	  -6.09232	0.000323607	  -6.10921	0.000305647	  -6.10222	0.000309045	  -6.10222	   7.72612	
  -6.25162	0.000292986	  -6.23654	0.00031878	  -6.25401	0.000300872	  -6.24739	0.000304213	  -6.24739	   7.60532	
  -6.39782	0.000287868	  -6.38063	0.000313861	  -6.39839	0.000296046	  -6.39228	0.000299258	  -6.39228	   7.48146	
  -6.54331	0.000282711	   -6.5248	0.000308802	  -6.54272	0.000291222	  -6.53694	0.000294245	  -6.53694	   7.35612	
  -6.68846	0.000277704	  -6.66834	0.000303759	  -6.68671	0.000286399	  -6.68117	0.000289288	  -6.68117	   7.23219	
  -6.83337	0.000272757	  -6.81159	0.000298812	  -6.83031	0.000281526	  -6.82509	0.000284365	  -6.82509	   7.10912	
  -6.97781	0.000267654	  -6.95472	0.000293815	  -6.97387	0.000276592	   -6.9688	0.000279353	   -6.9688	   6.98383	
  -7.12182	0.000262388	   -7.0977	0.000288635	  -7.11735	0.000271665	  -7.11229	0.000274229	  -7.11229	   6.85573	
  -7.26503	0.000257158	  -7.24062	0.000283382	  -7.26041	0.00026676	  -7.25536	 0.0002691	  -7.25536	    6.7275	
  -7.40801	0.000252055	  -7.38369	0.000278244	  -7.40335	0.000261813	  -7.39835	0.000264037	  -7.39835	   6.60094	
  -7.55074	0.000246935	  -7.52672	0.000273188	  -7.54576	0.000256792	  -7.54107	0.000258972	  -7.54107	   6.47429	
    -7.693	0.000241651	  -7.66981	0.000268002	  -7.68821	0.000251751	  -7.68367	0.000253801	  -7.68367	   6.34503	
  -7.83511	0.000236271	   -7.8125	0.000262608	  -7.83061	0.000246748	  -7.82607	0.000248542	  -7.82607	   6.21356	
  -7.97692	0.000230965	  -7.95482	0.000257199	  -7.97225	0.000241759	    -7.968	0.000243308	    -7.968	   6.08269	
  -8.11824	0.000225746	  -8.09624	0.000251968	  -8.11355	0.000236716	  -8.10934	0.000238143	  -8.10934	   5.95358	
  -8.25889	0.000220453	  -8.23697	0.00024675	  -8.25447	0.000231604	  -8.25011	0.000232935	  -8.25011	   5.82338	
  -8.39961	0.000215022	  -8.37778	0.000241289	  -8.39495	0.000226488	  -8.39078	 0.0002276	  -8.39078	   5.68999	
  -8.54019	0.000209567	  -8.51825	0.000235673	  -8.53488	0.000221416	  -8.53111	0.000222219	  -8.53111	   5.55547	
  -8.68028	0.000204198	  -8.65827	0.000230148	  -8.67449	0.000216345	  -8.67101	0.000216897	  -8.67101	   5.42243	
  -8.81968	0.000198856	  -8.79813	0.00022477	  -8.81394	0.000211205	  -8.81058	0.00021161	  -8.81058	   5.29026	
  -8.95915	0.000193411	  -8.93784	0.000219328	  -8.95297	0.000206013	  -8.94999	0.000206251	  -8.94999	   5.15627	
  -9.09793	0.000187855	  -9.07719	0.000213662	  -9.09182	0.000200856	  -9.08898	0.000200791	  -9.08898	   5.01978	
  -9.23649	0.000182316	  -9.21629	0.000207914	  -9.22997	0.000195715	  -9.22758	0.000195315	  -9.22758	   4.88287	
  -9.37492	0.000176858	  -9.35502	0.000202308	  -9.36778	0.000190503	  -9.36591	0.00018989	  -9.36591	   4.74724	
  -9.51322	0.000171393	  -9.49321	0.000196797	  -9.50524	0.000185218	  -9.50389	0.000184469	  -9.50389	   4.61173	
  -9.65073	0.000165822	  -9.63103	0.000191155	  -9.64231	0.000179927	  -9.64136	0.000178968	  -9.64136	    4.4742	
  -9.78732	0.000160194	  -9.76843	0.000185343	  -9.77935	0.000174682	  -9.77837	0.000173406	  -9.77837	   4.33516	
  -9.92333	0.000154621	   -9.9054	0.000179584	  -9.91611	0.000169442	  -9.91495	0.000167882	  -9.91495	   4.19705	
  -10.0587	0.000149104	  -10.0418	0.000173961	  -10.0521	0.000164131	  -10.0509	0.000162399	  -10.0509	   4.05996	
  -10.1941	0.000143527	  -10.1779	0.000168276	   -10.188	0.000158745	  -10.1867	0.000156849	  -10.1867	   3.92123	
  -10.3292	0.000137825	   -10.313	0.000162391	  -10.3233	0.000153351	  -10.3218	0.000151189	  -10.3218	   3.77974	
  -10.4638	0.000132126	  -10.4476	0.000156437	  -10.4581	0.000147977	  -10.4565	0.000145514	  -10.4565	   3.63784	
  -10.5977	0.000126541	  -10.5821	0.000150644	  -10.5925	0.000142586	  -10.5908	0.000139924	  -10.5908	   3.49809	
  -10.7315	0.000120982	  -10.7163	0.000144952	  -10.7266	0.000137147	  -10.7248	0.000134361	  -10.7248	   3.35901	
  -10.8646	0.000115303	    -10.85	0.000139108	  -10.8604	0.00013168	  -10.8583	0.000128697	  -10.8583	   3.21743	
  -10.9976	0.000109511	  -10.9836	0.000133066	  -10.9935	0.000126229	  -10.9915	0.000122935	  -10.9915	   3.07338	
  -11.1302	0.000103746	  -11.1168	0.00012705	   -11.126	0.000120795	  -11.1244	0.000117197	  -11.1244	   2.92992	
  -11.2625	9.80799e-05	  -11.2502	0.000121208	  -11.2579	0.000115343	  -11.2569	0.000111544	  -11.2569	   2.78859	
  -11.3949	9.24338e-05	  -11.3834	0.000115393	  -11.3892	0.000109842	  -11.3891	0.000105889	  -11.3891	   2.64723	
  -11.5268	8.66903e-05	   -11.516	0.000109395	  -11.5204	0.000104322	  -11.5211	0.000100136	  -11.5211	    2.5034	
   -11.658	8.0873e-05	  -11.6481	0.000103266	  -11.6509	9.88453e-05	  -11.6523	9.43282e-05	  -11.6523	    2.3582	
  -11.7887	7.50935e-05	  -11.7799	9.72432e-05	    -11.78	9.34112e-05	  -11.7829	8.85826e-05	  -11.7829	   2.21457	
  -11.9186	6.93978e-05	  -11.9114	9.13795e-05	  -11.9086	8.79681e-05	  -11.9129	8.29151e-05	  -11.9129	   2.07288	
  -12.0478	6.36937e-05	  -12.0424	8.54844e-05	  -12.0368	8.24627e-05	  -12.0423	7.72136e-05	  -12.0423	   1.93034	
  -12.1767	5.78961e-05	  -12.1727	7.94236e-05	  -12.1643	7.69046e-05	  -12.1712	7.14081e-05	  -12.1712	    1.7852	
  -12.3047	5.2054e-05	  -12.3025	7.3314e-05	  -12.2914	7.13563e-05	  -12.2995	6.55748e-05	  -12.2995	   1.63937	
  -12.4322	4.62709e-05	  -12.4317	6.73415e-05	  -12.4177	6.58511e-05	  -12.4272	5.98212e-05	  -12.4272	   1.49553	
  -12.5598	4.05482e-05	    -12.56	6.14808e-05	  -12.5435	6.03344e-05	  -12.5545	5.41211e-05	  -12.5545	   1.35303	
  -12.6866	3.4795e-05	  -12.6883	5.55382e-05	  -12.6686	5.47622e-05	  -12.6812	4.83651e-05	  -12.6812	   1.20913	
  -12.8125	2.89578e-05	   -12.816	4.94588e-05	  -12.7935	4.91605e-05	  -12.8073	4.25257e-05	  -12.8073	   1.06314	
  -12.9383	2.30856e-05	  -12.9431	4.3395e-05	  -12.9179	4.35876e-05	  -12.9331	3.66894e-05	  -12.9331	  0.917234	
  -13.0636	1.72668e-05	  -13.0693	3.74738e-05	  -13.0416	3.8032e-05	  -13.0582	3.09242e-05	  -13.0582	  0.773106	
  -13.1884	1.15503e-05	   -13.195	3.16084e-05	  -13.1649	3.24456e-05	  -13.1828	2.52014e-05	  -13.1828	  0.630035	
  -13.3127	5.81895e-06	  -13.3203	2.56294e-05	  -13.2879	2.68136e-05	   -13.307	1.94206e-05	   -13.307	  0.485516	
  -13.4359	-1.17484e-07	  -13.4447	1.95542e-05	  -13.4101	2.11868e-05	  -13.4302	1.35412e-05	  -13.4302	  0.338529	
  -13.5579	-6.13563e-06	  -13.5688	1.3549e-05	  -13.5323	1.56024e-05	   -13.553	7.67192e-06	   -13.553	  0.191798	
  -13.6793	-1.20211e-05	  -13.6928	7.65724e-06	  -13.6543	1.00311e-05	  -13.6755	1.8891e-06	  -13.6755	 0.0472275	
  -13.8011	-1.77235e-05	  -13.8156	1.75117e-06	  -13.7763	4.43276e-06	  -13.7976	-3.84653e-06	  -13.7976	-0.0961631	
  -13.9238	-2.34568e-05	  -13.9377	-4.29377e-06	  -13.8972	-1.18793e-06	  -13.9196	-9.64617e-06	  -13.9196	 -0.241154	
  -14.0455	-2.93945e-05	  -14.0594	-1.03593e-05	  -14.0177	-6.78775e-06	  -14.0409	-1.55139e-05	  -14.0409	 -0.387846	
  -14.1658	-3.53836e-05	  -14.1807	-1.62693e-05	  -14.1376	-1.23571e-05	  -14.1613	-2.13367e-05	  -14.1613	 -0.533416	
  -14.2855	-4.11687e-05	  -14.3018	-2.20985e-05	  -14.2567	-1.79318e-05	  -14.2813	-2.70663e-05	  -14.2813	 -0.676658	
  -14.4049	-4.67941e-05	  -14.4218	-2.80598e-05	  -14.3755	-2.34974e-05	  -14.4007	-3.27838e-05	  -14.4007	 -0.819595	
  -14.5231	-5.25067e-05	  -14.5413	-3.4167e-05	  -14.4936	-2.90302e-05	  -14.5193	-3.85679e-05	  -14.5193	 -0.964198	
  -14.6409	-5.83719e-05	  -14.6599	-4.02139e-05	  -14.6112	 -3.46e-05	  -14.6373	-4.43953e-05	  -14.6373	  -1.10988	
  -14.7581	-6.42104e-05	  -14.7782	-4.60773e-05	  -14.7286	-4.01926e-05	   -14.755	-5.01601e-05	   -14.755	    -1.254	
  -14.8746	-6.98754e-05	  -14.8958	-5.18911e-05	   -14.846	-4.5719e-05	  -14.8721	-5.58285e-05	  -14.8721	  -1.39571	
  -14.9906	-7.54732e-05	   -15.013	-5.78335e-05	  -14.9634	-5.11943e-05	   -14.989	-6.15004e-05	   -14.989	  -1.53751	
  -15.1057	-8.11989e-05	  -15.1296	-6.3855e-05	    -15.08	-5.67168e-05	  -15.1051	-6.72569e-05	  -15.1051	  -1.68142	
  -15.2198	-8.70029e-05	  -15.2456	-6.97646e-05	  -15.1961	-6.22697e-05	  -15.2205	-7.30124e-05	  -15.2205	  -1.82531	
  -15.3339	-9.27044e-05	  -15.3615	-7.55092e-05	  -15.3111	-6.78203e-05	  -15.3355	-7.8678e-05	  -15.3355	  -1.96695	
  -15.4474	-9.82932e-05	  -15.4763	-8.12352e-05	  -15.4255	-7.33723e-05	  -15.4498	-8.43002e-05	  -15.4498	  -2.10751	
  -15.5604	-0.000103914	  -15.5904	-8.70721e-05	  -15.5391	-7.89274e-05	  -15.5633	-8.99711e-05	  -15.5633	  -2.24928	
  -15.6725	-0.000109641	  -15.7037	-9.30033e-05	   -15.652	-8.44689e-05	  -15.6761	-9.57045e-05	  -15.6761	  -2.39261	
  -15.7836	-0.000115355	  -15.8164	-9.88589e-05	  -15.7642	-8.9964e-05	  -15.7881	-0.000101393	  -15.7881	  -2.53481	
   -15.894	-0.000120947	  -15.9282	-0.000104606	  -15.8752	-9.54546e-05	  -15.8991	-0.000107002	  -15.8991	  -2.67506	
  -16.0039	-0.000126489	  -16.0395	-0.000110329	  -15.9853	-0.000100961	  -16.0096	-0.000112593	  -16.0096	  -2.81483	
  -16.1133	-0.000132117	  -16.1499	-0.000116087	  -16.0944	-0.000106463	  -16.1192	-0.000118223	  -16.1192	  -2.95556	
  -16.2217	-0.000137805	  -16.2603	-0.000121854	   -16.203	-0.000111934	  -16.2284	-0.000123864	  -16.2284	   -3.0966	
  -16.3298	-0.000143423	  -16.3704	-0.000127583	  -16.3114	-0.000117377	  -16.3372	-0.000129461	  -16.3372	  -3.23652	
  -16.4373	-0.000148919	  -16.4794	-0.000133269	  -16.4191	-0.000122808	  -16.4453	-0.000134999	  -16.4453	  -3.37497	
  -16.5446	-0.0001544	   -16.588	-0.000138944	   -16.526	-0.00012825	  -16.5529	-0.000140531	  -16.5529	  -3.51328	
  -16.6511	-0.000159962	  -16.6957	-0.000144608	  -16.6326	-0.000133692	  -16.6598	-0.000146087	  -16.6598	  -3.65218	
  -16.7567	-0.000165555	  -16.8026	-0.000150251	  -16.7385	-0.000139108	   -16.766	-0.000151638	   -16.766	  -3.79095	
  -16.8617	-0.000171054	  -16.9086	-0.000155876	  -16.8443	-0.000144495	  -16.8715	-0.000157142	  -16.8715	  -3.92854	
  -16.9663	-0.000176461	  -17.0138	-0.000161473	  -16.9492	-0.000149882	  -16.9764	-0.000162605	  -16.9764	  -4.06513	
    -17.07	-0.000181895	   -17.118	-0.00016705	  -17.0538	-0.000155283	  -17.0806	-0.000168076	  -17.0806	   -4.2019	
   -17.173	-0.000187393	  -17.2212	-0.000172636	   -17.158	-0.000160678	   -17.184	-0.000173569	   -17.184	  -4.33922	
  -17.2751	-0.000192863	  -17.3235	-0.000178234	  -17.2612	-0.000166042	  -17.2866	-0.000179046	  -17.2866	  -4.47615	
  -17.3762	-0.000198229	  -17.4249	-0.000183811	  -17.3635	-0.000171385	  -17.3882	-0.000184475	  -17.3882	  -4.61187	
  -17.4769	-0.000203546	  -17.5262	-0.000189369	  -17.4649	-0.000176735	  -17.4893	-0.000189883	  -17.4893	  -4.74708	
  -17.5768	-0.000208909	  -17.6266	-0.000194907	  -17.5656	-0.000182094	  -17.5897	-0.000195303	  -17.5897	  -4.88258	
  -17.6757	-0.00021431	  -17.7264	-0.000200449	  -17.6655	-0.000187442	  -17.6892	-0.000200734	  -17.6892	  -5.01835	
  -17.7738	-0.000219656	  -17.8258	-0.000205983	  -17.7646	-0.000192756	   -17.788	-0.000206131	   -17.788	  -5.15329	
  -17.8712	-0.000224904	  -17.9242	-0.000211475	  -17.8629	-0.000198043	  -17.8861	-0.000211474	  -17.8861	  -5.28686	
  -17.9679	-0.000230134	  -18.0219	-0.000216934	  -17.9605	-0.000203327	  -17.9834	-0.000216798	  -17.9834	  -5.41995	
  -18.0634	-0.000235414	  -18.1189	-0.000222367	   -18.057	-0.000208601	  -18.0798	-0.000222127	  -18.0798	  -5.55318	
  -18.1581	-0.000240703	  -18.2148	-0.000227765	  -18.1524	-0.000213849	  -18.1751	-0.000227439	  -18.1751	  -5.68598	
  -18.2521	-0.000245913	  -18.3105	-0.000233069	  -18.2469	-0.000219065	  -18.2699	-0.000232682	  -18.2699	  -5.81706	
  -18.3455	-0.000251046	  -18.4059	-0.000238311	  -18.3411	-0.00022426	  -18.3642	-0.000237872	  -18.3642	  -5.94681	
  -18.4385	-0.000256183	  -18.5007	-0.000243627	  -18.4341	-0.00022945	  -18.4578	-0.000243087	  -18.4578	  -6.07717	
   -18.531	-0.00026136	  -18.5945	-0.000249055	  -18.5265	-0.000234627	  -18.5507	-0.000248348	  -18.5507	  -6.20869	
  -18.6228	-0.000266524	  -18.6873	-0.000254451	  -18.6182	-0.000239774	  -18.6428	-0.000253583	  -18.6428	  -6.33957	
  -18.7138	-0.000271606	  -18.7793	-0.000259717	  -18.7092	-0.000244894	  -18.7341	-0.000258739	  -18.7341	  -6.46848	
  -18.8039	-0.00027663	  -18.8708	-0.000264952	  -18.7994	  -0.00025	  -18.8247	-0.000263861	  -18.8247	  -6.59652	
  -18.8929	-0.000281673	  -18.9616	-0.000270256	   -18.889	-0.000255099	  -18.9145	-0.000269009	  -18.9145	  -6.72523	
  -18.9811	-0.000286743	  -19.0514	-0.000275604	  -18.9779	-0.000260183	  -19.0035	-0.000274177	  -19.0035	  -6.85441	
  -19.0689	-0.000291768	  -19.1403	-0.000280894	  -19.0662	-0.00026524	  -19.0918	-0.000279301	  -19.0918	  -6.98252	
  -19.1558	-0.000296703	   -19.228	-0.0002861	  -19.1536	-0.000270274	  -19.1791	-0.000284359	  -19.1791	  -7.10898	
  -19.2422	-0.000301601	   -19.315	-0.00029132	    -19.24	-0.000275292	  -19.2657	-0.000289404	  -19.2657	  -7.23511	
  -19.3276	-0.000306512	   -19.401	-0.000296628	  -19.3255	-0.000280299	  -19.3514	-0.00029448	  -19.3514	  -7.36199	
   -19.412	-0.000311559	  -19.4862	-0.000301944	    -19.41	-0.00028529	  -19.4361	-0.000299598	  -19.4361	  -7.48994	
  -19.4959	-0.000316594	  -19.5708	-0.000307155	  -19.4935	-0.000290263	  -19.5201	-0.000304671	  -19.5201	  -7.61677	
   -19.579	-0.000321416	  -19.6541	-0.00031229	  -19.5765	-0.000295219	  -19.6032	-0.000309642	  -19.6032	  -7.74104	
  -19.6618	-0.00032609	  -19.7364	-0.000317495	  -19.6589	-0.000300154	  -19.6857	-0.00031458	  -19.6857	   -7.8645	
   -19.744	-0.000330863	  -19.8179	-0.00032279	  -19.7406	-0.000305073	  -19.7675	-0.000319575	  -19.7675	  -7.98938	
  -19.8251	-0.000335829	  -19.8978	-0.00032801	  -19.8215	-0.000309978	  -19.8482	-0.000324606	  -19.8482	  -8.11515	
  -19.9058	-0.000340756	   -19.977	-0.000333086	  -19.9016	-0.000314882	  -19.9281	-0.000329575	  -19.9281	  -8.23937	
  -19.9858	-0.000345437	  -20.0553	-0.000338171	  -19.9807	-0.000319763	  -20.0073	-0.000334457	  -20.0073	  -8.36142	
  -20.0645	-0.000349981	   -20.133	-0.000343393	   -20.059	-0.000324585	  -20.0855	-0.00033932	  -20.0855	  -8.48299	
  -20.1429	-0.000354656	  -20.2101	-0.000348652	  -20.1366	-0.000329357	  -20.1632	-0.000344222	  -20.1632	  -8.60554	
  -20.2204	-0.000359483	  -20.2864	-0.000353778	  -20.2133	-0.000334132	    -20.24	-0.000349131	    -20.24	  -8.72828	
  -20.2969	-0.000364231	  -20.3615	-0.000358785	  -20.2892	-0.000338919	  -20.3159	-0.000353978	  -20.3159	  -8.84945	
  -20.3729	-0.000368753	  -20.4356	-0.000363845	  -20.3644	-0.000343676	   -20.391	-0.000358758	   -20.391	  -8.96895	
  -20.4478	-0.000373214	  -20.5086	-0.000369018	  -20.4382	-0.000348369	  -20.4649	-0.000363534	  -20.4649	  -9.08834	
  -20.5222	-0.000377834	   -20.581	-0.000374104	  -20.5114	-0.000353015	  -20.5382	-0.000368318	  -20.5382	  -9.20794	
  -20.5955	-0.000382568	  -20.6522	-0.000378984	  -20.5841	-0.000357665	  -20.6106	-0.000373072	  -20.6106	  -9.32681	
  -20.6679	-0.000387175	  -20.7229	-0.000383807	  -20.6559	-0.000362318	  -20.6822	-0.000377766	  -20.6822	  -9.44416	
  -20.7397	-0.000391516	  -20.7932	-0.000388782	  -20.7268	-0.00036693	  -20.7532	-0.00038241	  -20.7532	  -9.56024	
  -20.8118	-0.000395781	  -20.8632	-0.000393849	   -20.796	-0.00037156	  -20.8237	-0.000387063	  -20.8237	  -9.67658	
  -20.8831	-0.000400232	  -20.9328	-0.000398755	  -20.8637	-0.00037623	  -20.8932	-0.000391739	  -20.8932	  -9.79347	
  -20.9527	-0.000404792	  -21.0012	-0.000403463	  -20.9318	-0.000380816	  -20.9619	-0.000396357	  -20.9619	  -9.90893	
  -21.0215	-0.000409189	  -21.0688	-0.000408184	  -21.0011	-0.000385255	  -21.0304	-0.000400876	  -21.0304	  -10.0219	
  -21.0882	-0.00041338	  -21.1355	-0.000413043	    -21.07	-0.000389691	  -21.0979	-0.000405371	  -21.0979	  -10.1343	
  -21.1539	-0.000417579	  -21.2012	-0.000417915	  -21.1372	-0.000394236	  -21.1641	-0.00040991	  -21.1641	  -10.2478	
  -21.2191	-0.000421889	   -21.266	-0.000422624	  -21.2035	-0.000398814	  -21.2295	-0.000414442	  -21.2295	  -10.3611	
  -21.2846	-0.000426154	  -21.3305	-0.000427196	   -21.269	-0.000403261	  -21.2947	-0.00041887	  -21.2947	  -10.4718	
   -21.349	-0.000430225	  -21.3942	-0.000431799	  -21.3339	-0.000407583	   -21.359	-0.000423202	   -21.359	  -10.5801	
  -21.4122	-0.000434225	  -21.4572	-0.000436517	  -21.3983	-0.000411928	  -21.4226	-0.000427556	  -21.4226	  -10.6889	
  -21.4747	-0.000438331	  -21.5194	-0.000441234	  -21.4621	-0.000416353	  -21.4854	-0.000431972	  -21.4854	  -10.7993	
  -21.5367	-0.000442486	  -21.5811	-0.000445794	   -21.525	-0.000420731	  -21.5476	-0.000436337	  -21.5476	  -10.9084	
  -21.5979	-0.000446518	  -21.6419	-0.000450224	  -21.5866	-0.000424983	  -21.6088	-0.000440575	  -21.6088	  -11.0144	
  -21.6581	-0.000450404	  -21.7024	-0.000454686	  -21.6471	-0.00042919	  -21.6692	-0.00044476	  -21.6692	   -11.119	
  -21.7175	-0.000454282	  -21.7625	-0.000459254	  -21.7067	-0.000433437	  -21.7289	-0.000448991	  -21.7289	  -11.2248	
  -21.7762	-0.000458258	  -21.8214	-0.000463812	   -21.765	-0.000437665	  -21.7875	-0.000453245	  -21.7875	  -11.3311	
  -21.8338	-0.000462241	  -21.8795	-0.00046821	  -21.8219	-0.000441765	  -21.8451	-0.000457405	  -21.8451	  -11.4351	
  -21.8906	-0.000466102	  -21.9365	-0.000472475	   -21.878	-0.000445705	  -21.9017	-0.000461427	  -21.9017	  -11.5357	
  -21.9467	-0.00046987	  -21.9924	-0.000476777	  -21.9335	-0.000449602	  -21.9575	-0.000465416	  -21.9575	  -11.6354	
  -22.0018	-0.000473691	  -22.0471	-0.000481171	  -21.9878	-0.000453602	  -22.0122	-0.000469488	  -22.0122	  -11.7372	
  -22.0561	-0.000477596	  -22.1007	-0.00048553	  -22.0411	-0.000457647	   -22.066	-0.000473591	   -22.066	  -11.8398	
  -22.1091	-0.000481461	  -22.1532	-0.000489739	   -22.094	-0.000461549	  -22.1188	-0.000477583	  -22.1188	  -11.9396	
   -22.161	-0.000485209	  -22.2051	-0.00049386	  -22.1458	-0.000465238	  -22.1706	-0.000481436	  -22.1706	  -12.0359	
  -22.2118	-0.000488953	  -22.2558	-0.000498025	  -22.1968	-0.000468903	  -22.2215	-0.000485294	  -22.2215	  -12.1323	
  -22.2617	-0.00049275	  -22.3057	-0.000502235	  -22.2472	-0.000472698	  -22.2715	-0.000489228	  -22.2715	  -12.2307	
  -22.3103	-0.000496521	  -22.3547	-0.000506372	  -22.2968	-0.000476543	  -22.3206	-0.000493145	  -22.3206	  -12.3286	
  -22.3583	-0.000500209	  -22.4028	-0.000510369	  -22.3451	-0.000480242	  -22.3687	-0.00049694	  -22.3687	  -12.4235	
  -22.4052	-0.000503873	  -22.4503	-0.000514268	  -22.3922	-0.000483782	  -22.4159	-0.000500641	  -22.4159	   -12.516	
  -22.4514	-0.000507584	  -22.4971	-0.000518203	  -22.4386	-0.000487331	  -22.4624	-0.000504373	  -22.4624	  -12.6093	
  -22.4964	-0.000511312	  -22.5431	-0.000522208	  -22.4838	-0.000490984	  -22.5078	-0.000508168	  -22.5078	  -12.7042	
  -22.5406	-0.000514962	   -22.588	-0.000526145	   -22.528	-0.000494636	  -22.5522	-0.000511914	  -22.5522	  -12.7979	
  -22.5837	-0.000518516	  -22.6318	-0.00052992	  -22.5711	-0.000498142	  -22.5955	-0.000515526	  -22.5955	  -12.8882	
  -22.6253	-0.000522076	  -22.6749	-0.000533588	   -22.613	-0.000501523	  -22.6377	-0.000519062	  -22.6377	  -12.9765	
  -22.6663	-0.000525687	  -22.7169	-0.000537286	  -22.6546	-0.00050493	  -22.6792	-0.000522634	  -22.6792	  -13.0659	
  -22.7065	-0.000529282	  -22.7575	-0.000541036	  -22.6951	-0.000508418	  -22.7197	-0.000526245	  -22.7197	  -13.1561	
  -22.7458	-0.00053278	  -22.7976	-0.000544719	   -22.735	-0.000511865	  -22.7595	-0.000529788	  -22.7595	  -13.2447	
  -22.7845	-0.000536212	  -22.8369	-0.000548259	  -22.7741	-0.00051523	  -22.7985	-0.000533234	  -22.7985	  -13.3308	
  -22.8225	-0.000539663	  -22.8748	-0.000551739	  -22.8119	-0.000518474	  -22.8364	-0.000536626	  -22.8364	  -13.4156	
  -22.8593	-0.000543149	  -22.9115	-0.000555254	  -22.8491	-0.000521615	  -22.8733	-0.000540006	  -22.8733	  -13.5001	
  -22.8953	-0.000546586	   -22.947	-0.00055878	  -22.8855	-0.000524773	  -22.9093	-0.00054338	  -22.9093	  -13.5845	
  -22.9303	-0.000549922	  -22.9816	-0.000562221	  -22.9203	-0.000528163	  -22.9441	-0.000546768	  -22.9441	  -13.6692	
  -22.9644	-0.000553205	  -23.0155	-0.000565555	   -22.953	-0.00053164	  -22.9776	-0.000550134	  -22.9776	  -13.7533	
  -22.9978	-0.000556511	   -23.049	-0.000568869	  -22.9843	-0.000534908	  -23.0104	-0.00055343	  -23.0104	  -13.8357	
  -23.0306	-0.000559827	  -23.0808	-0.000572205	   -23.016	-0.000537914	  -23.0425	-0.000556649	  -23.0425	  -13.9162	
  -23.0628	-0.00056308	  -23.1115	-0.000575526	  -23.0486	-0.000540929	  -23.0743	-0.000559845	  -23.0743	  -13.9961	
  -23.0943	-0.000566253	  -23.1412	-0.000578803	  -23.0799	-0.000544142	  -23.1051	-0.000563066	  -23.1051	  -14.0766	
  -23.1246	-0.000569416	  -23.1704	-0.000582037	  -23.1099	-0.000547356	   -23.135	-0.00056627	   -23.135	  -14.1567	
  -23.1542	-0.000572609	  -23.1989	-0.000585243	  -23.1388	-0.000550298	   -23.164	-0.000569383	   -23.164	  -14.2346	
  -23.1831	-0.000575786	  -23.2267	-0.00058841	  -23.1663	-0.00055308	   -23.192	-0.000572425	   -23.192	  -14.3106	
  -23.2114	-0.00057889	  -23.2533	-0.000591538	  -23.1923	-0.000556006	   -23.219	-0.000575478	   -23.219	   -14.387	
  -23.2389	-0.000581935	  -23.2787	-0.000594636	  -23.2183	-0.000559104	  -23.2453	-0.000578559	  -23.2453	   -14.464	
  -23.2657	-0.000584989	  -23.3034	-0.000597736	  -23.2432	-0.00056211	  -23.2707	-0.000581612	  -23.2707	  -14.5403	
  -23.2916	-0.000588065	  -23.3271	-0.000600855	  -23.2673	-0.000564827	  -23.2953	-0.000584583	  -23.2953	  -14.6146	
  -23.3168	-0.000591104	    -23.35	-0.000603936	  -23.2904	-0.00056745	  -23.3191	-0.000587497	  -23.3191	  -14.6874	
   -23.341	-0.000594064	  -23.3721	-0.000606932	  -23.3129	-0.000570261	   -23.342	-0.000590419	   -23.342	  -14.7605	
  -23.3637	-0.000596985	  -23.3936	-0.000609888	  -23.3347	-0.000573208	   -23.364	-0.00059336	   -23.364	   -14.834	
  -23.3848	-0.000599933	  -23.4145	-0.000612865	  -23.3556	-0.000575989	   -23.385	-0.000596262	   -23.385	  -14.9066	
   -23.405	-0.000602871	  -23.4347	-0.000615838	  -23.3762	-0.000578532	  -23.4053	-0.00059908	  -23.4053	   -14.977	
  -23.4243	-0.000605691	  -23.4541	-0.000618741	  -23.3959	-0.000581075	  -23.4248	-0.000601836	  -23.4248	  -15.0459	
   -23.443	-0.000608416	  -23.4722	-0.000621562	  -23.4142	-0.000583789	  -23.4431	-0.000604589	  -23.4431	  -15.1147	
  -23.4609	-0.000611198	  -23.4891	-0.000624351	   -23.432	-0.000586534	  -23.4607	-0.000607361	  -23.4607	   -15.184	
   -23.478	-0.000614055	  -23.5047	-0.000627141	  -23.4492	-0.000589103	  -23.4773	-0.000610099	  -23.4773	  -15.2525	
  -23.4942	-0.000616876	  -23.5201	-0.000629923	  -23.4652	-0.000591533	  -23.4932	-0.000612777	  -23.4932	  -15.3194	
   -23.509	-0.000619546	  -23.5348	-0.000632657	  -23.4803	-0.000594041	   -23.508	-0.000615415	   -23.508	  -15.3854	
  -23.5229	-0.000622089	  -23.5488	-0.000635331	  -23.4943	-0.000596691	   -23.522	-0.000618037	   -23.522	  -15.4509	
  -23.5364	-0.000624643	  -23.5624	-0.000637962	   -23.507	-0.000599295	  -23.5352	-0.000620633	  -23.5352	  -15.5158	
  -23.5486	-0.000627283	  -23.5754	-0.000640575	  -23.5188	-0.00060171	  -23.5476	-0.000623189	  -23.5476	  -15.5797	
  -23.5599	-0.000629889	  -23.5879	-0.000643175	  -23.5296	-0.000604055	  -23.5591	-0.000625706	  -23.5591	  -15.6427	
  -23.5703	-0.000632334	  -23.5996	-0.000645745	  -23.5391	-0.000606515	  -23.5697	-0.000628198	  -23.5697	   -15.705	
    -23.58	-0.000634663	  -23.6104	-0.000648275	  -23.5478	-0.000609058	  -23.5794	-0.000630665	  -23.5794	  -15.7666	
  -23.5887	-0.000637043	  -23.6205	-0.000650774	  -23.5557	-0.0006115	  -23.5883	-0.000633106	  -23.5883	  -15.8276	
  -23.5965	-0.000639502	  -23.6302	-0.000653246	  -23.5628	-0.000613778	  -23.5965	-0.000635508	  -23.5965	  -15.8877	
  -23.6028	-0.000641874	   -23.639	-0.000655686	  -23.5694	-0.000616027	  -23.6037	-0.000637862	  -23.6037	  -15.9466	
  -23.6083	-0.000644072	  -23.6463	-0.000658086	   -23.575	-0.000618358	  -23.6099	-0.000640172	  -23.6099	  -16.0043	
  -23.6126	-0.000646225	  -23.6528	-0.000660466	  -23.5801	-0.000620698	  -23.6151	-0.000642463	  -23.6151	  -16.0616	
  -23.6159	-0.000648473	  -23.6583	-0.00066283	   -23.584	-0.000622931	  -23.6194	-0.000644745	  -23.6194	  -16.1186	
  -23.6186	-0.000650752	  -23.6629	-0.000665164	  -23.5868	-0.000625071	  -23.6228	-0.000646996	  -23.6228	  -16.1749	
  -23.6208	-0.000652906	  -23.6668	-0.000667444	  -23.5892	-0.000627194	  -23.6256	-0.000649181	  -23.6256	  -16.2295	
  -23.6224	-0.000654917	  -23.6698	-0.000669669	  -23.5914	-0.00062932	  -23.6278	-0.000651302	  -23.6278	  -16.2826	
  -23.6228	-0.000656912	  -23.6713	-0.000671861	  -23.5923	-0.000631396	  -23.6288	-0.00065339	  -23.6288	  -16.3348	
  -23.6226	-0.000658982	   -23.672	-0.000674037	  -23.5921	-0.0006334	  -23.6289	-0.000655473	  -23.6289	  -16.3868	
  -23.6208	-0.000661069	  -23.6714	-0.000676186	  -23.5902	-0.000635364	  -23.6275	-0.000657539	  -23.6275	  -16.4385	
  -23.6181	-0.000663058	  -23.6696	-0.000678278	  -23.5869	-0.000637315	  -23.6249	-0.00065955	  -23.6249	  -16.4888	
   -23.614	-0.000664938	  -23.6669	-0.000680307	   -23.583	-0.000639233	  -23.6213	-0.000661493	  -23.6213	  -16.5373	
   -23.609	-0.000666817	  -23.6638	-0.000682306	  -23.5784	-0.000641071	  -23.6171	-0.000663398	  -23.6171	  -16.5849	
  -23.6036	-0.000668746	  -23.6593	-0.000684291	  -23.5729	-0.000642846	  -23.6119	-0.000665295	  -23.6119	  -16.6324	
  -23.5971	-0.000670624	  -23.6537	-0.000686242	  -23.5656	-0.000644635	  -23.6055	-0.000667167	  -23.6055	  -16.6792	
  -23.5897	-0.000672408	  -23.6477	-0.000688135	   -23.557	-0.000646429	  -23.5981	-0.000668991	  -23.5981	  -16.7248	
  -23.5814	-0.000674217	  -23.6406	-0.000689977	  -23.5475	-0.000648162	  -23.5899	-0.000670786	  -23.5899	  -16.7696	
  -23.5722	-0.00067609	  -23.6324	-0.000691804	  -23.5372	-0.000649839	  -23.5806	-0.000672578	  -23.5806	  -16.8144	
   -23.562	-0.000677932	  -23.6232	-0.000693628	  -23.5259	-0.000651453	  -23.5704	-0.000674338	  -23.5704	  -16.8584	
   -23.551	-0.000679622	  -23.6131	-0.000695402	  -23.5139	-0.000653028	  -23.5593	-0.000676017	  -23.5593	  -16.9004	
  -23.5393	-0.000681219	  -23.6022	-0.000697085	  -23.5009	-0.000654592	  -23.5475	-0.000677632	  -23.5475	  -16.9408	
  -23.5269	-0.00068288	    -23.59	-0.000698716	   -23.487	-0.000656175	  -23.5346	-0.000679257	  -23.5346	  -16.9814	
  -23.5137	-0.000684611	  -23.5778	-0.000700362	  -23.4721	-0.000657745	  -23.5212	-0.000680906	  -23.5212	  -17.0226	
  -23.4999	-0.000686263	  -23.5643	-0.000702023	  -23.4561	-0.000659256	  -23.5068	-0.000682514	  -23.5068	  -17.0628	
  -23.4853	-0.000687773	  -23.5495	-0.000703623	  -23.4391	-0.000660723	  -23.4913	-0.00068404	  -23.4913	   -17.101	
  -23.4697	-0.000689233	  -23.5338	-0.000705151	  -23.4217	-0.000662207	   -23.475	-0.00068553	   -23.475	  -17.1383	
  -23.4531	-0.000690766	  -23.5172	-0.000706647	  -23.4036	-0.00066372	   -23.458	-0.000687044	   -23.458	  -17.1761	
  -23.4351	-0.000692339	  -23.4998	-0.000708152	  -23.3852	-0.000665194	    -23.44	-0.000688561	    -23.44	   -17.214	
  -23.4163	-0.000693806	  -23.4816	-0.000709641	  -23.3663	-0.000666594	  -23.4214	-0.000690014	  -23.4214	  -17.2503	
  -23.3967	-0.000695115	  -23.4629	-0.000711071	  -23.3469	-0.000667967	  -23.4021	-0.000691384	  -23.4021	  -17.2846	
  -23.3764	-0.000696432	  -23.4433	-0.00071244	  -23.3267	-0.00066938	  -23.3821	-0.000692751	  -23.3821	  -17.3188	
  -23.3553	-0.000697863	  -23.4224	-0.000713791	  -23.3057	-0.00067081	  -23.3611	-0.000694155	  -23.3611	  -17.3539	
   -23.333	-0.000699289	  -23.4008	-0.00071515	  -23.2839	-0.000672182	  -23.3392	-0.000695541	  -23.3392	  -17.3885	
  -23.3093	-0.000700566	  -23.3781	-0.000716505	  -23.2615	-0.000673468	  -23.3163	-0.000696846	  -23.3163	  -17.4212	
  -23.2846	-0.00070174	  -23.3543	-0.000717786	  -23.2387	-0.000674728	  -23.2925	-0.000698085	  -23.2925	  -17.4521	
  -23.2592	-0.000702967	  -23.3297	-0.000718975	   -23.215	-0.000676022	   -23.268	-0.000699321	   -23.268	   -17.483	
  -23.2331	-0.000704285	  -23.3044	-0.000720154	  -23.1904	-0.000677322	  -23.2427	-0.000700587	  -23.2427	  -17.5147	
  -23.2066	-0.000705558	  -23.2788	-0.00072137	  -23.1649	-0.000678551	  -23.2167	-0.000701826	  -23.2167	  -17.5457	
  -23.1792	-0.000706698	  -23.2519	-0.000722579	  -23.1389	-0.000679714	    -23.19	-0.000702997	    -23.19	  -17.5749	
   -23.151	-0.000707797	  -23.2242	-0.000723717	  -23.1119	-0.000680852	  -23.1624	-0.000704122	  -23.1624	   -17.603	
  -23.1221	-0.000708977	  -23.1958	-0.000724791	  -23.0837	-0.000682017	  -23.1339	-0.000705262	  -23.1339	  -17.6315	
  -23.0921	-0.000710201	  -23.1667	-0.000725809	  -23.0545	-0.000683221	  -23.1044	-0.00070641	  -23.1044	  -17.6603	
  -23.0612	-0.000711335	  -23.1366	-0.000726796	  -23.0243	-0.000684384	   -23.074	-0.000707505	   -23.074	  -17.6876	
  -23.0295	-0.000712353	  -23.1054	-0.000727806	  -22.9932	-0.000685492	  -23.0427	-0.00070855	  -23.0427	  -17.7138	
  -22.9967	-0.000713377	  -23.0734	-0.000728835	  -22.9609	-0.000686569	  -23.0104	-0.000709594	  -23.0104	  -17.7398	
   -22.963	-0.000714482	  -23.0404	-0.000729805	  -22.9278	-0.00068769	  -22.9771	-0.000710659	  -22.9771	  -17.7665	
  -22.9286	-0.000715584	  -23.0069	-0.000730695	  -22.8942	-0.000688786	  -22.9432	-0.000711688	  -22.9432	  -17.7922	
  -22.8939	-0.000716575	  -22.9725	-0.000731572	  -22.8611	-0.000689749	  -22.9092	-0.000712632	  -22.9092	  -17.8158	
  -22.8584	-0.000717482	  -22.9372	-0.000732498	  -22.8276	-0.000690661	  -22.8744	-0.000713547	  -22.8744	  -17.8387	
  -22.8224	-0.000718426	  -22.9011	-0.000733429	   -22.792	-0.000691661	  -22.8385	-0.000714505	  -22.8385	  -17.8626	
  -22.7858	-0.000719431	  -22.8643	-0.000734331	  -22.7553	-0.000692783	  -22.8018	-0.000715515	  -22.8018	  -17.8879	
  -22.7484	-0.000720392	  -22.8268	-0.000735166	  -22.7172	-0.00069386	  -22.7641	-0.000716473	  -22.7641	  -17.9118	
  -22.7102	-0.000721239	  -22.7884	-0.000735939	  -22.6782	-0.000694753	  -22.7256	-0.00071731	  -22.7256	  -17.9328	
  -22.6712	-0.000722037	  -22.7492	-0.000736709	  -22.6386	-0.000695498	  -22.6863	-0.000718082	  -22.6863	   -17.952	
  -22.6309	-0.000722879	  -22.7091	-0.000737509	  -22.5985	-0.000696339	  -22.6462	-0.000718909	  -22.6462	  -17.9727	
  -22.5899	-0.000723743	  -22.6681	-0.000738309	  -22.5582	-0.000697341	  -22.6054	-0.000719797	  -22.6054	  -17.9949	
  -22.5484	-0.000724524	  -22.6262	-0.000739039	  -22.5165	-0.000698328	  -22.5637	-0.00072063	  -22.5637	  -18.0158	
   -22.506	-0.000725197	  -22.5832	-0.000739699	  -22.4743	-0.0006991	  -22.5212	-0.000721332	  -22.5212	  -18.0333	
  -22.4629	-0.000725851	  -22.5394	-0.000740342	  -22.4318	-0.000699715	  -22.4781	-0.000721969	  -22.4781	  -18.0492	
  -22.4195	-0.000726544	  -22.4954	-0.000741012	  -22.3881	-0.000700426	  -22.4343	-0.000722661	  -22.4343	  -18.0665	
  -22.3749	-0.000727174	  -22.4501	-0.000741676	  -22.3434	-0.000701268	  -22.3895	-0.000723373	  -22.3895	  -18.0843	
  -22.3291	-0.000727721	  -22.4039	-0.00074229	  -22.2979	-0.000702029	  -22.3436	-0.000724013	  -22.3436	  -18.1003	
  -22.2826	-0.000728268	  -22.3568	-0.000742852	  -22.2519	-0.0007026	  -22.2971	-0.000724573	  -22.2971	  -18.1143	
  -22.2351	-0.000728786	  -22.3085	-0.000743409	  -22.2051	-0.000703112	  -22.2495	-0.000725102	  -22.2495	  -18.1276	
  -22.1869	-0.000729202	  -22.2587	-0.000743984	  -22.1573	-0.000703714	  -22.2009	-0.000725634	  -22.2009	  -18.1408	
  -22.1379	-0.000729496	  -22.2074	-0.000744552	  -22.1088	-0.000704373	  -22.1514	-0.00072614	  -22.1514	  -18.1535	
   -22.088	-0.000729828	  -22.1554	-0.000745066	   -22.059	-0.000704932	  -22.1008	-0.000726609	  -22.1008	  -18.1652	
  -22.0373	-0.000730273	  -22.1024	-0.000745538	  -22.0088	-0.00070536	  -22.0495	-0.000727057	  -22.0495	  -18.1764	
  -21.9858	-0.00073067	  -22.0488	-0.000746016	  -21.9578	-0.000705781	  -21.9975	-0.000727489	  -21.9975	  -18.1872	
  -21.9336	-0.000730857	  -21.9948	-0.000746537	  -21.9066	-0.000706294	   -21.945	-0.000727896	   -21.945	  -18.1974	
  -21.8804	-0.000730946	    -21.94	-0.000747042	  -21.8545	-0.000706819	  -21.8917	-0.000728269	  -21.8917	  -18.2067	
  -21.8263	-0.000731137	  -21.8847	-0.000747456	  -21.8016	-0.000707242	  -21.8375	-0.000728612	  -21.8375	  -18.2153	
  -21.7715	-0.000731429	  -21.8285	-0.000747795	  -21.7477	-0.000707596	  -21.7825	-0.00072894	  -21.7825	  -18.2235	
  -21.7157	-0.000731631	   -21.771	-0.000748185	   -21.693	-0.000707994	  -21.7266	-0.00072927	  -21.7266	  -18.2318	
  -21.6593	-0.000731655	  -21.7128	-0.000748652	  -21.6373	-0.000708436	  -21.6698	-0.000729581	  -21.6698	  -18.2395	
  -21.6015	-0.000731638	  -21.6537	-0.000749073	  -21.5807	-0.000708831	   -21.612	-0.000729847	   -21.612	  -18.2462	
  -21.5427	-0.000731727	  -21.5938	-0.000749367	  -21.5231	-0.000709163	  -21.5532	-0.000730086	  -21.5532	  -18.2521	
  -21.4833	-0.000731873	  -21.5334	-0.000749606	  -21.4643	-0.00070946	  -21.4936	-0.000730313	  -21.4936	  -18.2578	
   -21.423	-0.000731908	  -21.4718	-0.000749896	   -21.405	-0.000709772	  -21.4333	-0.000730525	  -21.4333	  -18.2631	
  -21.3614	-0.000731797	  -21.4097	-0.00075023	   -21.345	-0.000710105	  -21.3721	-0.00073071	  -21.3721	  -18.2678	
  -21.2991	-0.000731693	   -21.347	-0.000750509	  -21.2843	-0.000710455	  -21.3101	-0.000730885	  -21.3101	  -18.2721	
  -21.2358	-0.000731697	   -21.284	-0.000750689	  -21.2229	-0.000710773	  -21.2476	-0.000731053	  -21.2476	  -18.2763	
  -21.1719	-0.000731709	    -21.22	-0.000750869	  -21.1607	-0.000711035	  -21.1842	-0.000731204	  -21.1842	  -18.2801	
   -21.107	-0.000731609	  -21.1553	-0.000751156	  -21.0974	-0.00071125	  -21.1199	-0.000731338	  -21.1199	  -18.2835	
  -21.0404	-0.000731475	    -21.09	-0.000751481	  -21.0333	-0.000711465	  -21.0546	-0.000731474	  -21.0546	  -18.2868	
  -20.9722	-0.000731496	  -21.0236	-0.000751667	  -20.9682	-0.000711712	   -20.988	-0.000731625	   -20.988	  -18.2906	
  -20.9028	-0.000731631	  -20.9569	-0.000751703	   -20.902	-0.000712011	  -20.9206	-0.000731782	  -20.9206	  -18.2945	
  -20.8328	-0.000731605	  -20.8896	-0.000751769	  -20.8351	-0.000712311	  -20.8525	-0.000731895	  -20.8525	  -18.2974	
  -20.7643	-0.000731359	  -20.8211	-0.00075197	  -20.7672	-0.000712557	  -20.7842	-0.000731962	  -20.7842	   -18.299	
  -20.6951	-0.000731177	   -20.752	-0.00075217	  -20.6984	-0.000712726	  -20.7152	-0.000732024	  -20.7152	  -18.3006	
  -20.6248	-0.000731201	  -20.6817	-0.000752212	  -20.6289	-0.000712896	  -20.6451	-0.000732103	  -20.6451	  -18.3026	
  -20.5537	-0.000731215	  -20.6108	-0.000752152	  -20.5589	-0.000713118	  -20.5745	-0.000732162	  -20.5745	   -18.304	
  -20.4818	-0.000730999	  -20.5388	-0.000752157	  -20.4878	-0.000713342	  -20.5028	-0.000732166	  -20.5028	  -18.3041	
  -20.4093	-0.000730645	  -20.4654	-0.000752253	  -20.4157	-0.000713483	  -20.4301	-0.000732127	  -20.4301	  -18.3032	
  -20.3358	-0.000730432	  -20.3914	-0.000752296	  -20.3424	-0.00071356	  -20.3565	-0.000732096	  -20.3565	  -18.3024	
  -20.2617	-0.000730389	  -20.3167	-0.000752202	  -20.2683	-0.000713675	  -20.2822	-0.000732089	  -20.2822	  -18.3022	
   -20.187	-0.000730265	  -20.2414	-0.000752068	  -20.1934	-0.000713833	  -20.2073	-0.000732055	  -20.2073	  -18.3014	
  -20.1113	-0.000729882	   -20.165	-0.000752013	  -20.1173	-0.000713949	  -20.1312	-0.000731948	  -20.1312	  -18.2987	
  -20.0349	-0.000729422	  -20.0879	-0.000752002	  -20.0404	-0.000713956	  -20.0544	-0.000731793	  -20.0544	  -18.2948	
  -19.9577	-0.000729117	  -20.0102	-0.000751905	  -19.9627	-0.000713908	  -19.9769	-0.000731644	  -19.9769	  -18.2911	
  -19.8793	-0.000728901	  -19.9311	-0.000751683	  -19.8845	-0.000713892	  -19.8983	-0.000731492	  -19.8983	  -18.2873	
  -19.7998	-0.000728486	  -19.8512	-0.000751367	   -19.805	-0.000713917	  -19.8187	-0.000731257	  -19.8187	  -18.2814	
  -19.7191	-0.000727793	  -19.7699	-0.000751094	  -19.7248	-0.000713886	  -19.7379	-0.000730924	  -19.7379	  -18.2731	
  -19.6378	-0.000727095	  -19.6869	-0.000750935	  -19.6433	-0.000713754	   -19.656	-0.000730595	   -19.656	  -18.2649	
  -19.5561	-0.000726668	  -19.6029	-0.00075076	  -19.5611	-0.000713593	  -19.5734	-0.000730341	  -19.5734	  -18.2585	
  -19.4738	-0.00072636	  -19.5192	-0.000750318	  -19.4779	-0.000713474	  -19.4903	-0.00073005	  -19.4903	  -18.2513	
  -19.3914	-0.000725835	  -19.4349	-0.00074975	  -19.3935	-0.000713367	  -19.4066	-0.000729651	  -19.4066	  -18.2413	
  -19.3086	-0.000725064	  -19.3487	-0.000749378	  -19.3086	-0.000713198	   -19.322	-0.000729213	   -19.322	  -18.2303	
  -19.2257	-0.000724368	  -19.2607	-0.000749197	  -19.2231	-0.000712958	  -19.2365	-0.000728841	  -19.2365	   -18.221	
  -19.1419	-0.00072394	  -19.1731	-0.000748863	  -19.1367	-0.000712711	  -19.1506	-0.000728505	  -19.1506	  -18.2126	
  -19.0575	-0.000723555	  -19.0866	-0.000748258	  -19.0494	-0.000712496	  -19.0645	-0.000728103	  -19.0645	  -18.2026	
  -18.9725	-0.000722928	  -18.9996	-0.000747664	  -18.9611	-0.00071226	  -18.9777	-0.000727618	  -18.9777	  -18.1904	
   -18.887	-0.000722155	  -18.9116	-0.000747301	  -18.8723	-0.00071196	  -18.8903	-0.000727139	  -18.8903	  -18.1785	
   -18.801	-0.000721533	  -18.8229	-0.000747019	  -18.7824	-0.000711618	  -18.8021	-0.000726723	  -18.8021	  -18.1681	
  -18.7143	-0.00072106	  -18.7331	-0.000746538	  -18.6923	-0.000711286	  -18.7133	-0.000726295	  -18.7133	  -18.1574	
  -18.6267	-0.000720478	  -18.6427	-0.00074586	  -18.6017	-0.000710974	  -18.6237	-0.000725771	  -18.6237	  -18.1443	
  -18.5382	-0.000719688	  -18.5517	-0.000745234	  -18.5103	-0.000710637	  -18.5334	-0.000725187	  -18.5334	  -18.1297	
  -18.4492	-0.000718922	  -18.4606	-0.000744828	  -18.4182	-0.000710252	  -18.4427	-0.000724667	  -18.4427	  -18.1167	
   -18.359	-0.000718357	  -18.3684	-0.000744474	  -18.3253	-0.000709849	  -18.3509	-0.000724226	  -18.3509	  -18.1057	
  -18.2685	-0.000717842	  -18.2747	-0.000743931	  -18.2317	-0.00070946	  -18.2583	-0.000723744	  -18.2583	  -18.0936	
  -18.1771	-0.000717144	  -18.1804	-0.000743233	  -18.1374	-0.000709074	   -18.165	-0.00072315	   -18.165	  -18.0788	
  -18.0852	-0.000716306	  -18.0851	-0.000742644	  -18.0423	-0.00070866	  -18.0709	-0.000722537	  -18.0709	  -18.0634	
  -17.9927	-0.000715567	  -17.9893	-0.000742224	  -17.9466	-0.000708203	  -17.9762	-0.000721998	  -17.9762	    -18.05	
  -17.8994	 -0.000715	  -17.8929	-0.000741769	  -17.8507	-0.000707736	   -17.881	-0.000721502	   -17.881	  -18.0375	
  -17.8053	-0.000714404	  -17.7955	-0.00074114	  -17.7544	-0.000707289	  -17.7851	-0.000720944	  -17.7851	  -18.0236	
  -17.7104	-0.000713621	  -17.6978	-0.000740452	  -17.6572	-0.000706843	  -17.6885	-0.000720306	  -17.6885	  -18.0076	
  -17.6144	-0.000712772	  -17.5995	-0.000739872	  -17.5597	-0.00070641	  -17.5912	-0.000719685	  -17.5912	  -17.9921	
  -17.5178	-0.000712053	  -17.5008	-0.000739381	  -17.4618	-0.000705934	  -17.4935	-0.000719123	  -17.4935	  -17.9781	
  -17.4202	-0.000711447	  -17.4011	-0.000738798	  -17.3632	-0.000705361	  -17.3948	-0.000718535	  -17.3948	  -17.9634	
  -17.3215	-0.000710747	  -17.3007	-0.000738063	  -17.2639	-0.000704769	  -17.2954	-0.00071786	  -17.2954	  -17.9465	
  -17.2217	-0.000709883	  -17.2001	-0.000737343	  -17.1644	-0.000704278	  -17.1954	-0.000717168	  -17.1954	  -17.9292	
  -17.1208	-0.000709013	  -17.0994	-0.000736767	  -17.0642	-0.000703854	  -17.0948	-0.000716545	  -17.0948	  -17.9136	
  -17.0192	-0.000708273	  -16.9976	-0.000736227	  -16.9633	-0.000703379	  -16.9934	-0.00071596	  -16.9934	   -17.899	
  -16.9168	-0.000707571	  -16.8955	-0.000735543	  -16.8615	-0.000702805	  -16.8913	-0.000715306	  -16.8913	  -17.8827	
  -16.8137	-0.000706736	  -16.7931	-0.000734728	  -16.7589	-0.000702194	  -16.7886	-0.000714553	  -16.7886	  -17.8638	
  -16.7099	-0.000705781	  -16.6901	-0.000733959	  -16.6559	-0.000701627	  -16.6853	-0.000713789	  -16.6853	  -17.8447	
  -16.6054	-0.00070488	  -16.5861	-0.000733314	  -16.5522	-0.000701094	  -16.5812	-0.000713096	  -16.5812	  -17.8274	
  -16.4998	-0.000704055	  -16.4824	-0.000732662	  -16.4477	-0.00070052	  -16.4767	-0.000712412	  -16.4767	  -17.8103	
  -16.3932	-0.000703174	   -16.378	-0.000731867	  -16.3426	-0.000699877	  -16.3712	-0.000711639	  -16.3712	   -17.791	
  -16.2859	-0.000702198	  -16.2733	-0.000730983	   -16.237	-0.000699213	  -16.2654	-0.000710798	  -16.2654	    -17.77	
  -16.1784	-0.000701238	  -16.1678	-0.00073017	  -16.1308	-0.000698585	   -16.159	-0.000709998	   -16.159	    -17.75	
    -16.07	-0.000700393	  -16.0617	-0.000729451	  -16.0238	-0.000697973	  -16.0518	-0.000709272	  -16.0518	  -17.7318	
  -15.9609	-0.000699565	  -15.9555	-0.000728669	  -15.9162	-0.000697304	  -15.9442	-0.000708513	  -15.9442	  -17.7128	
  -15.8508	-0.000698599	  -15.8487	-0.000727738	  -15.8084	-0.000696575	   -15.836	-0.000707637	   -15.836	  -17.6909	
  -15.7405	-0.000697532	  -15.7417	-0.000726756	     -15.7	-0.00069585	  -15.7274	-0.000706713	  -15.7274	  -17.6678	
  -15.6295	-0.000696554	  -15.6342	-0.00072586	  -15.5908	-0.000695154	  -15.6182	-0.000705856	  -15.6182	  -17.6464	
  -15.5175	-0.000695697	  -15.5264	-0.000725032	   -15.481	-0.000694435	  -15.5083	-0.000705055	  -15.5083	  -17.6264	
  -15.4048	-0.000694799	   -15.418	-0.000724133	  -15.3705	-0.000693643	  -15.3978	-0.000704192	  -15.3978	  -17.6048	
  -15.2912	-0.000693733	  -15.3089	-0.000723104	  -15.2589	-0.000692808	  -15.2863	-0.000703215	  -15.2863	  -17.5804	
  -15.1771	-0.000692596	   -15.199	-0.000722045	  -15.1469	-0.000691989	  -15.1743	-0.00070221	  -15.1743	  -17.5553	
  -15.0622	-0.000691566	  -15.0879	-0.000721065	  -15.0345	-0.00069118	  -15.0615	-0.00070127	  -15.0615	  -17.5318	
  -14.9469	-0.000690626	  -14.9757	-0.000720119	  -14.9213	-0.000690323	   -14.948	-0.000700356	   -14.948	  -17.5089	
  -14.8305	-0.000689595	  -14.8627	-0.000719093	  -14.8075	-0.000689399	  -14.8335	-0.000699362	  -14.8335	  -17.4841	
  -14.7131	-0.000688409	  -14.7487	-0.000717982	  -14.6927	-0.000688449	  -14.7182	-0.00069828	  -14.7182	   -17.457	
  -14.5953	-0.000687222	  -14.6344	-0.000716877	  -14.5772	-0.000687513	  -14.6023	-0.000697204	  -14.6023	  -17.4301	
  -14.4769	-0.000686164	  -14.5193	-0.000715828	  -14.4611	-0.000686598	  -14.4857	-0.000696197	  -14.4857	  -17.4049	
  -14.3575	-0.000685149	  -14.4036	-0.000714762	  -14.3441	-0.000685686	  -14.3684	-0.000695199	  -14.3684	    -17.38	
  -14.2377	-0.000684017	  -14.2871	-0.000713611	  -14.2267	-0.000684749	  -14.2505	-0.000694126	  -14.2505	  -17.3531	
  -14.1175	-0.000682772	  -14.1698	-0.000712425	  -14.1084	-0.000683766	  -14.1319	-0.000692988	  -14.1319	  -17.3247	
  -13.9964	-0.000681565	  -14.0519	-0.000711271	  -13.9897	-0.00068275	  -14.0127	-0.000691862	  -14.0127	  -17.2965	
  -13.8749	-0.000680478	   -13.933	-0.000710121	  -13.8703	-0.000681739	  -13.8927	-0.000690779	  -13.8927	  -17.2695	
  -13.7533	-0.000679409	   -13.813	-0.000708916	  -13.7505	-0.000680739	  -13.7723	-0.000689688	  -13.7723	  -17.2422	
  -13.6316	-0.000678196	   -13.692	-0.000707671	  -13.6299	-0.000679736	  -13.6512	-0.000688534	  -13.6512	  -17.2134	
    -13.51	-0.000676858	  -13.5706	-0.000706435	   -13.509	-0.000678718	  -13.5299	-0.000687337	  -13.5299	  -17.1834	
   -13.388	-0.000675573	  -13.4488	-0.000705219	  -13.3877	-0.000677673	  -13.4081	-0.000686155	  -13.4081	  -17.1539	
  -13.2652	-0.000674424	  -13.3262	-0.000703985	   -13.266	-0.000676605	  -13.2858	-0.000685005	  -13.2858	  -17.1251	
  -13.1415	-0.000673262	  -13.2027	-0.000702688	  -13.1432	-0.000675503	  -13.1625	-0.000683818	  -13.1625	  -17.0954	
  -13.0169	-0.00067196	  -13.0788	-0.000701347	  -13.0198	-0.0006744	  -13.0385	-0.000682569	  -13.0385	  -17.0642	
   -12.892	-0.000670575	  -12.9542	-0.000700023	  -12.8957	-0.000673394	   -12.914	-0.000681331	   -12.914	  -17.0333	
  -12.7669	-0.000669254	  -12.8286	-0.000698715	  -12.7711	-0.000672407	  -12.7888	-0.000680125	  -12.7888	  -17.0031	
  -12.6409	-0.000668001	  -12.7022	-0.00069736	  -12.6461	-0.000671247	  -12.6631	-0.000678869	  -12.6631	  -16.9717	
  -12.5141	-0.000666717	  -12.5755	-0.000695932	  -12.5208	-0.000669957	  -12.5368	-0.000677536	  -12.5368	  -16.9384	
  -12.3865	-0.000665322	  -12.4484	-0.000694483	  -12.3948	-0.000668732	  -12.4099	-0.000676179	  -12.4099	  -16.9045	
  -12.2593	-0.00066386	  -12.3204	-0.000693053	  -12.2683	-0.000667656	  -12.2827	-0.000674857	  -12.2827	  -16.8714	
  -12.1318	-0.000662449	  -12.1919	-0.000691623	  -12.1412	-0.000666562	   -12.155	-0.000673545	   -12.155	  -16.8386	
   -12.004	-0.000661121	  -12.0634	-0.000690137	  -12.0138	-0.000665287	  -12.0271	-0.000672182	  -12.0271	  -16.8045	
  -11.8755	-0.000659829	  -11.9346	-0.000688593	  -11.8861	-0.000663908	  -11.8987	-0.000670777	  -11.8987	  -16.7694	
  -11.7465	-0.000658475	  -11.8056	-0.000686995	  -11.7575	-0.000662626	  -11.7698	-0.000669365	  -11.7698	  -16.7341	
  -11.6165	-0.000657042	  -11.6762	-0.000685365	  -11.6282	-0.000661458	  -11.6403	-0.000667955	  -11.6403	  -16.6989	
  -11.4863	-0.000655586	  -11.5468	-0.000683708	  -11.4983	-0.000660226	  -11.5105	-0.000666507	  -11.5105	  -16.6627	
  -11.3558	-0.00065417	  -11.4175	-0.000682049	  -11.3682	-0.000658817	  -11.3805	-0.000665012	  -11.3805	  -16.6253	
  -11.2251	-0.000652803	  -11.2883	-0.000680338	  -11.2378	-0.000657347	  -11.2504	-0.000663496	  -11.2504	  -16.5874	
  -11.0939	-0.000651434	  -11.1591	-0.000678538	  -11.1071	-0.000655984	    -11.12	-0.000661986	    -11.12	  -16.5496	
  -10.9623	-0.000649995	  -11.0293	-0.000676774	  -10.9759	-0.000654695	  -10.9892	-0.000660488	  -10.9892	  -16.5122	
  -10.8306	-0.000648519	  -10.8984	-0.000675061	  -10.8438	-0.000653297	  -10.8576	-0.000658959	  -10.8576	   -16.474	
  -10.6984	-0.00064707	  -10.7671	-0.000673261	  -10.7115	-0.000651752	  -10.7257	-0.000657361	  -10.7257	   -16.434	
  -10.5656	-0.000645636	  -10.6351	-0.000671338	  -10.5786	-0.000650213	  -10.5931	-0.000655729	  -10.5931	  -16.3932	
  -10.4328	-0.000644147	  -10.5024	-0.000669359	  -10.4457	-0.000648776	  -10.4603	-0.000654094	  -10.4603	  -16.3523	
  -10.2997	-0.000642609	  -10.3694	-0.000667388	  -10.3123	-0.000647348	  -10.3271	-0.000652448	  -10.3271	  -16.3112	
   -10.166	-0.000641086	  -10.2355	-0.000665446	  -10.1787	-0.000645793	  -10.1934	-0.000650775	  -10.1934	  -16.2694	
  -10.0323	-0.000639578	  -10.1015	-0.000663506	  -10.0443	-0.000644138	  -10.0594	-0.000649074	  -10.0594	  -16.2268	
  -9.89846	-0.000638037	  -9.96741	-0.000661503	  -9.90916	-0.000642537	  -9.92501	-0.000647359	  -9.92501	   -16.184	
  -9.76408	-0.00063642	  -9.83374	-0.000659429	  -9.77388	-0.000641017	  -9.79056	-0.000645622	  -9.79056	  -16.1406	
  -9.62941	-0.000634711	  -9.69885	-0.00065736	  -9.63826	-0.000639428	  -9.65551	-0.000643833	  -9.65551	  -16.0958	
  -9.49482	-0.000632984	  -9.56255	-0.000655358	  -9.50247	-0.000637662	  -9.51995	-0.000642001	  -9.51995	    -16.05	
  -9.35962	-0.000631354	  -9.42582	-0.000653362	  -9.36605	-0.000635853	  -9.38383	-0.00064019	  -9.38383	  -16.0047	
  -9.22384	-0.000629777	  -9.28918	-0.000651286	  -9.22965	-0.000634175	  -9.24756	-0.000638413	  -9.24756	  -15.9603	
  -9.08779	-0.000628113	  -9.15247	-0.000649168	  -9.09271	-0.000632582	  -9.11099	-0.000636621	  -9.11099	  -15.9155	
  -8.95157	-0.000626333	  -9.01533	-0.000647094	  -8.95576	-0.000630859	  -8.97422	-0.000634762	  -8.97422	  -15.8691	
  -8.81463	-0.000624552	  -8.87789	-0.000645069	  -8.81864	-0.000628966	  -8.83705	-0.000632862	  -8.83705	  -15.8216	
  -8.67744	-0.000622857	  -8.73975	-0.000643014	   -8.6812	-0.000627059	  -8.69946	-0.000630977	  -8.69946	  -15.7744	
  -8.54015	-0.000621185	  -8.60112	-0.000640888	  -8.54356	-0.00062531	  -8.56161	-0.000629128	  -8.56161	  -15.7282	
  -8.40215	-0.000619413	  -8.46177	-0.000638743	  -8.40623	-0.000623642	  -8.42338	-0.000627266	  -8.42338	  -15.6816	
  -8.26383	-0.000617553	  -8.32176	-0.000636647	  -8.26902	-0.000621855	  -8.28487	-0.000625352	  -8.28487	  -15.6338	
  -8.12511	-0.000615726	  -8.18155	-0.000634577	  -8.13157	-0.000619904	  -8.14608	-0.000623403	  -8.14608	  -15.5851	
  -7.98626	-0.000613978	  -8.04131	-0.000632459	  -7.99399	-0.000617952	  -8.00719	-0.000621463	  -8.00719	  -15.5366	
  -7.84747	-0.000612222	  -7.90096	-0.000630272	  -7.85587	-0.000616108	   -7.8681	-0.000619534	   -7.8681	  -15.4884	
   -7.7085	-0.000610364	  -7.76094	-0.000628088	   -7.7172	-0.000614271	  -7.72888	-0.000617574	  -7.72888	  -15.4394	
  -7.56892	-0.000608446	  -7.62102	-0.00062595	  -7.57832	-0.000612301	  -7.58942	-0.000615566	  -7.58942	  -15.3891	
  -7.42897	-0.000606571	  -7.48093	-0.000623806	  -7.43908	-0.000610226	  -7.44966	-0.000613535	  -7.44966	  -15.3384	
  -7.28927	-0.000604725	   -7.3403	-0.000621595	  -7.29919	-0.000608218	  -7.30959	-0.000611513	  -7.30959	  -15.2878	
  -7.14976	-0.000602835	   -7.1995	-0.00061935	  -7.15878	-0.000606305	  -7.16935	-0.000609497	  -7.16935	  -15.2374	
  -7.00962	-0.000600901	  -7.05846	-0.000617133	  -7.01804	-0.000604347	  -7.02871	-0.00060746	  -7.02871	  -15.1865	
  -6.86883	-0.000598976	  -6.91684	-0.000614945	  -6.87719	-0.000602259	  -6.88762	-0.000605394	  -6.88762	  -15.1348	
  -6.72776	-0.000597033	  -6.77457	-0.000612724	  -6.73559	-0.000600146	  -6.74598	-0.000603301	  -6.74598	  -15.0825	
  -6.58689	-0.000595033	  -6.63158	-0.000610429	   -6.5935	-0.000598131	  -6.60399	-0.000601198	  -6.60399	  -15.0299	
  -6.44587	-0.000592947	  -6.48781	-0.000608103	  -6.45085	-0.000596174	  -6.46151	-0.000599074	  -6.46151	  -14.9769	
  -6.30478	-0.000590831	  -6.34377	-0.000605806	  -6.30779	-0.000594136	  -6.31878	-0.000596925	  -6.31878	  -14.9231	
   -6.1631	-0.000588795	  -6.19941	-0.000603523	  -6.16441	-0.000591995	  -6.17564	-0.000594771	  -6.17564	  -14.8693	
  -6.02092	-0.000586818	  -6.05492	-0.000601188	  -6.02075	-0.000589867	   -6.0322	-0.000592624	   -6.0322	  -14.8156	
  -5.87821	-0.000584728	  -5.90973	-0.000598785	  -5.87721	-0.000587817	  -5.88838	-0.000590444	  -5.88838	  -14.7611	
  -5.73552	-0.000582469	  -5.76384	-0.000596368	  -5.73312	-0.000585762	  -5.74416	-0.0005882	  -5.74416	   -14.705	
  -5.59271	-0.000580197	  -5.61795	-0.00059398	  -5.58834	-0.000583606	  -5.59967	-0.000585928	  -5.59967	  -14.6482	
  -5.45001	-0.000578047	  -5.47225	-0.000591585	  -5.44304	-0.000581382	   -5.4551	-0.000583671	   -5.4551	  -14.5918	
  -5.30694	-0.000575914	  -5.32631	-0.000589124	  -5.29793	-0.000579189	  -5.31039	-0.000581409	  -5.31039	  -14.5352	
  -5.16373	-0.000573614	  -5.17976	-0.000586593	  -5.15277	-0.00057704	  -5.16542	-0.000579082	  -5.16542	  -14.4771	
  -5.02056	-0.00057118	  -5.03343	-0.0005841	  -5.00718	-0.000574842	  -5.02039	-0.000576707	  -5.02039	  -14.4177	
   -4.8768	-0.000568781	  -4.88681	-0.000581663	  -4.86185	-0.000572543	  -4.87515	-0.000574329	  -4.87515	  -14.3582	
  -4.73289	-0.000566465	  -4.74021	-0.0005791	  -4.71588	-0.000570201	  -4.72966	-0.000571922	  -4.72966	   -14.298	
  -4.58853	-0.000564097	  -4.59362	-0.00057636	  -4.56958	-0.000567883	  -4.58391	-0.000569446	  -4.58391	  -14.2362	
  -4.44325	-0.000561575	  -4.44703	-0.000573578	  -4.42351	-0.000565575	  -4.43793	-0.000566909	  -4.43793	  -14.1727	
  -4.29753	-0.000558974	  -4.30038	-0.000570953	  -4.27777	-0.000563198	  -4.29189	-0.000564375	  -4.29189	  -14.1094	
  -4.15139	-0.000556443	  -4.15333	-0.000568399	  -4.13199	-0.000560734	  -4.14557	-0.000561859	  -4.14557	  -14.0465	
  -4.00535	-0.000553975	  -4.00634	-0.00056568	  -3.98608	-0.000558245	  -3.99926	-0.0005593	  -3.99926	  -13.9825	
   -3.8589	-0.000551412	  -3.85878	-0.000563001	  -3.83932	-0.000555742	  -3.85233	-0.000556718	  -3.85233	   -13.918	
  -3.71177	-0.000548612	  -3.71089	-0.000560183	  -3.69189	-0.000553245	  -3.70485	-0.000554013	  -3.70485	  -13.8503	
