# User: ACHyster
# File name: C:/ACHYSTER/ACHyster SENS/SHAMS/CoFe2O4-1gl-water-80 Glycerol-Sens-08-03-2023/CoFe2O4-1gl-water-80 Glycerol- 10_100F-12 kAm -Sens-08-03-20230004#1.txt
# Saved at: mi. mar. 8 16:02:20 2023
# Hyster Loop (3 iterations). Intensity: 12.0 kA/m; Tuned frequency: 50.0 kHz
# Units x axis: (kA/m)
# Units y axis: "Repeats y" & "Average y" (10^(-3)Am^2); "Mass avg y" (Am^2/kg)
# Magnetic mass: 4e-05 g
# Parameter      	Repeat   1	Repeat   2	Repeat   3	Average   	Sigma     
# H_C (kA/m)     	       5.3	       5.7	       5.4	       5.5	       0.2
# M_R (Am^2/kg)  	       3.1	       3.2	       3.2	       3.2	       0.1
# M_max (Am^2/kg)	       6.3	       6.0	       6.2	       6.2	       0.1
# Area (mJ/kg)   	     141.4	     146.7	     140.7	     142.9	       2.7
# SAR (W/g)      	       7.1	       7.3	       7.0	       7.1	       0.1
#Repeat 1 x	Repeat 1 y	Repeat 2 x	Repeat 2 y	Repeat 3 x	Repeat 3 y	Average x 	Average y 	Mass avg x 	Mass avg y 
  -1.67973	-0.000156038	  -1.67766	-0.00016219	  -1.67037	-0.000162494	  -1.67592	-0.00016024	  -1.67592	  -4.00601	
  -1.60497	-0.000154623	   -1.6028	-0.000160924	  -1.59637	-0.000161322	  -1.60138	-0.000158956	  -1.60138	  -3.97391	
  -1.53029	-0.000153163	  -1.52804	-0.000159663	  -1.52223	-0.000160143	  -1.52685	-0.000157656	  -1.52685	  -3.94141	
   -1.4555	-0.000151666	  -1.45319	-0.0001584	  -1.44785	-0.000158808	  -1.45218	-0.000156291	  -1.45218	  -3.90729	
  -1.38065	-0.000150165	   -1.3783	-0.000157122	   -1.3734	-0.00015726	  -1.37745	-0.000154849	  -1.37745	  -3.87123	
  -1.30588	-0.00014869	  -1.30337	-0.000155827	  -1.29874	-0.000155559	  -1.30266	-0.000153359	  -1.30266	  -3.83396	
  -1.23092	-0.000147251	  -1.22827	-0.000154515	  -1.22389	-0.000153849	  -1.22769	-0.000151872	  -1.22769	  -3.79679	
  -1.15592	-0.000145836	  -1.15328	-0.000153198	  -1.14914	-0.000152274	  -1.15278	-0.000150436	  -1.15278	  -3.76089	
  -1.08075	-0.000144421	  -1.07812	-0.000151888	  -1.07434	-0.000150884	  -1.07773	-0.000149064	  -1.07773	   -3.7266	
  -1.00553	-0.000142987	  -1.00293	-0.000150583	 -0.999488	-0.00014962	  -1.00265	-0.00014773	  -1.00265	  -3.69325	
  -0.93039	-0.000141514	  -0.92783	-0.000149276	 -0.924691	-0.000148351	 -0.927637	-0.000146381	 -0.927637	  -3.65951	
 -0.855187	-0.000140001	 -0.852563	-0.000147949	 -0.849706	-0.00014695	 -0.852485	-0.000144967	 -0.852485	  -3.62416	
  -0.77995	-0.000138462	 -0.777283	-0.000146594	 -0.774819	-0.000145364	 -0.777351	-0.000143473	 -0.777351	  -3.58683	
 -0.704547	-0.000136929	 -0.701854	-0.000145212	  -0.69961	-0.000143643	 -0.702004	-0.000141928	 -0.702004	   -3.5482	
 -0.629125	-0.000135424	 -0.626423	-0.000143813	 -0.624379	-0.00014191	 -0.626642	-0.000140382	 -0.626642	  -3.50956	
 -0.553734	-0.000133951	 -0.550923	-0.000142404	 -0.549173	-0.000140284	 -0.551277	-0.00013888	 -0.551277	  -3.47199	
 -0.478186	-0.000132493	 -0.475291	-0.000140999	 -0.473806	-0.000138811	 -0.475761	-0.000137435	 -0.475761	  -3.43586	
 -0.402768	-0.000131021	  -0.39981	-0.000139601	 -0.398429	-0.000137445	 -0.400336	-0.000136022	 -0.400336	  -3.40056	
 -0.327059	-0.000129499	 -0.324402	-0.0001382	  -0.32311	-0.000136073	 -0.324857	-0.00013459	 -0.324857	  -3.36476	
 -0.251358	-0.000127925	  -0.24899	-0.000136778	 -0.247774	-0.000134589	 -0.249374	-0.000133098	 -0.249374	  -3.32744	
 -0.175666	-0.000126365	 -0.173846	-0.00013534	 -0.172424	-0.000132957	 -0.173979	-0.000131554	 -0.173979	  -3.28885	
 -0.099986	-0.000124866	-0.0985412	-0.000133903	-0.0969248	-0.000131224	 -0.098484	-0.000129998	 -0.098484	  -3.24994	
 -0.024452	-0.000123447	  -0.02336	-0.000132486	-0.0215619	-0.000129492	-0.0231246	-0.000128475	-0.0231246	  -3.21188	
  0.050901	-0.000122041	 0.0518898	-0.000131088	 0.0538578	-0.000127859	 0.0522162	-0.000126996	 0.0522162	   -3.1749	
  0.126273	-0.000120558	  0.127159	-0.000129697	   0.12942	-0.000126357	  0.127617	-0.000125538	  0.127617	  -3.13844	
  0.201524	-0.000118934	  0.202174	-0.000128283	  0.204841	-0.000124939	  0.202846	-0.000124052	  0.202846	   -3.1013	
  0.276941	-0.000117186	  0.277367	-0.000126821	  0.280406	-0.000123509	  0.278238	-0.000122505	  0.278238	  -3.06263	
  0.352347	-0.000115437	  0.352451	-0.000125334	   0.35583	-0.000121959	  0.353543	-0.00012091	  0.353543	  -3.02275	
  0.427904	-0.000113792	  0.427709	-0.00012386	  0.431534	-0.000120265	  0.429049	-0.000119306	  0.429049	  -2.98265	
  0.503465	-0.000112325	  0.502991	-0.000122445	  0.507221	-0.000118499	  0.504559	-0.000117756	  0.504559	  -2.94391	
  0.578755	-0.000110983	  0.578024	-0.000121083	  0.582619	-0.000116797	  0.579799	-0.000116288	  0.579799	  -2.90719	
  0.653977	-0.000109651	  0.653123	-0.000119739	  0.658045	-0.000115266	  0.655049	-0.000114885	  0.655049	  -2.87213	
  0.729094	-0.000108186	  0.728125	-0.000118352	   0.73334	-0.000113916	  0.730186	-0.000113485	  0.730186	  -2.83712	
   0.80425	-0.000106527	  0.803312	-0.000116877	  0.808649	-0.000112638	  0.805404	-0.000112014	  0.805404	  -2.80035	
  0.879446	-0.000104721	  0.878533	-0.000115299	  0.883974	-0.000111255	  0.880651	-0.000110425	  0.880651	  -2.76062	
  0.954517	-0.000102887	  0.953741	-0.000113676	  0.959153	-0.000109633	  0.955803	-0.000108732	  0.955803	   -2.7183	
   1.02977	-0.000101158	   1.02898	-0.000112074	   1.03436	-0.000107764	   1.03104	-0.000106998	   1.03104	  -2.67496	
   1.10493	-9.95969e-05	   1.10412	-0.000110554	   1.10945	-0.000105784	   1.10617	-0.000105312	   1.10617	  -2.63279	
   1.18005	-9.81752e-05	   1.17906	-0.00010913	   1.18452	-0.000103892	   1.18121	-0.000103732	   1.18121	  -2.59331	
   1.25523	-9.67816e-05	   1.25407	-0.000107754	   1.25963	-0.000102248	   1.25631	-0.000102261	   1.25631	  -2.55653	
   1.33031	-9.52862e-05	   1.32886	-0.000106332	   1.33463	-0.000100865	   1.33127	-0.000100828	   1.33127	  -2.52069	
   1.40558	-9.36117e-05	   1.40386	-0.000104799	   1.40969	-9.96134e-05	   1.40638	-9.93413e-05	   1.40638	  -2.48353	
   1.48075	-9.17835e-05	   1.47879	-0.000103143	   1.48465	-9.82913e-05	    1.4814	-9.77393e-05	    1.4814	  -2.44348	
    1.5559	-8.99043e-05	   1.55349	-0.000101428	   1.55937	-9.6732e-05	   1.55625	-9.60216e-05	   1.55625	  -2.40054	
   1.63109	-8.81163e-05	   1.62828	-9.97347e-05	   1.63404	-9.49083e-05	   1.63114	-9.42531e-05	   1.63114	  -2.35633	
    1.7062	-8.64994e-05	   1.70289	-9.8146e-05	   1.70851	-9.29394e-05	   1.70587	-9.25282e-05	   1.70587	  -2.31321	
   1.78132	-8.50281e-05	   1.77739	-9.66726e-05	   1.78289	-9.10195e-05	   1.78053	-9.09067e-05	   1.78053	  -2.27267	
   1.85637	-8.35955e-05	   1.85188	-9.52501e-05	   1.85725	-8.93104e-05	   1.85516	-8.93853e-05	   1.85516	  -2.23463	
    1.9312	-8.20624e-05	   1.92621	-9.37851e-05	   1.93145	-8.78383e-05	   1.92962	-8.78953e-05	   1.92962	  -2.19738	
   2.00612	-8.03605e-05	   2.00055	-9.21976e-05	    2.0058	-8.64905e-05	   2.00415	-8.63495e-05	   2.00415	  -2.15874	
   2.08084	-7.85121e-05	   2.07475	-9.04958e-05	   2.08001	-8.50952e-05	   2.07854	-8.4701e-05	   2.07854	  -2.11753	
   2.15557	-7.66285e-05	    2.1488	-8.87334e-05	   2.15406	-8.35096e-05	   2.15281	-8.29571e-05	   2.15281	  -2.07393	
   2.23025	-7.4842e-05	   2.22289	-8.70131e-05	   2.22813	-8.17206e-05	   2.22709	-8.11919e-05	   2.22709	   -2.0298	
   2.30491	-7.32101e-05	   2.29674	-8.53999e-05	   2.30223	-7.98317e-05	   2.30129	-7.94806e-05	   2.30129	  -1.98701	
   2.37967	-7.16994e-05	   2.37062	-8.38889e-05	   2.37633	-7.80005e-05	   2.37554	-7.78629e-05	   2.37554	  -1.94657	
   2.45427	-7.02008e-05	   2.44444	-8.2414e-05	   2.45034	-7.63426e-05	   2.44968	-7.63191e-05	   2.44968	  -1.90798	
   2.52871	-6.861e-05	   2.51821	-8.08832e-05	   2.52413	-7.48622e-05	   2.52368	-7.47852e-05	   2.52368	  -1.86963	
   2.60302	-6.69016e-05	   2.59206	-7.92605e-05	     2.598	-7.3458e-05	   2.59769	-7.32067e-05	   2.59769	  -1.83017	
   2.67707	-6.51352e-05	   2.66573	-7.75455e-05	   2.67167	-7.19834e-05	   2.67149	-7.15547e-05	   2.67149	  -1.78887	
    2.7513	-6.34133e-05	   2.73943	-7.57939e-05	   2.74536	-7.03389e-05	   2.74536	-6.98487e-05	   2.74536	  -1.74622	
    2.8257	-6.1806e-05	   2.81311	-7.40881e-05	   2.81901	-6.8538e-05	   2.81927	-6.8144e-05	   2.81927	   -1.7036	
   2.89998	-6.02941e-05	    2.8865	-7.24672e-05	   2.89237	-6.66627e-05	   2.89295	-6.64747e-05	   2.89295	  -1.66187	
   2.97396	-5.87937e-05	   2.95954	-7.09325e-05	   2.96571	-6.48368e-05	    2.9664	-6.48543e-05	    2.9664	  -1.62136	
    3.0474	-5.71919e-05	    3.0325	-6.94193e-05	   3.03893	-6.31296e-05	   3.03961	-6.32469e-05	   3.03961	  -1.58117	
   3.12027	-5.54326e-05	   3.10526	-6.78458e-05	   3.11192	-6.15352e-05	   3.11248	-6.16045e-05	   3.11248	  -1.54011	
   3.19264	-5.35608e-05	   3.17812	-6.61633e-05	   3.18483	-5.99941e-05	    3.1852	-5.9906e-05	    3.1852	  -1.49765	
   3.26482	-5.16762e-05	    3.2508	-6.43694e-05	   3.25756	-5.84178e-05	   3.25773	-5.81545e-05	   3.25773	  -1.45386	
   3.33704	-4.98937e-05	    3.3233	-6.25349e-05	   3.33007	-5.67548e-05	   3.33014	-5.63945e-05	   3.33014	  -1.40986	
   3.40939	-4.82712e-05	   3.39581	-6.07539e-05	   3.40259	-5.49924e-05	    3.4026	-5.46725e-05	    3.4026	  -1.36681	
   3.48188	-4.67677e-05	   3.46821	-5.9084e-05	   3.47484	-5.31758e-05	   3.47498	-5.30092e-05	   3.47498	  -1.32523	
   3.55432	-4.52765e-05	   3.54028	-5.75299e-05	   3.54711	-5.13693e-05	   3.54724	-5.13919e-05	   3.54724	   -1.2848	
   3.62663	-4.36765e-05	   3.61231	-5.60254e-05	   3.61929	-4.96236e-05	   3.61941	-4.97751e-05	   3.61941	  -1.24438	
    3.6987	-4.19242e-05	   3.68416	-5.44799e-05	   3.69114	-4.79526e-05	   3.69134	-4.81189e-05	   3.69134	  -1.20297	
    3.7703	-4.0065e-05	   3.75615	-5.28275e-05	   3.76297	-4.63168e-05	   3.76314	-4.64031e-05	   3.76314	  -1.16008	
   3.84173	-3.81768e-05	   3.82799	-5.10712e-05	   3.83465	-4.46509e-05	   3.83479	-4.4633e-05	   3.83479	  -1.11582	
   3.91277	-3.63469e-05	   3.89966	-4.92835e-05	   3.90595	-4.28884e-05	   3.90613	-4.28396e-05	   3.90613	  -1.07099	
   3.98318	-3.4596e-05	   3.97139	-4.75253e-05	   3.97717	-4.10148e-05	   3.97725	-4.10454e-05	   3.97725	  -1.02613	
   4.05291	-3.29074e-05	    4.0429	-4.58323e-05	   4.04821	-3.90775e-05	     4.048	-3.92724e-05	     4.048	  -0.98181	
   4.12264	-3.12127e-05	   4.11395	-4.41832e-05	   4.11899	-3.71759e-05	   4.11853	-3.75239e-05	   4.11853	 -0.938098	
   4.19235	-2.94497e-05	   4.18433	-4.25277e-05	   4.18969	-3.53985e-05	   4.18879	-3.5792e-05	   4.18879	   -0.8948	
   4.26244	-2.76003e-05	   4.25439	-4.08289e-05	   4.26015	-3.37637e-05	   4.25899	-3.40643e-05	   4.25899	 -0.851607	
   4.33223	-2.56763e-05	   4.32416	-3.90784e-05	   4.33043	-3.22108e-05	   4.32894	-3.23218e-05	   4.32894	 -0.808046	
   4.40203	-2.37355e-05	   4.39432	-3.73042e-05	    4.4007	-3.06161e-05	   4.39901	-3.0552e-05	   4.39901	 -0.763799	
    4.4717	-2.18186e-05	   4.46445	-3.55389e-05	   4.47069	-2.88749e-05	   4.46895	-2.87441e-05	   4.46895	 -0.718603	
    4.5413	-1.9985e-05	   4.53449	-3.37902e-05	   4.54046	-2.69446e-05	   4.53875	-2.69066e-05	   4.53875	 -0.672665	
   4.61058	-1.81972e-05	   4.60447	-3.20611e-05	   4.61017	-2.49002e-05	   4.60841	-2.50529e-05	   4.60841	 -0.626322	
   4.68061	-1.64457e-05	    4.6743	-3.03398e-05	   4.67959	-2.28754e-05	   4.67817	-2.32203e-05	   4.67817	 -0.580507	
   4.75028	-1.46666e-05	    4.7437	-2.86232e-05	   4.74882	-2.09855e-05	    4.7476	-2.14251e-05	    4.7476	 -0.535627	
   4.82037	-1.28175e-05	   4.81383	-2.69086e-05	   4.81797	-1.92593e-05	   4.81739	-1.96618e-05	   4.81739	 -0.491545	
    4.8895	-1.09018e-05	   4.88329	-2.51768e-05	   4.88694	-1.76308e-05	   4.88658	-1.79031e-05	   4.88658	 -0.447578	
   4.95941	-8.95267e-06	   4.95352	-2.34203e-05	   4.95587	-1.59676e-05	   4.95627	-1.61135e-05	   4.95627	 -0.402838	
   5.02819	-7.03955e-06	   5.02249	-2.16201e-05	   5.02467	-1.41808e-05	   5.02512	-1.42802e-05	   5.02512	 -0.357004	
   5.09715	-5.18537e-06	   5.09218	 -1.98e-05	   5.09312	-1.22425e-05	   5.09415	-1.24093e-05	   5.09415	 -0.310232	
   5.16587	-3.39837e-06	   5.16051	-1.79964e-05	   5.16155	-1.02289e-05	   5.16264	-1.05412e-05	   5.16264	  -0.26353	
   5.23492	-1.63107e-06	   5.22972	-1.62243e-05	   5.22983	-8.24441e-06	   5.23149	-8.69993e-06	   5.23149	 -0.217498	
   5.30305	1.73488e-07	   5.29824	-1.44831e-05	   5.29786	-6.36755e-06	   5.29972	-6.89239e-06	   5.29972	  -0.17231	
   5.37124	2.04709e-06	   5.36733	-1.27445e-05	   5.36583	-4.616e-06	   5.36814	-5.10447e-06	   5.36814	 -0.127612	
   5.43895	3.98762e-06	   5.43521	-1.09784e-05	   5.43365	-2.91372e-06	   5.43594	-3.3015e-06	   5.43594	-0.0825375	
    5.5066	 5.947e-06	   5.50353	-9.16631e-06	   5.50108	-1.16842e-06	   5.50374	-1.46258e-06	   5.50374	-0.0365644	
   5.57406	7.87219e-06	   5.57116	-7.30993e-06	   5.56825	6.87083e-07	   5.57116	4.16449e-07	   5.57116	 0.0104112	
   5.64147	9.74329e-06	   5.63872	-5.43736e-06	   5.63528	2.65658e-06	   5.63849	2.32084e-06	   5.63849	  0.058021	
   5.70845	1.15664e-05	   5.70558	-3.57959e-06	   5.70195	4.6662e-06	   5.70533	4.21768e-06	   5.70533	  0.105442	
    5.7753	1.33835e-05	   5.77267	-1.75418e-06	   5.76821	6.63071e-06	   5.77206	6.08667e-06	   5.77206	  0.152167	
   5.84175	1.52346e-05	   5.83911	4.4617e-08	   5.83437	8.49033e-06	   5.83841	7.92319e-06	   5.83841	   0.19808	
   5.90794	1.71385e-05	    5.9053	 1.841e-06	   5.90019	1.02517e-05	   5.90448	9.74372e-06	   5.90448	  0.243593	
    5.9738	1.90856e-05	   5.97103	3.65092e-06	   5.96575	1.1981e-05	   5.97019	1.15725e-05	   5.97019	  0.289313	
   6.03953	2.10405e-05	   6.03681	5.4943e-06	   6.03106	1.37606e-05	    6.0358	1.34318e-05	    6.0358	  0.335795	
   6.10489	2.29705e-05	     6.102	7.36426e-06	   6.09608	1.56451e-05	   6.10099	1.53266e-05	   6.10099	  0.383166	
   6.17037	2.48574e-05	    6.1672	9.24476e-06	   6.16102	1.76229e-05	    6.1662	1.72417e-05	    6.1662	  0.431042	
   6.23545	2.67042e-05	   6.23188	1.11204e-05	   6.22577	1.96283e-05	   6.23103	1.9151e-05	   6.23103	  0.478774	
    6.3002	2.85436e-05	   6.29627	1.2976e-05	   6.29025	2.15772e-05	   6.29557	2.10323e-05	   6.29557	  0.525807	
   6.36451	3.04298e-05	   6.36017	1.48163e-05	   6.35437	2.3414e-05	   6.35968	2.28867e-05	   6.35968	  0.572168	
   6.42864	3.23747e-05	   6.42405	1.66489e-05	    6.4185	2.51631e-05	   6.42373	2.47289e-05	   6.42373	  0.618223	
    6.4925	3.43605e-05	   6.48771	1.84952e-05	    6.4824	2.69061e-05	   6.48754	2.65873e-05	   6.48754	  0.664682	
   6.55589	3.63308e-05	   6.55126	2.03651e-05	   6.54587	2.87358e-05	     6.551	2.84773e-05	     6.551	  0.711931	
   6.61929	3.82318e-05	   6.61425	2.22594e-05	   6.60893	3.06993e-05	   6.61416	3.03968e-05	   6.61416	   0.75992	
   6.68248	4.00442e-05	   6.67708	2.41637e-05	   6.67158	3.2757e-05	   6.67705	3.23216e-05	   6.67705	  0.808041	
   6.74525	4.17925e-05	   6.73967	2.60568e-05	   6.73389	3.48084e-05	    6.7396	3.42192e-05	    6.7396	  0.855481	
   6.80791	4.35526e-05	   6.80218	 2.792e-05	   6.79619	3.67636e-05	   6.80209	3.60787e-05	   6.80209	  0.901968	
   6.87031	4.53858e-05	   6.86446	2.97612e-05	   6.85841	3.85853e-05	   6.86439	3.79107e-05	   6.86439	  0.947769	
   6.93235	4.73262e-05	   6.92641	3.15967e-05	   6.92089	4.03268e-05	   6.92655	3.97499e-05	   6.92655	  0.993748	
   6.99385	4.9348e-05	   6.98784	3.34373e-05	   6.98283	4.21053e-05	   6.98818	4.16302e-05	   6.98818	   1.04076	
   7.05531	5.13815e-05	   7.04908	3.52945e-05	   7.04457	4.39865e-05	   7.04965	4.35542e-05	   7.04965	   1.08885	
    7.1165	5.33587e-05	    7.1101	3.71633e-05	   7.10561	4.6001e-05	   7.11074	4.55077e-05	   7.11074	   1.13769	
   7.17724	5.52389e-05	   7.17069	3.90368e-05	   7.16652	4.80675e-05	   7.17148	4.74477e-05	   7.17148	   1.18619	
   7.23774	5.70393e-05	   7.23094	4.09022e-05	   7.22682	5.00934e-05	   7.23183	4.9345e-05	   7.23183	   1.23362	
   7.29808	5.88241e-05	   7.29107	4.27521e-05	   7.28753	5.19893e-05	   7.29223	5.11885e-05	   7.29223	   1.27971	
   7.35807	6.06603e-05	   7.35088	4.45849e-05	   7.34766	5.37468e-05	    7.3522	5.29974e-05	    7.3522	   1.32493	
   7.41777	6.25873e-05	   7.41045	4.64043e-05	    7.4081	5.54549e-05	   7.41211	5.48155e-05	   7.41211	   1.37039	
   7.47728	6.45912e-05	   7.46972	4.82219e-05	   7.46777	5.72081e-05	   7.47159	5.66737e-05	   7.47159	   1.41684	
   7.53653	6.66169e-05	   7.52878	5.00514e-05	   7.52738	5.90904e-05	    7.5309	5.85863e-05	    7.5309	   1.46466	
   7.59534	6.86028e-05	   7.58743	5.18973e-05	   7.58643	6.10921e-05	   7.58973	6.05307e-05	   7.58973	   1.51327	
   7.65379	7.05105e-05	   7.64576	5.37802e-05	   7.64515	6.31324e-05	   7.64823	6.24744e-05	   7.64823	   1.56186	
   7.71211	 7.235e-05	   7.70387	5.56654e-05	   7.70349	6.51265e-05	   7.70649	6.43806e-05	   7.70649	   1.60952	
   7.77012	7.41706e-05	    7.7617	5.74983e-05	   7.76171	6.70067e-05	   7.76451	6.62252e-05	   7.76451	   1.65563	
   7.82773	7.60294e-05	   7.81906	5.92562e-05	   7.81944	6.87785e-05	   7.82208	6.80214e-05	   7.82208	   1.70053	
    7.8852	7.79616e-05	   7.87634	6.09484e-05	   7.87706	7.05117e-05	   7.87953	6.98072e-05	   7.87953	   1.74518	
   7.94248	7.99576e-05	   7.93346	6.26231e-05	    7.9341	7.22812e-05	   7.93668	7.16207e-05	   7.93668	   1.79052	
   7.99937	8.19659e-05	   7.99023	6.43233e-05	   7.99097	7.41494e-05	   7.99353	7.34795e-05	   7.99353	   1.83699	
   8.05581	8.39271e-05	   8.04649	6.60982e-05	   8.04744	7.61054e-05	   8.04991	7.53769e-05	   8.04991	   1.88442	
   8.11221	8.58014e-05	   8.10247	6.79518e-05	   8.10348	7.80857e-05	   8.10606	7.72797e-05	   8.10606	   1.93199	
   8.16837	8.75875e-05	   8.15828	6.98334e-05	   8.15907	8.00167e-05	   8.16191	7.91458e-05	   8.16191	   1.97865	
    8.2241	8.93273e-05	   8.21372	7.16796e-05	   8.21433	8.18441e-05	   8.21738	8.09503e-05	   8.21738	   2.02376	
   8.27947	9.10993e-05	   8.26874	7.34312e-05	   8.26919	8.35804e-05	   8.27247	8.27036e-05	   8.27247	   2.06759	
   8.33448	9.29626e-05	   8.32348	7.50856e-05	   8.32364	8.52854e-05	    8.3272	8.44445e-05	    8.3272	   2.11111	
   8.38925	9.49421e-05	   8.37802	7.66802e-05	   8.37781	8.70311e-05	   8.38169	8.62178e-05	   8.38169	   2.15545	
   8.44359	9.69952e-05	    8.4322	7.8286e-05	   8.43164	8.88652e-05	   8.43581	8.80488e-05	   8.43581	   2.20122	
   8.49747	9.90268e-05	   8.48596	7.99638e-05	   8.48499	9.07742e-05	   8.48947	8.99216e-05	   8.48947	   2.24804	
   8.55101	0.00010094	   8.53943	8.17276e-05	   8.53769	9.27022e-05	   8.54271	 9.179e-05	   8.54271	   2.29475	
   8.60433	0.000102689	   8.59272	8.35406e-05	   8.59016	9.45766e-05	   8.59574	9.36021e-05	   8.59574	   2.34005	
   8.65725	0.000104316	   8.64566	8.53439e-05	   8.64236	9.63576e-05	   8.64842	9.53391e-05	   8.64842	   2.38348	
   8.70963	0.000105918	   8.69808	8.70848e-05	   8.69412	9.80555e-05	   8.70061	9.70193e-05	   8.70061	   2.42548	
   8.76184	0.000107595	   8.75011	8.87469e-05	   8.74558	9.9731e-05	   8.75251	9.8691e-05	   8.75251	   2.46728	
   8.81387	0.00010939	   8.80187	9.03541e-05	   8.79697	0.000101451	   8.80424	0.000100398	   8.80424	   2.50996	
   8.86553	0.000111287	   8.85332	9.19596e-05	   8.84795	0.000103264	    8.8556	0.00010217	    8.8556	   2.55425	
   8.91667	0.000113203	   8.90431	9.36149e-05	   8.89854	0.00010516	   8.90651	0.000103992	   8.90651	   2.59981	
   8.96756	0.000115041	   8.95496	9.53358e-05	   8.94859	0.000107061	   8.95704	0.000105813	   8.95704	   2.64532	
   9.01818	0.000116759	   9.00512	9.70974e-05	   8.99837	0.000108894	   9.00722	0.000107583	   9.00722	   2.68959	
   9.06849	0.000118379	   9.05507	9.88497e-05	   9.04782	0.000110612	   9.05713	0.00010928	   9.05713	   2.73201	
   9.11835	0.000119982	   9.10463	0.000100548	   9.09697	0.000112242	   9.10665	0.000110924	   9.10665	   2.77309	
   9.16775	0.000121634	   9.15367	0.000102177	   9.14567	0.000113854	   9.15569	0.000112555	   9.15569	   2.81388	
    9.2164	0.000123365	   9.20218	0.000103756	   9.19391	0.000115534	   9.20417	0.000114218	   9.20417	   2.85545	
    9.2649	0.000125136	   9.25041	0.000105322	   9.24176	0.000117323	   9.25236	0.000115927	   9.25236	   2.89818	
   9.31306	0.000126887	   9.29839	0.00010692	   9.28943	0.000119198	   9.30029	0.000117669	   9.30029	   2.94171	
   9.36075	0.000128557	   9.34595	0.000108573	   9.33675	0.00012106	   9.34782	0.000119397	   9.34782	   2.98492	
   9.40783	0.000130115	   9.39296	0.000110277	    9.3836	0.000122851	    9.3948	0.000121081	    9.3948	   3.02702	
   9.45469	0.000131588	   9.43931	0.000111995	      9.43	0.000124503	   9.44133	0.000122696	   9.44133	   3.06739	
   9.50113	0.000133043	   9.48544	0.000113686	   9.47622	0.000126063	    9.4876	0.000124264	    9.4876	    3.1066	
   9.54725	0.000134586	   9.53132	0.000115311	   9.52223	0.000127598	    9.5336	0.000125832	    9.5336	   3.14579	
    9.5929	0.000136249	   9.57681	0.000116868	   9.56789	0.00012918	    9.5792	0.000127432	    9.5792	   3.18581	
   9.63796	0.000138004	   9.62178	0.000118392	   9.61304	0.000130846	   9.62426	0.000129081	   9.62426	   3.22702	
   9.68243	0.000139753	   9.66622	0.000119935	   9.65781	0.00013257	   9.66882	0.000130753	   9.66882	   3.26882	
   9.72677	0.000141405	   9.71044	0.000121528	   9.70251	0.000134308	   9.71324	0.000132414	   9.71324	   3.31035	
   9.77082	0.000142912	   9.75444	0.000123172	   9.74699	0.000136007	   9.75742	0.00013403	   9.75742	   3.35076	
   9.81445	0.000144295	   9.79809	0.000124827	   9.79111	0.000137642	   9.80122	0.000135588	   9.80122	    3.3897	
   9.85754	0.000145657	   9.84124	0.000126444	   9.83474	0.000139222	   9.84451	0.000137108	   9.84451	   3.42769	
   9.90026	0.000147104	    9.8838	0.000127993	   9.87776	0.000140774	   9.88727	0.000138624	   9.88727	   3.46559	
   9.94247	0.000148699	   9.92606	0.000129473	   9.92033	0.000142329	   9.92962	0.000140167	   9.92962	   3.50417	
   9.98448	0.000150407	   9.96817	0.000130941	   9.96259	0.000143904	   9.97175	0.000141751	   9.97175	   3.54377	
   10.0262	0.000152132	   10.0099	0.00013245	   10.0046	0.000145495	   10.0135	0.000143359	   10.0135	   3.58398	
   10.0674	0.000153757	   10.0512	0.000134046	   10.0462	0.000147087	   10.0549	0.000144963	   10.0549	   3.62408	
    10.108	0.000155223	    10.092	0.000135707	   10.0872	0.000148658	   10.0957	0.000146529	   10.0957	   3.66323	
   10.1482	0.00015656	   10.1321	0.00013736	   10.1277	0.000150199	    10.136	0.00014804	    10.136	     3.701	
   10.1881	0.000157857	   10.1719	0.000138929	   10.1679	0.000151717	    10.176	0.000149501	    10.176	   3.73752	
   10.2279	0.000159231	   10.2114	0.000140377	   10.2078	0.000153228	   10.2157	0.000150945	   10.2157	   3.77364	
   10.2673	0.000160735	   10.2506	0.000141747	   10.2474	0.000154751	   10.2551	0.000152411	   10.2551	   3.81027	
   10.3062	0.000162345	   10.2895	0.000143122	   10.2866	0.000156286	   10.2941	0.000153918	   10.2941	   3.84794	
   10.3446	0.000163973	   10.3279	0.000144598	   10.3254	0.000157822	   10.3326	0.000155464	   10.3326	   3.88661	
   10.3826	0.000165513	   10.3658	0.000146211	   10.3635	0.000159341	   10.3706	0.000157022	   10.3706	   3.92554	
   10.4203	0.000166907	   10.4033	0.000147919	   10.4012	0.00016083	   10.4083	0.000158552	   10.4083	    3.9638	
   10.4578	0.000168169	   10.4406	0.000149626	   10.4386	0.000162295	   10.4457	0.00016003	   10.4457	   4.00076	
    10.495	0.000169378	   10.4777	0.000151239	   10.4756	0.000163758	   10.4828	0.000161458	   10.4828	   4.03646	
   10.5318	0.000170638	   10.5144	0.000152721	   10.5123	0.000165236	   10.5195	0.000162865	   10.5195	   4.07163	
   10.5681	0.00017202	   10.5507	0.000154117	   10.5485	0.000166734	   10.5558	0.00016429	   10.5558	   4.10726	
   10.6038	0.000173538	   10.5864	0.00015552	   10.5843	0.000168231	   10.5915	0.000165763	   10.5915	   4.14407	
   10.6388	0.000175123	   10.6215	0.000157009	   10.6194	0.000169689	   10.6266	0.000167274	   10.6266	   4.18184	
   10.6731	0.00017667	   10.6559	0.00015861	    10.654	0.000171078	    10.661	0.000168786	    10.661	   4.21965	
   10.7068	0.000178085	   10.6902	0.000160267	   10.6883	0.000172408	   10.6951	0.000170253	   10.6951	   4.25634	
   10.7404	0.000179336	   10.7238	0.00016191	   10.7224	0.000173724	   10.7289	0.000171657	   10.7289	   4.29142	
   10.7736	0.00018048	   10.7573	0.00016346	    10.756	0.000175078	   10.7623	0.000173006	   10.7623	   4.32515	
   10.8066	0.000181647	   10.7903	0.000164911	   10.7894	0.000176508	   10.7954	0.000174355	   10.7954	   4.35888	
   10.8397	0.000182946	    10.823	0.000166293	   10.8222	0.000178002	   10.8283	0.000175747	   10.8283	   4.39368	
   10.8721	0.000184394	   10.8551	0.000167682	   10.8546	0.000179509	   10.8606	0.000177195	   10.8606	   4.42988	
    10.904	0.000185931	   10.8865	0.000169148	   10.8864	0.000180963	   10.8923	0.000178681	   10.8923	   4.46702	
   10.9356	0.000187409	   10.9174	0.000170713	   10.9177	0.000182324	   10.9236	0.000180148	   10.9236	   4.50371	
   10.9665	0.000188748	   10.9479	0.000172344	   10.9488	0.000183595	   10.9544	0.000181562	   10.9544	   4.53906	
   10.9977	0.000189901	    10.978	0.000173967	   10.9795	0.000184818	   10.9851	0.000182895	   10.9851	   4.57238	
   11.0281	0.00019095	   11.0076	0.000175501	   11.0099	0.000186068	   11.0152	0.000184173	   11.0152	   4.60432	
   11.0586	0.000192026	    11.037	0.000176908	     11.04	0.000187405	   11.0452	0.000185446	   11.0452	   4.63616	
   11.0881	0.000193216	    11.066	0.000178208	   11.0697	0.000188842	   11.0746	0.000186756	   11.0746	   4.66889	
   11.1176	0.000194542	   11.0947	0.000179478	   11.0989	0.000190328	   11.1037	0.000188116	   11.1037	    4.7029	
   11.1463	0.000195922	   11.1228	0.000180799	   11.1275	0.000191784	   11.1322	0.000189502	   11.1322	   4.73755	
   11.1746	0.000197234	   11.1504	0.000182218	   11.1556	0.000193141	   11.1602	0.000190864	   11.1602	   4.77161	
   11.2024	0.000198404	   11.1776	0.000183717	   11.1832	0.000194387	   11.1877	0.000192169	   11.1877	   4.80423	
   11.2299	0.000199419	   11.2044	0.00018523	   11.2102	0.000195567	   11.2148	0.000193406	   11.2148	   4.83514	
   11.2569	0.00020036	   11.2307	0.00018668	   11.2366	0.000196771	   11.2414	0.000194604	   11.2414	    4.8651	
   11.2835	0.000201345	   11.2569	0.000188022	   11.2627	0.00019805	   11.2677	0.000195806	   11.2677	   4.89514	
   11.3094	0.000202438	   11.2828	0.000189265	   11.2885	0.000199383	   11.2936	0.000197029	   11.2936	   4.92572	
   11.3349	0.000203655	   11.3083	0.000190461	   11.3139	0.000200721	    11.319	0.000198279	    11.319	   4.95698	
   11.3599	0.000204918	   11.3335	0.000191679	    11.339	0.000202021	   11.3442	0.000199539	   11.3442	   4.98848	
   11.3845	0.000206122	   11.3583	0.000192961	   11.3637	0.000203265	   11.3689	0.000200783	   11.3689	   5.01957	
   11.4085	 0.0002072	   11.3827	0.000194299	    11.388	0.000204479	   11.3931	0.000201993	   11.3931	   5.04981	
    11.432	0.00020815	   11.4066	0.000195635	   11.4118	0.000205709	   11.4168	0.000203165	   11.4168	   5.07911	
    11.455	0.000209043	     11.43	0.000196908	   11.4351	0.000206996	     11.44	0.000204316	     11.44	    5.1079	
   11.4773	0.000209979	   11.4528	0.000198079	   11.4578	0.000208318	   11.4626	0.000205459	   11.4626	   5.13647	
    11.499	0.00021102	    11.475	0.000199161	   11.4799	0.000209615	   11.4846	0.000206599	   11.4846	   5.16497	
   11.5203	0.000212166	   11.4965	0.000200208	   11.5013	0.000210814	   11.5061	0.000207729	   11.5061	   5.19323	
   11.5412	0.000213344	   11.5177	0.000201282	   11.5222	0.000211897	    11.527	0.000208841	    11.527	   5.22103	
   11.5615	0.00021447	   11.5382	0.000202423	   11.5425	0.000212904	   11.5474	0.000209932	   11.5474	    5.2483	
   11.5816	0.000215485	   11.5585	0.000203624	   11.5623	0.000213912	   11.5674	0.000211007	   11.5674	   5.27517	
   11.6013	 0.0002164	   11.5785	0.00020484	   11.5815	0.000214997	   11.5871	0.000212079	   11.5871	   5.30198	
   11.6208	0.000217275	   11.5981	0.000206013	   11.6004	0.000216181	   11.6064	0.000213156	   11.6064	   5.32891	
   11.6399	0.00021819	   11.6174	0.000207103	   11.6191	0.000217426	   11.6255	0.000214239	   11.6255	   5.35599	
   11.6587	0.000219188	   11.6365	0.000208114	   11.6375	0.000218654	   11.6442	0.000215318	   11.6442	   5.38296	
   11.6771	0.000220259	   11.6553	0.000209084	   11.6555	0.000219789	   11.6626	0.000216377	   11.6626	   5.40943	
   11.6951	0.000221345	   11.6738	0.000210069	   11.6732	0.000220798	   11.6807	0.000217404	   11.6807	   5.43509	
   11.7128	0.00022237	   11.6919	0.000211107	   11.6907	 0.0002217	   11.6985	0.000218393	   11.6985	   5.45981	
     11.73	0.000223275	   11.7097	0.000212195	   11.7078	0.000222572	   11.7158	0.000219347	   11.7158	   5.48368	
   11.7468	0.000224078	    11.727	0.000213292	   11.7246	0.000223495	   11.7328	0.000220288	   11.7328	   5.50721	
   11.7631	0.000224853	   11.7439	0.000214349	   11.7411	0.000224512	   11.7493	0.000221238	   11.7493	   5.53094	
   11.7789	0.000225695	   11.7603	0.000215332	   11.7571	0.000225605	   11.7654	0.000222211	   11.7654	   5.55527	
   11.7943	0.000226657	   11.7762	0.000216268	   11.7726	0.000226715	    11.781	0.000223213	    11.781	   5.58034	
   11.8091	0.000227722	   11.7916	0.000217198	   11.7877	0.00022776	   11.7961	0.000224227	   11.7961	   5.60566	
   11.8234	0.000228816	   11.8065	0.000218167	   11.8024	0.000228695	   11.8107	0.000225226	   11.8107	   5.63065	
   11.8371	0.000229828	   11.8208	0.000219178	   11.8165	0.000229532	   11.8248	0.000226179	   11.8248	   5.65448	
   11.8503	0.000230694	   11.8347	0.00022018	   11.8302	0.000230327	   11.8384	0.000227067	   11.8384	   5.67668	
    11.863	0.000231408	   11.8479	0.000221111	   11.8434	0.000231154	   11.8514	0.000227891	   11.8514	   5.69727	
   11.8751	0.000232053	   11.8611	0.00022193	    11.856	0.000232055	   11.8641	0.000228679	   11.8641	   5.71698	
   11.8867	0.000232749	   11.8737	0.000222662	   11.8682	0.000233018	   11.8762	0.000229476	   11.8762	   5.73691	
   11.8977	0.000233579	   11.8858	0.00022339	   11.8798	0.000233996	   11.8878	0.000230321	   11.8878	   5.75804	
   11.9083	0.000234545	    11.897	0.000224203	   11.8909	0.000234923	   11.8988	0.000231224	   11.8988	    5.7806	
   11.9183	0.000235567	   11.9073	0.000225149	   11.9016	0.000235762	   11.9091	0.000232159	   11.9091	   5.80398	
   11.9278	0.000236528	   11.9166	0.000226191	   11.9117	0.000236515	   11.9187	0.000233078	   11.9187	   5.82695	
   11.9367	0.000237352	   11.9249	0.000227226	   11.9213	0.000237231	   11.9277	0.000233937	   11.9277	   5.84841	
   11.9452	0.00023804	   11.9329	0.000228147	   11.9305	0.000237976	   11.9362	0.000234721	   11.9362	   5.86803	
   11.9532	0.000238685	   11.9405	0.000228896	   11.9391	0.000238787	   11.9443	0.000235456	   11.9443	    5.8864	
   11.9608	0.000239377	   11.9476	0.000229514	   11.9473	0.000239659	   11.9519	0.000236183	   11.9519	   5.90458	
   11.9679	0.000240189	   11.9544	0.000230101	   11.9551	0.000240549	   11.9591	0.000236946	   11.9591	   5.92365	
   11.9745	0.000241105	   11.9609	0.000230771	   11.9623	 0.0002414	   11.9659	0.000237759	   11.9659	   5.94396	
   11.9807	0.000242046	   11.9669	0.000231583	   11.9692	0.000242177	   11.9723	0.000238602	   11.9723	   5.96505	
   11.9865	0.000242911	   11.9725	0.00023251	   11.9756	0.000242886	   11.9782	0.000239436	   11.9782	   5.98589	
   11.9919	0.000243653	   11.9777	0.00023345	   11.9815	0.000243564	   11.9837	0.000240223	   11.9837	   6.00557	
   11.9969	0.000244299	   11.9826	0.000234296	    11.987	0.000244262	   11.9888	0.000240952	   11.9888	   6.02381	
   12.0015	0.000244927	   11.9871	0.000234987	   11.9921	0.000245009	   11.9936	0.000241641	   11.9936	   6.04102	
   12.0058	0.000245625	   11.9913	0.000235549	   11.9969	0.000245799	    11.998	0.000242324	    11.998	   6.05811	
   12.0097	0.000246428	   11.9951	0.000236075	   12.0013	0.000246593	    12.002	0.000243032	    12.002	    6.0758	
   12.0133	0.000247312	   11.9987	0.000236674	   12.0053	0.000247346	   12.0058	0.000243778	   12.0058	   6.09444	
   12.0165	0.000248208	    12.002	0.000237407	   12.0089	0.000248034	   12.0091	0.00024455	   12.0091	   6.11374	
   12.0194	0.000249025	   12.0048	0.000238245	    12.012	0.000248673	    12.012	0.000245314	    12.012	   6.13286	
   12.0218	0.000249717	   12.0069	0.000239099	   12.0146	0.000249296	   12.0144	0.000246038	   12.0144	   6.15094	
   12.0239	0.000250288	   12.0086	0.000239869	   12.0167	0.000249945	   12.0164	 0.0002467	   12.0164	   6.16751	
   12.0256	0.000250802	   12.0098	0.000240501	   12.0181	0.000250635	   12.0178	0.000247313	   12.0178	   6.18281	
   12.0267	0.000251358	   12.0101	0.000241024	   12.0187	0.00025135	   12.0185	0.000247911	   12.0185	   6.19777	
   12.0274	0.000252034	   12.0098	0.000241523	   12.0186	0.000252058	   12.0186	0.000248538	   12.0186	   6.21346	
   12.0278	0.00025283	   12.0088	0.000242095	   12.0179	0.000252727	   12.0182	0.000249218	   12.0182	   6.23044	
   12.0275	0.000253679	   12.0073	0.000242789	   12.0165	0.000253341	   12.0171	0.000249936	   12.0171	    6.2484	
   12.0265	0.000254469	   12.0051	0.000243584	   12.0146	0.000253908	   12.0154	0.000250654	   12.0154	   6.26634	
    12.025	0.000255107	   12.0025	0.000244386	   12.0122	0.000254456	   12.0132	0.000251316	   12.0132	   6.28291	
   12.0229	0.000255611	   11.9995	 0.0002451	   12.0093	0.000255016	   12.0106	0.000251909	   12.0106	   6.29772	
   12.0203	0.000256033	   11.9961	0.000245674	   12.0059	0.000255602	   12.0074	0.000252436	   12.0074	   6.31091	
   12.0171	0.000256498	   11.9923	0.000246146	   12.0022	0.000256213	   12.0039	0.000252952	   12.0039	   6.32381	
   12.0135	0.000257061	   11.9883	0.000246597	   11.9982	0.000256824	        12	0.000253494	        12	   6.33735	
   12.0096	0.000257746	   11.9839	0.000247112	   11.9939	0.000257405	   11.9958	0.000254088	   11.9958	    6.3522	
   12.0051	0.000258494	   11.9793	0.000247737	   11.9892	0.000257946	   11.9912	0.000254726	   11.9912	   6.36814	
   12.0004	0.000259204	    11.974	0.00024843	    11.984	0.000258451	   11.9862	0.000255362	   11.9862	   6.38404	
   11.9954	0.000259824	   11.9686	0.000249118	   11.9783	0.000258943	   11.9807	0.000255961	   11.9807	   6.39903	
   11.9897	0.000260332	   11.9627	0.000249725	    11.972	0.000259442	   11.9748	 0.0002565	   11.9748	   6.41249	
   11.9835	0.000260786	   11.9562	0.000250216	   11.9651	0.000259956	   11.9683	0.000256986	   11.9683	   6.42464	
   11.9766	0.00026126	   11.9491	0.000250628	   11.9575	0.000260477	   11.9611	0.000257455	   11.9611	   6.43638	
    11.969	0.000261796	   11.9415	0.000251035	   11.9494	0.000260988	   11.9533	0.00025794	   11.9533	   6.44849	
   11.9609	0.000262403	   11.9334	0.000251511	   11.9408	0.000261474	    11.945	0.000258462	    11.945	   6.46156	
   11.9522	0.000263037	   11.9248	0.000252079	   11.9319	0.000261948	   11.9363	0.000259021	   11.9363	   6.47554	
   11.9431	0.000263628	    11.916	0.000252706	   11.9227	0.000262411	   11.9273	0.000259581	   11.9273	   6.48954	
   11.9337	0.000264143	   11.9068	0.00025332	   11.9131	0.000262866	   11.9179	0.00026011	   11.9179	   6.50275	
   11.9239	0.000264577	   11.8971	0.000253862	   11.9027	0.000263297	   11.9079	0.000260578	   11.9079	   6.51446	
   11.9137	0.000264968	   11.8871	0.000254313	    11.892	0.000263687	   11.8976	0.000260989	   11.8976	   6.52473	
   11.9031	0.000265371	   11.8765	0.000254709	   11.8807	0.000264024	   11.8868	0.000261368	   11.8868	   6.53421	
   11.8918	0.000265818	   11.8653	0.000255111	   11.8687	0.000264312	   11.8753	0.000261747	   11.8753	   6.54367	
   11.8801	0.000266308	   11.8534	0.000255573	   11.8565	0.000264589	   11.8633	0.000262157	   11.8633	   6.55392	
   11.8678	0.000266807	   11.8411	0.000256112	   11.8438	0.000264893	   11.8509	0.000262604	   11.8509	   6.56511	
    11.855	0.000267279	   11.8284	0.000256699	   11.8307	0.000265249	    11.838	0.000263076	    11.838	    6.5769	
   11.8419	0.000267709	   11.8154	0.000257286	   11.8174	0.000265639	   11.8249	0.000263545	   11.8249	   6.58862	
   11.8282	0.000268096	    11.802	0.000257828	   11.8038	0.000266022	   11.8113	0.000263982	   11.8113	   6.59955	
   11.8142	0.00026846	   11.7884	0.000258305	   11.7899	0.000266359	   11.7975	0.000264375	   11.7975	   6.60937	
   11.7998	0.00026881	   11.7742	0.000258721	   11.7754	0.000266631	   11.7831	0.000264721	   11.7831	   6.61801	
   11.7846	0.000269158	   11.7593	0.000259105	   11.7602	0.000266845	    11.768	0.000265036	    11.768	   6.62591	
   11.7689	0.000269529	   11.7439	0.00025949	   11.7445	0.000267019	   11.7524	0.000265346	   11.7524	   6.63366	
   11.7526	0.000269918	    11.728	0.000259899	   11.7284	0.000267176	   11.7363	0.000265664	   11.7363	   6.64161	
   11.7359	0.000270332	   11.7117	0.000260336	    11.712	0.000267338	   11.7199	0.000266002	   11.7199	   6.65005	
   11.7189	0.00027074	   11.6952	0.000260796	    11.695	0.000267513	    11.703	0.00026635	    11.703	   6.65874	
   11.7015	0.000271114	   11.6782	0.000261267	   11.6776	0.000267698	   11.6858	0.000266693	   11.6858	   6.66733	
   11.6837	0.000271433	   11.6606	0.000261733	   11.6597	0.000267877	    11.668	0.000267014	    11.668	   6.67536	
   11.6654	0.000271701	   11.6424	0.000262179	   11.6412	0.000268032	   11.6496	0.000267304	   11.6496	   6.68259	
   11.6464	0.000271981	   11.6237	0.000262585	   11.6221	0.000268149	   11.6308	0.000267572	   11.6308	   6.68929	
    11.627	0.000272287	   11.6047	0.000262939	   11.6027	0.00026823	   11.6115	0.000267819	   11.6115	   6.69547	
   11.6072	0.000272635	   11.5853	0.000263252	   11.5831	0.000268293	   11.5919	0.00026806	   11.5919	    6.7015	
   11.5872	0.000272986	   11.5656	0.000263553	   11.5629	0.000268375	   11.5719	0.000268304	   11.5719	   6.70761	
   11.5665	0.000273289	   11.5456	0.00026388	   11.5422	0.000268484	   11.5514	0.000268551	   11.5514	   6.71378	
   11.5455	0.000273515	   11.5252	0.000264241	   11.5208	0.00026863	   11.5305	0.000268796	   11.5305	   6.71989	
   11.5239	0.000273676	   11.5042	0.00026462	   11.4989	0.00026878	    11.509	0.000269025	    11.509	   6.72562	
   11.5017	0.000273836	   11.4827	0.000264985	   11.4767	0.000268893	    11.487	0.000269238	    11.487	   6.73095	
   11.4792	0.000274051	   11.4608	0.000265302	   11.4541	0.00026895	   11.4647	0.000269434	   11.4647	   6.73585	
   11.4564	0.000274331	   11.4386	0.000265559	   11.4311	0.000268946	    11.442	0.000269612	    11.442	    6.7403	
   11.4334	0.000274638	   11.4158	0.000265778	   11.4077	0.000268916	    11.419	0.000269777	    11.419	   6.74443	
   11.4097	0.000274892	   11.3923	0.000265983	   11.3837	0.000268896	   11.3952	0.000269924	   11.3952	   6.74809	
   11.3853	0.000275044	   11.3682	0.000266214	   11.3593	0.00026892	    11.371	0.000270059	    11.371	   6.75148	
   11.3605	0.000275092	   11.3436	0.000266476	   11.3345	0.000268981	   11.3462	0.000270183	   11.3462	   6.75458	
   11.3354	0.000275083	   11.3187	0.000266757	   11.3095	0.000269042	   11.3212	0.000270294	   11.3212	   6.75735	
     11.31	0.000275093	   11.2936	0.000267023	    11.284	0.000269064	   11.2959	0.000270393	   11.2959	   6.75983	
   11.2838	0.000275174	   11.2678	0.000267232	   11.2578	0.000269015	   11.2698	0.000270474	   11.2698	   6.76184	
    11.257	0.000275335	   11.2414	0.000267389	   11.2312	0.000268908	   11.2432	0.000270544	   11.2432	    6.7636	
   11.2298	0.000275531	   11.2146	0.000267512	   11.2041	0.00026878	   11.2162	0.000270608	   11.2162	    6.7652	
   11.2023	0.000275694	   11.1875	0.000267635	   11.1769	0.000268691	   11.1889	0.000270673	   11.1889	   6.76683	
   11.1744	0.000275771	   11.1601	0.00026779	   11.1492	0.000268663	   11.1612	0.000270741	   11.1612	   6.76853	
   11.1461	0.00027576	    11.132	0.000267981	   11.1211	0.000268688	   11.1331	0.000270809	   11.1331	   6.77023	
   11.1173	0.000275695	   11.1033	0.000268187	   11.0924	0.000268698	   11.1043	0.00027086	   11.1043	   6.77149	
   11.0881	0.000275644	   11.0742	0.000268383	   11.0634	0.000268621	   11.0752	0.000270883	   11.0752	   6.77207	
   11.0585	0.000275652	   11.0446	0.000268533	    11.034	0.000268431	   11.0457	0.000270872	   11.0457	    6.7718	
   11.0286	0.000275732	   11.0148	0.000268636	   11.0043	0.000268147	   11.0159	0.000270838	   11.0159	   6.77095	
   10.9982	0.000275848	   10.9843	0.000268703	   10.9739	0.000267864	   10.9855	0.000270805	   10.9855	   6.77013	
   10.9673	0.000275939	   10.9534	0.00026877	   10.9431	0.000267661	   10.9546	0.00027079	   10.9546	   6.76974	
   10.9359	0.000275958	   10.9221	0.000268869	    10.912	0.000267565	   10.9233	0.000270797	   10.9233	   6.76993	
   10.9042	0.00027589	   10.8905	0.000268992	   10.8806	0.000267543	   10.8918	0.000270808	   10.8918	    6.7702	
   10.8721	0.000275765	   10.8587	0.000269119	   10.8489	0.000267501	   10.8599	0.000270795	   10.8599	   6.76988	
   10.8393	0.000275642	   10.8263	0.000269213	   10.8165	0.000267366	   10.8274	0.000270741	   10.8274	   6.76852	
   10.8061	0.000275567	   10.7935	0.000269251	   10.7838	0.000267111	   10.7944	0.000270643	   10.7944	   6.76607	
   10.7725	0.000275554	   10.7603	0.000269235	   10.7507	0.000266771	   10.7612	0.00027052	   10.7612	     6.763	
   10.7387	0.000275574	   10.7266	0.000269189	   10.7174	0.000266428	   10.7276	0.000270397	   10.7276	   6.75993	
   10.7044	0.000275577	   10.6923	0.000269128	   10.6835	0.000266155	   10.6934	0.000270287	   10.6934	   6.75716	
   10.6696	0.000275522	   10.6575	0.000269069	    10.649	0.000265985	   10.6587	0.000270192	   10.6587	    6.7548	
   10.6344	0.000275396	   10.6223	0.000269008	   10.6143	0.000265894	   10.6237	0.000270099	   10.6237	   6.75248	
   10.5988	0.000275221	   10.5867	0.00026895	    10.579	0.000265799	   10.5882	0.00026999	   10.5882	   6.74975	
   10.5631	0.000275042	   10.5503	0.000268906	   10.5432	0.000265629	   10.5522	0.000269859	   10.5522	   6.74647	
   10.5268	0.000274895	   10.5135	0.000268883	   10.5068	0.000265366	   10.5157	0.000269715	   10.5157	   6.74287	
   10.4901	0.000274797	   10.4763	0.000268886	   10.4702	0.000265058	   10.4789	0.00026958	   10.4789	    6.7395	
   10.4531	0.000274729	    10.439	0.000268884	   10.4331	0.000264754	   10.4417	0.000269456	   10.4417	   6.73639	
   10.4157	0.000274651	   10.4013	0.000268837	   10.3953	0.000264498	   10.4041	0.000269329	   10.4041	   6.73322	
   10.3776	0.000274524	    10.363	0.000268709	   10.3571	0.000264302	   10.3659	0.000269178	   10.3659	   6.72945	
   10.3391	0.00027433	   10.3244	0.000268487	   10.3184	0.000264142	   10.3273	0.000268986	   10.3273	   6.72465	
   10.3004	0.000274084	   10.2856	0.000268204	   10.2794	0.000263974	   10.2885	0.000268754	   10.2885	   6.71886	
   10.2613	0.000273825	   10.2464	0.000267925	   10.2398	0.000263763	   10.2492	0.000268505	   10.2492	   6.71261	
   10.2215	0.000273589	   10.2067	 0.0002677	   10.1997	0.000263503	   10.2093	0.000268264	   10.2093	    6.7066	
   10.1814	0.000273386	   10.1666	0.000267551	   10.1594	0.000263211	   10.1691	0.000268049	   10.1691	   6.70123	
    10.141	0.000273201	   10.1263	0.000267454	   10.1187	0.000262919	   10.1287	0.000267858	   10.1287	   6.69645	
   10.1001	0.000272998	   10.0853	0.000267339	   10.0775	0.000262662	   10.0876	0.000267666	   10.0876	   6.69165	
   10.0587	0.000272746	   10.0438	0.000267141	   10.0358	0.000262476	   10.0461	0.000267454	   10.0461	   6.68635	
   10.0169	0.000272427	   10.0021	0.000266836	    9.9939	0.000262344	   10.0043	0.000267202	   10.0043	   6.68006	
   9.97489	0.000272062	   9.95999	0.000266448	   9.95162	0.000262241	   9.96217	0.000266917	   9.96217	   6.67293	
   9.93221	0.000271681	   9.91731	0.000266039	   9.90879	0.000262107	   9.91944	0.000266609	   9.91944	   6.66522	
   9.88908	0.000271314	    9.8741	0.000265666	   9.86562	0.000261892	   9.87626	0.00026629	   9.87626	   6.65726	
   9.84569	0.00027097	   9.83069	0.000265356	   9.82228	0.000261589	   9.83289	0.000265972	   9.83289	    6.6493	
   9.80189	0.000270642	   9.78703	0.000265085	   9.77839	0.000261238	    9.7891	0.000265655	    9.7891	   6.64137	
   9.75753	0.000270296	   9.74284	0.000264807	   9.73404	 0.0002609	    9.7448	0.000265334	    9.7448	   6.63336	
   9.71281	 0.0002699	   9.69833	0.000264481	   9.68942	0.000260612	   9.70019	0.000264998	   9.70019	   6.62494	
   9.66792	0.000269447	   9.65318	0.000264103	   9.64454	0.00026039	   9.65521	0.000264647	   9.65521	   6.61617	
    9.6226	0.000268951	   9.60743	0.000263697	    9.5992	0.000260192	   9.60974	0.00026428	   9.60974	     6.607	
   9.57681	0.000268455	    9.5613	0.000263306	   9.55348	0.000259954	   9.56386	0.000263905	   9.56386	   6.59763	
   9.53075	0.000267983	   9.51471	0.00026294	   9.50758	0.000259639	   9.51768	0.000263521	   9.51768	   6.58802	
   9.48428	0.000267534	   9.46815	0.000262584	   9.46151	0.000259241	   9.47131	0.000263119	   9.47131	   6.57799	
   9.43749	0.000267078	   9.42144	0.00026221	   9.41495	0.000258807	   9.42462	0.000262698	   9.42462	   6.56745	
   9.39034	0.000266591	   9.37469	0.00026181	    9.3681	0.00025839	   9.37771	0.000262264	   9.37771	   6.55659	
   9.34304	0.000266061	   9.32753	0.000261404	   9.32074	0.000258019	   9.33044	0.000261828	   9.33044	    6.5457	
   9.29509	 0.0002655	   9.27993	0.000260981	     9.273	0.000257695	   9.28267	0.000261392	   9.28267	    6.5348	
   9.24671	0.000264941	    9.2317	0.000260556	    9.2249	0.000257379	   9.23444	0.000260959	   9.23444	   6.52397	
   9.19812	0.000264404	   9.18344	0.000260083	   9.17665	0.000257026	   9.18607	0.000260504	   9.18607	   6.51261	
   9.14897	0.000263889	   9.13462	0.000259547	   9.12776	0.000256613	   9.13712	0.000260016	   9.13712	   6.50041	
   9.09935	0.000263386	   9.08604	0.000258942	   9.07844	0.000256145	   9.08794	0.000259491	   9.08794	   6.48728	
   9.04946	0.00026287	   9.03669	0.000258335	   9.02893	0.000255657	   9.03836	0.000258954	   9.03836	   6.47385	
   8.99912	0.000262331	   8.98756	0.000257819	   8.97887	0.000255187	   8.98852	0.000258446	   8.98852	   6.46115	
   8.94826	0.000261775	   8.93744	0.000257428	   8.92835	0.00025476	   8.93802	0.000257988	   8.93802	   6.44969	
   8.89711	0.000261201	   8.88735	0.000257149	   8.87759	0.000254369	   8.88735	0.000257573	   8.88735	   6.43933	
   8.84577	0.000260627	   8.83655	0.000256887	   8.82634	0.000253975	   8.83622	0.000257163	   8.83622	   6.42908	
   8.79401	0.000260049	   8.78545	0.000256512	    8.7746	0.000253538	   8.78469	 0.0002567	   8.78469	    6.4175	
   8.74192	0.000259471	   8.73399	0.000255947	   8.72261	0.000253041	   8.73284	0.000256153	   8.73284	   6.40383	
   8.68971	0.000258893	   8.68238	0.000255199	   8.67039	0.000252499	   8.68083	0.00025553	   8.68083	   6.38826	
   8.63736	0.000258308	   8.63014	0.000254371	   8.61765	0.000251946	   8.62838	0.000254875	   8.62838	   6.37187	
   8.58461	0.000257716	   8.57751	0.000253605	   8.56462	0.000251415	   8.57558	0.000254245	   8.57558	   6.35614	
   8.53155	0.000257113	   8.52417	0.000252997	   8.51139	0.000250919	   8.52237	0.000253676	   8.52237	   6.34191	
   8.47819	 0.0002565	   8.47076	0.000252551	   8.45777	0.000250442	   8.46891	0.000253164	   8.46891	    6.3291	
   8.42441	0.000255883	   8.41683	0.000252174	   8.40384	0.000249951	   8.41503	0.000252669	   8.41503	   6.31673	
   8.37044	0.000255261	   8.36261	0.000251738	   8.34954	0.000249421	   8.36087	0.00025214	   8.36087	   6.30349	
   8.31595	0.000254661	   8.30805	0.000251159	   8.29483	0.000248842	   8.30627	0.000251554	   8.30627	   6.28885	
   8.26103	0.000254072	    8.2531	0.000250435	   8.23979	0.000248229	   8.25131	0.000250912	   8.25131	   6.27281	
   8.20594	0.00025348	   8.19799	0.000249647	   8.18466	0.000247613	    8.1962	0.000250246	    8.1962	   6.25616	
   8.15046	0.000252847	   8.14253	0.000248904	   8.12911	0.000247022	    8.1407	0.000249591	    8.1407	   6.23977	
   8.09457	0.000252152	   8.08668	0.000248281	   8.07322	0.000246461	   8.08482	0.000248965	   8.08482	   6.22412	
   8.03849	0.00025141	   8.03066	0.000247788	   8.01724	0.000245913	    8.0288	0.00024837	    8.0288	   6.20925	
   7.98212	0.000250646	   7.97425	0.00024735	    7.9608	0.000245335	   7.97239	0.000247777	   7.97239	   6.19443	
   7.92533	0.000249911	   7.91745	0.000246865	   7.90404	0.000244701	    7.9156	0.000247159	    7.9156	   6.17898	
   7.86836	0.000249234	    7.8605	0.000246262	   7.84718	0.00024401	   7.85868	0.000246502	   7.85868	   6.16256	
   7.81127	0.000248615	   7.80327	0.000245539	   7.78976	0.000243306	   7.80143	0.00024582	   7.80143	    6.1455	
   7.75376	0.000248022	   7.74567	0.000244765	   7.73203	0.000242639	   7.74382	0.000245142	   7.74382	   6.12855	
   7.69608	0.000247399	   7.68792	0.000244043	   7.67423	0.000242037	   7.68608	0.000244493	   7.68608	   6.11232	
   7.63803	0.000246708	   7.62984	0.000243431	   7.61589	0.000241496	   7.62792	0.000243878	   7.62792	   6.09696	
   7.57959	0.000245942	   7.57139	0.00024293	   7.55727	0.000240976	   7.56942	0.000243283	   7.56942	   6.08207	
     7.521	0.000245144	   7.51271	0.000242471	   7.49837	0.00024041	   7.51069	0.000242675	   7.51069	   6.06688	
   7.46195	0.00024438	   7.45359	0.000241963	   7.43898	0.000239755	   7.45151	0.000242032	   7.45151	   6.05081	
   7.40254	0.000243683	   7.39415	0.000241347	   7.37936	0.000239008	   7.39202	0.000241346	   7.39202	   6.03365	
   7.34302	0.000243054	   7.33464	0.000240628	   7.31956	0.000238217	   7.33241	0.000240633	   7.33241	   6.01582	
   7.28306	0.000242439	   7.27492	0.000239874	   7.25943	0.000237448	   7.27247	0.00023992	   7.27247	     5.998	
   7.22278	0.00024178	    7.2149	0.000239176	    7.1991	0.000236748	   7.21226	0.000239235	   7.21226	   5.98087	
   7.16244	0.000241041	   7.15455	0.00023859	   7.13825	0.000236115	   7.15175	0.000238582	   7.15175	   5.96455	
   7.10158	0.000240239	    7.0937	0.00023809	   7.07701	0.000235509	   7.09076	0.000237946	   7.09076	   5.94864	
   7.04046	0.00023943	   7.03261	0.000237586	   7.01552	0.000234884	   7.02953	 0.0002373	   7.02953	   5.93251	
   6.97904	0.000238665	   6.97111	0.000236985	   6.95374	0.000234213	   6.96796	0.000236621	   6.96796	   5.91552	
   6.91718	0.000237971	   6.90919	0.000236242	   6.89163	0.000233492	     6.906	0.000235902	     6.906	   5.89754	
   6.85512	0.000237311	   6.84711	0.000235395	   6.82944	0.000232737	   6.84389	0.000235148	   6.84389	   5.87869	
   6.79278	0.000236635	   6.78477	0.000234533	   6.76697	0.000231976	   6.78151	0.000234381	   6.78151	   5.85954	
   6.73006	0.000235891	   6.72208	0.000233756	   6.70423	0.00023123	   6.71879	0.000233626	   6.71879	   5.84065	
   6.66722	0.000235066	   6.65928	0.000233113	   6.64146	0.000230506	   6.65599	0.000232895	   6.65599	   5.82237	
   6.60381	0.000234197	   6.59594	0.000232565	   6.57822	0.000229794	   6.59266	0.000232185	   6.59266	   5.80463	
   6.54011	0.000233334	   6.53234	0.00023201	   6.51478	0.00022908	   6.52908	0.000231475	   6.52908	   5.78687	
   6.47638	0.000232507	   6.46857	0.000231339	   6.45097	0.000228343	   6.46531	0.00023073	   6.46531	   5.76824	
   6.41231	0.000231719	   6.40449	0.000230508	   6.38678	0.00022756	   6.40119	0.000229929	   6.40119	   5.74823	
   6.34801	0.000230943	    6.3402	0.000229562	   6.32248	0.000226734	    6.3369	0.00022908	    6.3369	   5.72699	
   6.28351	0.00023015	   6.27552	0.000228608	   6.25796	0.000225879	   6.27233	0.000228212	   6.27233	   5.70531	
   6.21861	0.000229324	   6.21047	0.000227751	   6.19314	0.000225028	   6.20741	0.000227368	   6.20741	   5.68419	
   6.15358	0.000228471	   6.14533	0.000227017	   6.12814	0.000224211	   6.14235	0.000226566	   6.14235	   5.66416	
   6.08849	0.000227615	   6.07999	0.000226348	   6.06301	0.000223438	   6.07716	 0.0002258	   6.07716	   5.64501	
   6.02308	0.000226764	   6.01438	0.000225647	   5.99765	0.000222689	    6.0117	0.000225033	    6.0117	   5.62584	
   5.95746	0.000225919	   5.94847	0.000224836	   5.93232	0.000221925	   5.94608	0.000224227	   5.94608	   5.60567	
   5.89135	0.000225067	   5.88226	0.000223895	   5.86657	0.000221118	   5.88006	0.00022336	   5.88006	     5.584	
   5.82504	0.000224185	   5.81587	0.000222891	   5.80068	0.000220249	   5.81386	0.000222442	   5.81386	   5.56105	
   5.75854	0.000223261	   5.74934	0.000221899	   5.73467	0.000219341	   5.74752	 0.0002215	   5.74752	   5.53751	
   5.69166	0.000222296	   5.68247	0.000220989	   5.66832	0.000218429	   5.68082	0.000220571	   5.68082	   5.51428	
   5.62468	0.000221313	   5.61551	0.000220154	   5.60192	0.000217549	   5.61404	0.000219672	   5.61404	    5.4918	
   5.55767	0.000220343	   5.54856	0.000219349	   5.53518	0.000216713	   5.54714	0.000218802	   5.54714	   5.47005	
   5.49037	0.000219413	   5.48134	0.000218509	   5.46822	0.000215903	   5.47998	0.000217942	   5.47998	   5.44854	
   5.42305	0.000218519	   5.41411	0.000217576	   5.40102	0.000215079	   5.41273	0.000217058	   5.41273	   5.42645	
   5.35526	0.000217632	   5.34645	0.000216559	   5.33344	0.000214215	   5.34505	0.000216136	   5.34505	   5.40339	
   5.28731	0.000216705	   5.27863	0.000215501	   5.26574	0.000213301	   5.27723	0.000215169	   5.27723	   5.37922	
   5.21909	0.000215708	   5.21079	0.00021446	   5.19786	0.000212355	   5.20925	0.000214174	   5.20925	   5.35435	
   5.15055	0.000214656	   5.14263	0.000213483	    5.1297	0.000211394	   5.14096	0.000213178	   5.14096	   5.32944	
   5.08196	0.000213556	   5.07426	0.000212561	    5.0614	0.000210427	   5.07254	0.000212181	   5.07254	   5.30453	
   5.01323	0.000212482	   5.00559	0.000211649	   4.99301	0.000209456	   5.00394	0.000211196	   5.00394	   5.27989	
   4.94427	0.000211462	   4.93671	0.000210694	   4.92445	0.000208484	   4.93514	0.000210213	   4.93514	   5.25533	
   4.87522	0.000210516	    4.8679	0.000209661	    4.8557	0.000207509	   4.86627	0.000209229	   4.86627	   5.23072	
   4.80579	0.000209615	    4.7987	0.000208563	   4.78663	0.000206535	   4.79704	0.000208238	   4.79704	   5.20595	
    4.7361	0.000208703	   4.72942	0.000207434	   4.71751	0.000205572	   4.72768	0.000207237	   4.72768	   5.18092	
   4.66636	0.000207742	   4.66007	0.000206324	   4.64847	0.00020462	    4.6583	0.000206229	    4.6583	   5.15572	
   4.59638	0.000206698	   4.59046	0.000205263	    4.5792	0.000203651	   4.58868	0.000205204	   4.58868	    5.1301	
   4.52642	0.000205589	   4.52087	0.000204242	   4.50983	0.000202637	   4.51904	0.000204156	   4.51904	    5.1039	
   4.45606	0.000204449	   4.45085	0.00020323	   4.44008	0.000201542	     4.449	0.000203073	     4.449	   5.07683	
   4.38559	0.000203314	   4.38071	0.000202184	   4.37022	0.000200372	   4.37884	0.000201957	   4.37884	   5.04892	
   4.31499	0.000202215	   4.31029	0.000201079	   4.30011	0.000199153	   4.30847	0.000200816	   4.30847	   5.02039	
   4.24413	0.00020115	   4.23961	0.000199923	   4.22975	0.00019794	   4.23783	0.000199671	   4.23783	   4.99177	
   4.17328	0.000200097	   4.16876	0.000198751	   4.15942	0.000196766	   4.16715	0.000198538	   4.16715	   4.96345	
   4.10236	0.000199024	   4.09762	0.000197601	   4.08879	0.000195648	   4.09626	0.000197424	   4.09626	   4.93561	
   4.03128	0.000197903	   4.02636	0.000196499	   4.01805	0.000194569	   4.02523	0.000196324	   4.02523	   4.90809	
   3.96019	0.000196735	    3.9551	0.000195429	   3.94731	0.000193479	    3.9542	0.000195214	    3.9542	   4.88036	
   3.88879	0.000195538	   3.88357	0.000194361	   3.87628	0.00019234	   3.88288	0.00019408	   3.88288	   4.85199	
   3.81737	0.000194338	   3.81205	0.000193267	   3.80515	0.000191129	   3.81152	0.000192911	   3.81152	   4.82278	
   3.74564	0.000193158	   3.74038	0.000192122	   3.73386	0.000189855	   3.73996	0.000191712	   3.73996	   4.79279	
   3.67376	0.000192002	   3.66856	0.000190938	   3.66243	0.000188562	   3.66825	 0.0001905	   3.66825	   4.76251	
   3.60182	0.000190856	    3.5967	0.000189743	   3.59079	0.000187288	   3.59644	0.000189296	   3.59644	   4.73239	
    3.5297	0.000189697	   3.52454	0.000188573	   3.51886	0.000186061	   3.52436	0.00018811	   3.52436	   4.70275	
   3.45754	0.000188499	   3.45224	0.000187451	    3.4468	0.000184874	   3.45219	0.000186942	   3.45219	   4.67354	
   3.38508	0.000187258	   3.37965	0.000186363	   3.37447	0.000183694	   3.37973	0.000185772	   3.37973	   4.64429	
   3.31247	0.000185984	   3.30694	0.00018526	   3.30201	0.000182485	   3.30714	0.000184576	   3.30714	    4.6144	
   3.23986	0.000184702	   3.23414	0.000184089	   3.22937	0.000181223	   3.23445	0.000183338	   3.23445	   4.58345	
   3.16709	0.000183435	   3.16121	0.000182831	   3.15647	0.000179915	   3.16159	0.00018206	   3.16159	   4.55151	
   3.09429	0.000182188	   3.08829	0.000181512	   3.08361	0.00017859	   3.08873	0.000180763	   3.08873	   4.51908	
    3.0214	0.000180954	    3.0153	0.000180202	   3.01036	0.000177276	   3.01569	0.000179478	   3.01569	   4.48694	
   2.94835	0.000179712	   2.94217	0.000178975	   2.93702	  0.000176	   2.94251	0.000178229	   2.94251	   4.45572	
   2.87513	0.000178443	   2.86891	0.000177849	   2.86358	0.000174755	   2.86921	0.000177016	   2.86921	   4.42539	
   2.80175	0.000177141	   2.79537	0.00017676	   2.78993	0.00017352	   2.79568	0.000175807	   2.79568	   4.39517	
   2.72837	0.000175815	   2.72185	0.000175647	   2.71633	0.000172265	   2.72218	0.000174576	   2.72218	   4.36439	
   2.65489	0.000174484	   2.64827	0.000174414	   2.64259	0.000170969	   2.64858	0.000173289	   2.64858	   4.33222	
   2.58125	0.00017316	   2.57457	0.000173065	   2.56877	0.000169629	   2.57486	0.000171951	   2.57486	   4.29878	
    2.5076	0.000171844	   2.50087	0.00017166	     2.495	0.000168266	   2.50116	0.00017059	   2.50116	   4.26475	
   2.43366	0.000170527	   2.42691	0.000170316	     2.421	0.000166913	   2.42719	0.000169252	   2.42719	    4.2313	
   2.35973	0.000169198	   2.35297	0.000169119	   2.34707	0.000165588	   2.35326	0.000167969	   2.35326	   4.19922	
   2.28565	0.000167851	   2.27864	0.000168054	    2.2729	0.000164304	   2.27907	0.000166736	   2.27907	   4.16841	
   2.21144	0.000166489	   2.20423	0.00016705	   2.19866	0.000163093	   2.20478	0.000165544	   2.20478	    4.1386	
   2.13704	0.000165118	   2.12982	0.000165978	   2.12446	0.000161924	   2.13044	0.00016434	   2.13044	    4.1085	
   2.06261	0.000163751	    2.0553	0.000164751	   2.05003	0.000160735	   2.05598	0.000163079	   2.05598	   4.07698	
    1.9882	0.000162397	   1.98083	0.000163372	   1.97554	0.000159454	   1.98152	0.000161741	   1.98152	   4.04352	
   1.91353	0.000161061	   1.90626	0.000161908	   1.90167	0.000158057	   1.90715	0.000160342	   1.90715	   4.00855	
   1.83876	0.00015973	    1.8316	0.00016047	   1.82852	0.000156559	   1.83296	0.00015892	   1.83296	     3.973	
   1.76406	0.000158382	   1.75702	0.000159147	   1.75535	0.000155008	   1.75881	0.000157513	   1.75881	   3.93781	
   1.68911	0.000156998	   1.68221	0.000157942	   1.68225	0.000153517	   1.68452	0.000156152	   1.68452	    3.9038	
   1.61408	0.00015556	   1.60746	0.000156804	   1.60826	0.000152147	   1.60994	0.000154837	   1.60994	   3.87093	
   1.53905	0.000154095	   1.53253	0.000155625	   1.53454	0.000150924	   1.53537	0.000153548	   1.53537	    3.8387	
   1.46394	0.000152638	   1.45754	0.00015434	   1.45952	0.00014979	   1.46033	0.000152256	   1.46033	    3.8064	
   1.38876	0.000151229	   1.38234	0.000152932	   1.38417	0.000148636	   1.38509	0.000150932	   1.38509	    3.7733	
   1.31337	0.000149886	    1.3071	0.000151447	   1.30851	0.000147384	   1.30966	0.000149573	   1.30966	   3.73932	
   1.23807	0.000148591	   1.23195	0.000149974	   1.23317	0.000145995	    1.2344	0.000148187	    1.2344	   3.70467	
   1.16267	0.000147294	    1.1567	0.000148567	   1.15763	0.000144512	     1.159	0.000146791	     1.159	   3.66977	
   1.08722	0.000145943	   1.08141	0.000147226	   1.08208	0.000143024	   1.08357	0.000145398	   1.08357	   3.63495	
   1.01159	0.000144518	   1.00594	0.000145908	   1.00679	0.000141612	   1.00811	0.000144013	   1.00811	   3.60032	
  0.935791	0.000143037	  0.930308	0.000144554	  0.931664	0.00014031	  0.932588	0.000142634	  0.932588	   3.56584	
  0.860115	0.000141548	  0.854685	0.000143135	  0.856515	0.000139079	  0.857105	0.000141254	  0.857105	   3.53135	
  0.784282	 0.0001401	  0.778917	0.000141652	  0.781319	0.000137841	  0.781506	0.000139864	  0.781506	    3.4966	
  0.708442	0.000138714	   0.70315	0.000140152	  0.705943	0.000136523	  0.705845	0.000138463	  0.705845	   3.46158	
  0.632699	0.00013737	  0.627489	0.000138687	   0.63047	0.000135094	  0.630219	0.00013705	  0.630219	   3.42625	
  0.557036	0.000136021	  0.551801	0.000137279	  0.554838	0.000133582	  0.554558	0.000135627	  0.554558	   3.39068	
   0.48149	0.000134617	  0.476111	0.000135911	  0.479334	0.00013206	  0.478978	0.000134196	  0.478978	    3.3549	
  0.406053	0.000133139	   0.40042	0.000134544	  0.403676	0.000130595	  0.403383	0.000132759	  0.403383	   3.31898	
  0.330578	0.000131603	  0.324728	0.000133147	  0.328013	0.000129212	  0.327773	0.00013132	  0.327773	   3.28301	
   0.25523	0.000130051	  0.249083	0.000131701	  0.252393	0.000127884	  0.252235	0.000129879	  0.252235	   3.24697	
  0.179698	0.000128534	  0.173298	0.000130186	  0.176628	0.000126544	  0.176541	0.000128421	  0.176541	   3.21053	
  0.104136	0.000127071	 0.0976582	0.000128598	  0.101006	0.000125124	  0.100934	0.000126931	  0.100934	   3.17328	
 0.0284466	0.000125647	  0.021746	0.00012697	 0.0251071	0.000123599	 0.0250999	0.000125405	 0.0250999	   3.13513	
-0.0471432	0.000124216	-0.0541416	0.000125351	-0.0507703	0.000121999	 -0.050685	0.000123856	 -0.050685	   3.09639	
 -0.122753	0.000122734	 -0.130003	0.000123782	 -0.126625	0.000120395	  -0.12646	0.000122304	  -0.12646	    3.0576	
 -0.198381	0.000121189	 -0.205978	0.000122272	 -0.202595	0.000118851	 -0.202318	0.000120771	 -0.202318	   3.01927	
 -0.274061	0.000119596	 -0.281783	0.000120799	 -0.278398	0.000117385	  -0.27808	0.00011926	  -0.27808	    2.9815	
 -0.349684	0.000117999	 -0.357382	0.000119281	  -0.35434	0.000115967	 -0.353802	0.000117749	 -0.353802	   2.94373	
 -0.425325	0.00011644	 -0.432978	0.000117692	 -0.430251	0.000114529	 -0.429518	0.00011622	 -0.429518	    2.9055	
 -0.500843	0.000114933	 -0.508568	0.000116027	 -0.506128	0.000113013	  -0.50518	0.000114657	  -0.50518	   2.86644	
 -0.576524	0.000113461	 -0.584291	0.000114359	 -0.581941	 0.0001114	 -0.580919	0.000113073	 -0.580919	   2.82683	
  -0.65208	0.000111982	 -0.659862	0.000112761	 -0.657703	0.000109725	 -0.656548	0.000111489	 -0.656548	   2.78724	
 -0.727519	0.000110459	 -0.735561	0.000111283	 -0.733441	0.000108053	 -0.732174	0.000109932	 -0.732174	   2.74829	
 -0.803123	0.000108879	 -0.811244	0.000109881	 -0.809155	0.000106447	 -0.807841	0.000108402	 -0.807841	   2.71006	
 -0.878469	0.000107259	 -0.886637	0.00010845	 -0.884745	0.000104942	 -0.883284	0.000106884	 -0.883284	   2.67209	
 -0.953761	0.00010564	 -0.962061	0.000106916	 -0.960346	0.000103512	 -0.958723	0.000105356	 -0.958723	    2.6339	
  -1.02896	0.000104051	  -1.03749	0.000105268	   -1.0358	0.000102077	  -1.03408	0.000103799	  -1.03408	   2.59497	
  -1.10407	0.000102494	  -1.11279	0.000103567	  -1.11138	0.000100559	  -1.10941	0.000102207	  -1.10941	   2.55517	
  -1.17924	0.000100955	   -1.1881	 0.0001019	  -1.18696	9.89133e-05	  -1.18477	0.000100589	  -1.18477	   2.51473	
  -1.25442	9.94135e-05	  -1.26316	0.000100343	  -1.26236	9.71609e-05	  -1.25998	9.89723e-05	  -1.25998	   2.47431	
   -1.3298	9.78569e-05	   -1.3384	9.88904e-05	  -1.33791	9.53838e-05	  -1.33537	9.73771e-05	  -1.33537	   2.43443	
  -1.40521	9.62776e-05	  -1.41352	9.74765e-05	   -1.4133	9.36701e-05	  -1.41068	9.58081e-05	  -1.41068	    2.3952	
   -1.4806	9.46831e-05	  -1.48862	9.60187e-05	  -1.48847	9.20777e-05	  -1.48589	9.42598e-05	  -1.48589	    2.3565	
  -1.55591	9.30804e-05	  -1.56363	9.44591e-05	  -1.56366	9.05969e-05	  -1.56107	9.27121e-05	  -1.56107	    2.3178	
  -1.63099	9.14775e-05	  -1.63843	9.28031e-05	  -1.63859	8.91418e-05	    -1.636	9.11408e-05	    -1.636	   2.27852	
  -1.70627	8.98779e-05	  -1.71315	9.11027e-05	  -1.71358	8.76102e-05	    -1.711	8.95303e-05	    -1.711	   2.23826	
  -1.78147	8.82982e-05	  -1.78781	8.94298e-05	  -1.78846	8.59373e-05	  -1.78592	8.78884e-05	  -1.78592	   2.19721	
  -1.85654	8.67212e-05	  -1.86227	8.78445e-05	  -1.86322	8.41422e-05	  -1.86068	8.62359e-05	  -1.86068	    2.1559	
  -1.93169	 8.514e-05	  -1.93683	8.63425e-05	  -1.93805	8.23057e-05	  -1.93552	8.45961e-05	  -1.93552	    2.1149	
  -2.00676	8.35323e-05	  -2.01122	8.48718e-05	  -2.01267	8.05302e-05	  -2.01021	8.29781e-05	  -2.01021	   2.07445	
   -2.0817	8.19005e-05	  -2.08518	8.33656e-05	  -2.08734	7.88767e-05	  -2.08474	8.13809e-05	  -2.08474	   2.03452	
  -2.15659	8.02503e-05	  -2.15917	8.17786e-05	  -2.16195	7.73239e-05	  -2.15924	7.97843e-05	  -2.15924	   1.99461	
  -2.23116	7.86032e-05	  -2.23318	8.01061e-05	  -2.23625	7.5778e-05	  -2.23353	7.81624e-05	  -2.23353	   1.95406	
  -2.30586	7.69839e-05	  -2.30709	7.83888e-05	  -2.31067	7.41542e-05	  -2.30787	7.6509e-05	  -2.30787	   1.91272	
  -2.38039	7.53954e-05	  -2.38091	7.66908e-05	  -2.38493	7.24248e-05	  -2.38208	7.4837e-05	  -2.38208	   1.87093	
  -2.45465	7.38278e-05	  -2.45464	7.50504e-05	  -2.45918	7.06263e-05	  -2.45616	7.31681e-05	  -2.45616	    1.8292	
  -2.52893	7.22458e-05	  -2.52845	7.34795e-05	  -2.53344	6.88266e-05	  -2.53027	7.15173e-05	  -2.53027	   1.78793	
  -2.60296	7.06275e-05	  -2.60205	7.19487e-05	  -2.60743	6.70711e-05	  -2.60415	6.98824e-05	  -2.60415	   1.74706	
   -2.6769	6.89716e-05	  -2.67561	7.04137e-05	  -2.68145	6.53788e-05	  -2.67799	6.82547e-05	  -2.67799	   1.70637	
  -2.75078	6.72957e-05	  -2.74915	6.88323e-05	  -2.75523	6.36974e-05	  -2.75172	6.66085e-05	  -2.75172	   1.66521	
  -2.82432	6.56226e-05	  -2.82239	6.71874e-05	   -2.8288	6.19665e-05	  -2.82517	6.49255e-05	  -2.82517	   1.62314	
  -2.89756	6.39596e-05	   -2.8955	6.54987e-05	  -2.90246	6.01665e-05	  -2.89851	6.32083e-05	  -2.89851	   1.58021	
  -2.97067	6.23009e-05	  -2.96851	6.38016e-05	  -2.97593	5.83152e-05	   -2.9717	6.14725e-05	   -2.9717	   1.53681	
  -3.04367	6.06337e-05	  -3.04143	6.21333e-05	   -3.0491	5.64695e-05	  -3.04473	5.97455e-05	  -3.04473	   1.49364	
  -3.11658	5.89564e-05	  -3.11442	6.05249e-05	  -3.12227	5.46796e-05	  -3.11776	5.80536e-05	  -3.11776	   1.45134	
  -3.18942	5.72684e-05	   -3.1872	5.89657e-05	  -3.19533	5.2957e-05	  -3.19065	5.6397e-05	  -3.19065	   1.40993	
  -3.26219	5.55784e-05	  -3.25979	5.74332e-05	  -3.26813	5.12707e-05	  -3.26337	5.47608e-05	  -3.26337	   1.36902	
  -3.33492	5.38821e-05	  -3.33238	5.58813e-05	  -3.34073	4.95565e-05	  -3.33601	5.31066e-05	  -3.33601	   1.32767	
  -3.40735	5.21715e-05	  -3.40482	5.4267e-05	  -3.41301	4.77711e-05	  -3.40839	5.14032e-05	  -3.40839	   1.28508	
  -3.47978	5.04571e-05	  -3.47714	5.25748e-05	  -3.48542	4.59049e-05	  -3.48078	4.96456e-05	  -3.48078	   1.24114	
  -3.55209	4.87283e-05	  -3.54937	5.08177e-05	  -3.55768	4.39905e-05	  -3.55305	4.78455e-05	  -3.55305	   1.19614	
  -3.62417	4.69983e-05	  -3.62125	4.90494e-05	  -3.62969	4.20849e-05	  -3.62504	4.60442e-05	  -3.62504	    1.1511	
  -3.69632	4.52572e-05	  -3.69324	4.73305e-05	  -3.70175	4.02329e-05	   -3.6971	4.42735e-05	   -3.6971	   1.10684	
  -3.76828	4.35048e-05	  -3.76505	4.56921e-05	   -3.7736	3.84538e-05	  -3.76898	4.25502e-05	  -3.76898	   1.06376	
  -3.83993	4.1729e-05	  -3.83646	4.41229e-05	  -3.84554	3.67159e-05	  -3.84064	4.08559e-05	  -3.84064	    1.0214	
  -3.91159	3.99256e-05	  -3.90764	4.25754e-05	  -3.91729	3.4971e-05	  -3.91217	3.91573e-05	  -3.91217	  0.978933	
  -3.98313	3.81024e-05	  -3.97862	4.09944e-05	  -3.98876	3.3172e-05	   -3.9835	3.74229e-05	   -3.9835	  0.935573	
  -4.05444	3.62691e-05	  -4.04945	3.93437e-05	  -4.05998	3.12979e-05	  -4.05462	3.56369e-05	  -4.05462	  0.890923	
   -4.1257	3.44459e-05	  -4.12028	3.76292e-05	  -4.13112	2.93754e-05	   -4.1257	3.38168e-05	   -4.1257	  0.845421	
  -4.19664	3.26356e-05	  -4.19086	3.58848e-05	  -4.20208	2.74601e-05	  -4.19653	3.19935e-05	  -4.19653	  0.799838	
  -4.26759	3.08273e-05	  -4.26123	3.41566e-05	  -4.27287	2.55995e-05	  -4.26723	3.01945e-05	  -4.26723	  0.754862	
  -4.33829	2.90062e-05	  -4.33143	3.24835e-05	  -4.34355	2.38131e-05	  -4.33775	2.84343e-05	  -4.33775	  0.710856	
  -4.40878	2.71574e-05	  -4.40135	3.08706e-05	  -4.41398	2.20686e-05	  -4.40804	2.66989e-05	  -4.40804	  0.667471	
  -4.47922	2.52816e-05	   -4.4713	2.92908e-05	  -4.48422	2.03137e-05	  -4.47825	2.49621e-05	  -4.47825	  0.624051	
  -4.54951	2.33896e-05	  -4.54118	2.76961e-05	   -4.5543	1.85032e-05	  -4.54833	2.31963e-05	  -4.54833	  0.579908	
  -4.61954	2.14852e-05	  -4.61073	2.60501e-05	  -4.62412	1.66308e-05	  -4.61813	2.13887e-05	  -4.61813	  0.534718	
  -4.68963	1.95416e-05	  -4.68042	2.4345e-05	  -4.69371	1.47241e-05	  -4.68792	1.95369e-05	  -4.68792	  0.488423	
  -4.75951	1.75797e-05	  -4.74997	2.2606e-05	  -4.76313	1.28392e-05	  -4.75754	1.7675e-05	  -4.75754	  0.441874	
  -4.82895	1.56149e-05	  -4.81929	2.08727e-05	  -4.83212	1.10239e-05	  -4.82679	1.58372e-05	  -4.82679	   0.39593	
  -4.89842	1.37064e-05	  -4.88854	1.91788e-05	  -4.90116	9.28192e-06	  -4.89604	1.40557e-05	  -4.89604	  0.351393	
  -4.96767	1.18859e-05	  -4.95763	1.75306e-05	     -4.97	7.56974e-06	   -4.9651	1.23287e-05	   -4.9651	  0.308219	
  -5.03673	1.01404e-05	  -5.02646	1.59084e-05	  -5.03841	5.82391e-06	  -5.03387	1.06242e-05	  -5.03387	  0.265606	
  -5.10565	8.43347e-06	   -5.0952	1.42708e-05	  -5.10671	4.00358e-06	  -5.10252	8.9026e-06	  -5.10252	  0.222565	
  -5.17432	6.6638e-06	  -5.16375	1.25854e-05	  -5.17481	2.11419e-06	  -5.17096	7.12113e-06	  -5.17096	  0.178028	
   -5.2428	4.76561e-06	  -5.23202	1.08447e-05	  -5.24276	2.0139e-07	  -5.23919	5.27057e-06	  -5.23919	  0.131764	
  -5.31125	2.71899e-06	   -5.3002	9.07012e-06	  -5.31072	-1.66649e-06	  -5.30739	3.37421e-06	  -5.30739	 0.0843552	
  -5.37944	5.84118e-07	  -5.36817	7.30131e-06	  -5.37846	-3.44413e-06	  -5.37536	1.48043e-06	  -5.37536	 0.0370108	
  -5.44727	-1.52275e-06	  -5.43573	5.56608e-06	  -5.44587	-5.14703e-06	  -5.44296	-3.679e-07	  -5.44296	-0.00919749	
  -5.51494	-3.51065e-06	  -5.50318	3.86637e-06	  -5.51303	-6.80853e-06	  -5.51038	-2.15094e-06	  -5.51038	-0.0537734	
  -5.58236	-5.34296e-06	  -5.57045	2.18099e-06	  -5.57997	-8.49923e-06	  -5.57759	-3.88707e-06	  -5.57759	-0.0971767	
  -5.64957	-7.07885e-06	  -5.63744	4.74623e-07	  -5.64662	-1.02586e-05	  -5.64454	-5.62095e-06	  -5.64454	 -0.140524	
  -5.71675	-8.83431e-06	   -5.7042	-1.27629e-06	  -5.71303	-1.20855e-05	  -5.71133	-7.39871e-06	  -5.71133	 -0.184968	
  -5.78368	-1.07046e-05	  -5.77078	-3.07306e-06	  -5.77924	-1.39233e-05	   -5.7779	-9.23365e-06	   -5.7779	 -0.230841	
  -5.85013	-1.27121e-05	  -5.83696	-4.89409e-06	  -5.84505	-1.57173e-05	  -5.84405	-1.11078e-05	  -5.84405	 -0.277696	
  -5.91643	-1.47977e-05	  -5.90309	-6.71044e-06	  -5.91065	-1.74231e-05	  -5.91006	-1.29771e-05	  -5.91006	 -0.324427	
  -5.98252	-1.6851e-05	  -5.96905	-8.50266e-06	   -5.9761	-1.90633e-05	  -5.97589	-1.48056e-05	  -5.97589	 -0.370141	
  -6.04815	-1.87922e-05	  -6.03463	-1.02704e-05	  -6.04132	-2.06813e-05	  -6.04137	-1.65813e-05	  -6.04137	 -0.414532	
  -6.11355	-2.06106e-05	  -6.10003	-1.2027e-05	  -6.10607	-2.23373e-05	  -6.10655	-1.8325e-05	  -6.10655	 -0.458124	
  -6.17878	-2.23733e-05	  -6.16531	-1.37976e-05	  -6.17073	-2.40721e-05	   -6.1716	-2.0081e-05	   -6.1716	 -0.502024	
  -6.24373	-2.41712e-05	  -6.23037	-1.56009e-05	  -6.23506	-2.5864e-05	  -6.23639	-2.18787e-05	  -6.23639	 -0.546968	
  -6.30821	-2.60711e-05	  -6.29527	-1.74387e-05	  -6.29912	-2.76721e-05	  -6.30087	-2.37273e-05	  -6.30087	 -0.593182	
  -6.37257	-2.80859e-05	  -6.36006	-1.92915e-05	  -6.36298	-2.94316e-05	   -6.3652	-2.5603e-05	   -6.3652	 -0.640075	
  -6.43657	-3.01585e-05	  -6.42451	-2.11393e-05	  -6.42657	-3.11126e-05	  -6.42922	-2.74701e-05	  -6.42922	 -0.686753	
   -6.5003	-3.2194e-05	  -6.48856	-2.29652e-05	  -6.48995	-3.27384e-05	  -6.49294	-2.92992e-05	  -6.49294	  -0.73248	
  -6.56396	-3.413e-05	  -6.55242	-2.47597e-05	  -6.55331	-3.43493e-05	  -6.55657	-3.10797e-05	  -6.55657	 -0.776991	
  -6.62732	-3.59456e-05	  -6.61602	-2.65375e-05	  -6.61644	-3.60034e-05	  -6.61992	-3.28288e-05	  -6.61992	 -0.820721	
  -6.69018	-3.76847e-05	  -6.67913	-2.83223e-05	  -6.67925	-3.77324e-05	  -6.68285	-3.45798e-05	  -6.68285	 -0.864495	
  -6.75303	-3.94208e-05	  -6.74227	-3.01434e-05	  -6.74182	-3.95228e-05	  -6.74571	-3.63623e-05	  -6.74571	 -0.909059	
  -6.81566	-4.12197e-05	  -6.80519	-3.20154e-05	  -6.80423	-4.13303e-05	  -6.80836	-3.81885e-05	  -6.80836	 -0.954712	
  -6.87784	-4.3111e-05	   -6.8677	-3.39256e-05	  -6.86638	-4.30925e-05	  -6.87064	-4.0043e-05	  -6.87064	  -1.00108	
  -6.93954	-4.50758e-05	  -6.92986	-3.58415e-05	  -6.92809	-4.47869e-05	   -6.9325	-4.19014e-05	   -6.9325	  -1.04754	
  -7.00112	-4.70575e-05	  -6.99176	-3.77196e-05	  -6.98957	-4.64317e-05	  -6.99415	-4.37363e-05	  -6.99415	  -1.09341	
  -7.06236	-4.89933e-05	  -7.05334	-3.95383e-05	  -7.05075	-4.8099e-05	  -7.05548	-4.55435e-05	  -7.05548	  -1.13859	
  -7.12334	-5.0858e-05	   -7.1144	-4.1305e-05	  -7.11172	-4.98315e-05	  -7.11649	-4.73315e-05	  -7.11649	  -1.18329	
  -7.18413	-5.26606e-05	   -7.1753	-4.30656e-05	  -7.17255	-5.16242e-05	  -7.17733	-4.91168e-05	  -7.17733	  -1.22792	
  -7.24468	-5.44392e-05	  -7.23598	-4.4871e-05	  -7.23315	-5.34241e-05	  -7.23794	-5.09114e-05	  -7.23794	  -1.27279	
  -7.30491	-5.62397e-05	  -7.29623	-4.67272e-05	  -7.29388	-5.51788e-05	  -7.29834	-5.27152e-05	  -7.29834	  -1.31788	
  -7.36491	-5.80859e-05	  -7.35615	-4.86176e-05	  -7.35464	-5.68669e-05	  -7.35857	-5.45235e-05	  -7.35857	  -1.36309	
  -7.42475	-5.99718e-05	  -7.41596	-5.04858e-05	  -7.41495	-5.851e-05	  -7.41855	-5.63226e-05	  -7.41855	  -1.40806	
  -7.48424	-6.18641e-05	  -7.47545	-5.23011e-05	  -7.47475	-6.01583e-05	  -7.47814	-5.81078e-05	  -7.47814	   -1.4527	
  -7.54318	-6.37311e-05	  -7.53456	-5.40546e-05	  -7.53386	-6.18492e-05	   -7.5372	-5.98783e-05	   -7.5372	  -1.49696	
   -7.6021	-6.55586e-05	  -7.59326	-5.57766e-05	  -7.59283	-6.35789e-05	  -7.59606	-6.1638e-05	  -7.59606	  -1.54095	
  -7.66077	-6.73626e-05	  -7.65178	-5.7518e-05	  -7.65104	-6.53222e-05	  -7.65453	-6.34009e-05	  -7.65453	  -1.58502	
  -7.71902	-6.91753e-05	  -7.70992	-5.93274e-05	  -7.70915	-6.70498e-05	   -7.7127	-6.51842e-05	   -7.7127	   -1.6296	
   -7.7768	-7.1017e-05	   -7.7675	-6.11909e-05	  -7.76698	-6.87707e-05	  -7.77043	-6.69928e-05	  -7.77043	  -1.67482	
  -7.83435	-7.28814e-05	   -7.8249	-6.30512e-05	   -7.8246	-7.04998e-05	  -7.82795	-6.88108e-05	  -7.82795	  -1.72027	
  -7.89162	-7.47202e-05	  -7.88208	-6.48274e-05	  -7.88115	-7.22713e-05	  -7.88495	-7.06063e-05	  -7.88495	  -1.76516	
  -7.94857	-7.65134e-05	  -7.93885	-6.64855e-05	  -7.93773	-7.40771e-05	  -7.94172	-7.23587e-05	  -7.94172	  -1.80897	
  -8.00515	-7.82623e-05	  -7.99516	-6.80592e-05	  -7.99333	-7.58757e-05	  -7.99788	-7.40657e-05	  -7.99788	  -1.85164	
  -8.06159	-8.00192e-05	  -8.05126	-6.96363e-05	  -8.04946	-7.76212e-05	   -8.0541	-7.57589e-05	   -8.0541	  -1.89397	
   -8.1177	-8.18332e-05	  -8.10711	-7.13098e-05	  -8.10451	-7.93061e-05	  -8.10977	-7.7483e-05	  -8.10977	  -1.93708	
  -8.17345	-8.37114e-05	  -8.16252	-7.31051e-05	  -8.16014	-8.09582e-05	  -8.16537	-7.92582e-05	  -8.16537	  -1.98146	
   -8.2288	-8.56374e-05	  -8.21761	-7.49815e-05	  -8.21489	-8.26114e-05	  -8.22043	-8.10768e-05	  -8.22043	  -2.02692	
  -8.28399	-8.75357e-05	  -8.27246	-7.68398e-05	  -8.26957	-8.43215e-05	  -8.27534	-8.2899e-05	  -8.27534	  -2.07248	
  -8.33884	-8.93601e-05	  -8.32705	-7.85778e-05	  -8.32332	-8.60885e-05	  -8.32974	-8.46755e-05	  -8.32974	  -2.11689	
  -8.39318	-9.10919e-05	   -8.3812	-8.01597e-05	  -8.37738	-8.7882e-05	  -8.38392	-8.63779e-05	  -8.38392	  -2.15945	
  -8.44712	-9.27764e-05	  -8.43475	-8.16555e-05	  -8.43085	-8.96551e-05	  -8.43758	-8.8029e-05	  -8.43758	  -2.20073	
  -8.50079	-9.44804e-05	  -8.48824	-8.31746e-05	  -8.48428	-9.1371e-05	   -8.4911	-8.96753e-05	   -8.4911	  -2.24188	
  -8.55414	-9.62463e-05	  -8.54147	-8.48271e-05	  -8.53733	-9.30378e-05	  -8.54431	-9.13704e-05	  -8.54431	  -2.28426	
  -8.60701	-9.80919e-05	  -8.59429	-8.66309e-05	  -8.59024	-9.46824e-05	  -8.59718	-9.31351e-05	  -8.59718	  -2.32838	
  -8.65952	-9.9975e-05	  -8.64667	-8.85181e-05	  -8.64245	-9.63389e-05	  -8.64955	-9.4944e-05	  -8.64955	   -2.3736	
  -8.71193	-0.000101836	  -8.69873	-9.03659e-05	  -8.69449	-9.80335e-05	  -8.70172	-9.6745e-05	  -8.70172	  -2.41863	
  -8.76404	-0.000103631	  -8.75059	-9.20727e-05	  -8.74605	-9.976e-05	  -8.75356	-9.84881e-05	  -8.75356	   -2.4622	
  -8.81571	-0.000105348	  -8.80207	-9.3626e-05	  -8.79755	-0.000101496	  -8.80511	-0.000100157	  -8.80511	  -2.50392	
  -8.86691	-0.00010702	  -8.85315	-9.50937e-05	  -8.84865	-0.000103215	  -8.85624	-0.000101776	  -8.85624	  -2.54441	
  -8.91791	-0.000108702	  -8.90396	-9.65954e-05	  -8.89962	-0.000104906	  -8.90716	-0.000103401	  -8.90716	  -2.58503	
  -8.96867	-0.000110435	  -8.95461	-9.82196e-05	  -8.95015	-0.000106575	  -8.95781	-0.000105076	  -8.95781	  -2.62691	
  -9.01904	-0.000112238	  -9.00493	-9.99747e-05	  -9.00036	-0.000108239	  -9.00811	-0.000106817	  -9.00811	  -2.67043	
    -9.069	-0.000114075	  -9.05476	-0.0001018	   -9.0501	-0.000109914	  -9.05795	-0.000108596	  -9.05795	  -2.71491	
  -9.11868	-0.000115898	  -9.10397	-0.000103567	  -9.09978	-0.000111602	  -9.10748	-0.000110356	  -9.10748	  -2.75889	
  -9.16819	-0.000117662	  -9.15311	-0.000105199	  -9.14894	-0.00011329	  -9.15675	-0.00011205	  -9.15675	  -2.80126	
  -9.21738	-0.000119353	  -9.20188	-0.000106701	  -9.19787	-0.000114959	  -9.20571	-0.000113671	  -9.20571	  -2.84178	
  -9.26609	-0.000121001	  -9.25026	-0.000108163	  -9.24641	-0.000116609	  -9.25425	-0.000115258	  -9.25425	  -2.88144	
  -9.31431	-0.000122649	  -9.29812	-0.000109689	  -9.29455	-0.000118244	  -9.30233	-0.00011686	  -9.30233	  -2.92151	
   -9.3622	-0.000124338	  -9.34546	-0.000111357	  -9.34201	-0.000119879	  -9.34989	-0.000118525	  -9.34989	  -2.96311	
  -9.40988	-0.000126078	   -9.3927	-0.000113161	  -9.38937	-0.000121531	  -9.39732	-0.000120257	  -9.39732	  -3.00642	
   -9.4572	-0.000127852	  -9.43969	-0.000114999	  -9.43646	-0.000123193	  -9.44445	-0.000122015	  -9.44445	  -3.05037	
  -9.50401	-0.000129635	  -9.48626	-0.000116749	  -9.48313	-0.000124852	  -9.49113	-0.000123745	  -9.49113	  -3.09363	
  -9.55019	-0.000131385	  -9.53229	-0.000118325	  -9.52926	-0.000126485	  -9.53724	-0.000125398	  -9.53724	  -3.13496	
  -9.59603	-0.000133072	  -9.57793	-0.000119747	  -9.57525	-0.000128092	  -9.58307	-0.00012697	  -9.58307	  -3.17425	
   -9.6414	-0.000134683	  -9.62346	-0.000121117	  -9.62097	-0.000129679	  -9.62861	-0.000128493	  -9.62861	  -3.21233	
  -9.68645	-0.000136245	  -9.66872	-0.000122556	  -9.66641	-0.000131261	  -9.67386	-0.000130021	  -9.67386	  -3.25051	
  -9.73104	-0.000137801	  -9.71358	-0.000124142	  -9.71142	-0.000132853	  -9.71868	-0.000131599	  -9.71868	  -3.28996	
  -9.77505	-0.000139385	  -9.75803	-0.000125863	  -9.75588	-0.000134449	  -9.76299	-0.000133232	  -9.76299	  -3.33081	
  -9.81878	-0.000141026	  -9.80196	-0.00012763	  -9.79995	-0.000136037	   -9.8069	-0.000134897	   -9.8069	  -3.37244	
  -9.86236	-0.000142715	  -9.84565	-0.000129328	  -9.84363	-0.000137601	  -9.85055	-0.000136548	  -9.85055	   -3.4137	
  -9.90566	-0.000144419	  -9.88911	-0.00013088	  -9.88708	-0.000139134	  -9.89395	-0.000138144	  -9.89395	   -3.4536	
  -9.94853	-0.000146099	   -9.9322	-0.000132296	  -9.93015	-0.00014064	  -9.93696	-0.000139678	  -9.93696	  -3.49195	
  -9.99086	-0.000147718	  -9.97479	-0.000133652	  -9.97272	-0.000142133	  -9.97946	-0.000141168	  -9.97946	  -3.52919	
  -10.0328	-0.000149276	  -10.0169	-0.000135055	  -10.0147	-0.000143629	  -10.0215	-0.000142653	  -10.0215	  -3.56634	
  -10.0743	-0.0001508	  -10.0586	-0.000136575	   -10.056	-0.00014513	  -10.0629	-0.000144168	  -10.0629	  -3.60421	
  -10.1155	-0.000152326	  -10.1001	-0.000138199	  -10.0971	-0.000146625	  -10.1042	-0.000145717	  -10.1042	  -3.64292	
  -10.1565	-0.000153885	  -10.1413	-0.000139853	   -10.138	-0.000148102	  -10.1453	-0.00014728	  -10.1453	    -3.682	
   -10.197	-0.000155478	  -10.1822	-0.000141437	  -10.1785	-0.000149552	  -10.1859	-0.000148822	  -10.1859	  -3.72055	
  -10.2369	-0.000157077	  -10.2225	-0.000142886	  -10.2185	-0.000150976	   -10.226	-0.000150313	   -10.226	  -3.75782	
  -10.2765	-0.00015865	  -10.2621	-0.000144214	  -10.2581	-0.000152379	  -10.2656	-0.000151748	  -10.2656	  -3.79369	
  -10.3157	-0.000160164	  -10.3014	-0.000145494	  -10.2973	-0.000153761	  -10.3048	-0.00015314	  -10.3048	  -3.82849	
  -10.3545	-0.000161625	  -10.3402	-0.000146816	  -10.3362	-0.000155128	  -10.3436	-0.000154523	  -10.3436	  -3.86307	
  -10.3931	-0.000163053	  -10.3788	-0.000148243	  -10.3746	-0.000156483	  -10.3822	-0.000155927	  -10.3822	  -3.89816	
  -10.4313	-0.00016448	   -10.417	-0.000149765	  -10.4128	-0.000157846	  -10.4203	-0.000157364	  -10.4203	  -3.93409	
  -10.4689	-0.000165929	  -10.4547	-0.000151315	  -10.4504	-0.000159228	   -10.458	-0.000158824	   -10.458	   -3.9706	
  -10.5059	-0.0001674	   -10.492	-0.000152805	  -10.4876	-0.000160617	  -10.4952	-0.000160274	  -10.4952	  -4.00685	
  -10.5426	-0.000168875	  -10.5288	-0.000154179	   -10.524	-0.000161989	  -10.5318	-0.000161681	  -10.5318	  -4.04202	
  -10.5791	-0.000170325	  -10.5651	-0.000155443	  -10.5601	-0.000163314	  -10.5681	-0.000163027	  -10.5681	  -4.07568	
  -10.6152	-0.000171725	  -10.6011	-0.000156666	  -10.5958	-0.000164574	  -10.6041	-0.000164322	  -10.6041	  -4.10804	
   -10.651	-0.000173075	  -10.6369	-0.000157936	  -10.6312	-0.000165776	  -10.6397	-0.000165596	  -10.6397	  -4.13989	
  -10.6864	-0.000174395	  -10.6721	-0.000159302	  -10.6663	-0.000166968	  -10.6749	-0.000166888	  -10.6749	  -4.17221	
  -10.7212	-0.000175716	  -10.7069	-0.000160747	  -10.7009	-0.000168203	  -10.7096	-0.000168222	  -10.7096	  -4.20555	
  -10.7554	-0.00017706	  -10.7411	-0.000162194	   -10.735	-0.000169523	  -10.7438	-0.000169592	  -10.7438	  -4.23981	
  -10.7891	-0.000178431	  -10.7747	-0.00016356	  -10.7686	-0.000170909	  -10.7775	-0.000170967	  -10.7775	  -4.27417	
  -10.8223	-0.000179814	  -10.8079	-0.000164758	  -10.8016	-0.000172301	  -10.8106	-0.000172291	  -10.8106	  -4.30728	
  -10.8552	-0.000181181	  -10.8403	-0.000165849	  -10.8342	-0.000173634	  -10.8433	-0.000173555	  -10.8433	  -4.33887	
  -10.8879	-0.000182517	  -10.8725	-0.000166938	  -10.8664	-0.000174868	  -10.8756	-0.000174774	  -10.8756	  -4.36936	
  -10.9202	-0.000183823	  -10.9044	-0.000168174	  -10.8983	-0.000176023	  -10.9076	-0.000176007	  -10.9076	  -4.40017	
  -10.9521	-0.00018511	  -10.9347	-0.000169607	  -10.9298	-0.000177154	  -10.9389	-0.000177291	  -10.9389	  -4.43226	
  -10.9835	-0.000186396	  -10.9646	-0.00017118	  -10.9609	-0.000178334	  -10.9697	-0.000178637	  -10.9697	  -4.46592	
  -11.0143	-0.00018766	  -10.9932	-0.000172764	  -10.9916	-0.000179606	  -10.9997	-0.00018001	  -10.9997	  -4.50025	
  -11.0445	-0.000188916	  -11.0225	-0.000174188	  -11.0217	-0.000180964	  -11.0295	-0.000181356	  -11.0295	   -4.5339	
  -11.0739	-0.000190181	  -11.0512	-0.000175393	  -11.0511	-0.000182351	  -11.0588	-0.000182642	  -11.0588	  -4.56604	
  -11.1028	-0.000191496	  -11.0805	-0.000176419	  -11.0802	-0.000183688	  -11.0878	-0.000183868	  -11.0878	  -4.59669	
  -11.1303	-0.000192885	  -11.1098	-0.000177409	   -11.109	-0.000184918	  -11.1164	-0.000185071	  -11.1164	  -4.62677	
  -11.1573	-0.000194327	  -11.1393	-0.000178513	  -11.1373	-0.000186037	  -11.1447	-0.000186292	  -11.1447	   -4.6573	
  -11.1833	-0.000195783	   -11.168	-0.0001798	  -11.1653	-0.000187096	  -11.1722	-0.00018756	  -11.1722	  -4.68899	
    -11.21	-0.000197183	  -11.1963	-0.000181244	   -11.193	-0.000188174	  -11.1998	-0.000188867	  -11.1998	  -4.72168	
  -11.2361	-0.000198478	  -11.2238	-0.000182718	  -11.2204	-0.000189335	  -11.2268	-0.000190177	  -11.2268	  -4.75442	
  -11.2628	-0.00019966	   -11.251	-0.000184093	  -11.2474	-0.000190592	  -11.2537	-0.000191448	  -11.2537	   -4.7862	
  -11.2894	-0.000200778	  -11.2772	-0.000185296	  -11.2739	-0.000191902	  -11.2802	-0.000192659	  -11.2802	  -4.81646	
  -11.3161	-0.000201906	  -11.3033	-0.000186353	  -11.2998	-0.000193189	  -11.3064	-0.000193816	  -11.3064	   -4.8454	
  -11.3421	-0.000203111	  -11.3287	-0.000187365	  -11.3252	-0.000194389	   -11.332	-0.000194955	   -11.332	  -4.87387	
  -11.3677	-0.000204424	   -11.354	-0.000188448	  -11.3502	-0.000195485	  -11.3573	-0.000196119	  -11.3573	  -4.90297	
  -11.3926	-0.000205824	  -11.3787	-0.000189674	  -11.3745	-0.000196514	  -11.3819	-0.000197337	  -11.3819	  -4.93343	
  -11.4166	-0.000207241	  -11.4032	-0.000191023	  -11.3986	-0.000197547	  -11.4061	-0.000198604	  -11.4061	  -4.96509	
  -11.4398	-0.000208599	   -11.427	-0.000192393	  -11.4221	-0.000198644	  -11.4296	-0.000199879	  -11.4296	  -4.99697	
  -11.4629	-0.000209838	  -11.4505	-0.000193672	  -11.4453	-0.000199825	  -11.4529	-0.000201112	  -11.4529	   -5.0278	
  -11.4853	-0.000210933	  -11.4734	-0.000194807	  -11.4681	-0.000201051	  -11.4756	-0.000202264	  -11.4756	   -5.0566	
  -11.5074	-0.000211965	  -11.4959	-0.000195818	  -11.4906	-0.000202254	   -11.498	-0.000203346	   -11.498	  -5.08365	
  -11.5292	-0.000213034	   -11.518	-0.000196802	  -11.5128	-0.000203385	    -11.52	-0.000204407	    -11.52	  -5.11018	
  -11.5506	-0.000214238	  -11.5399	-0.000197855	  -11.5347	-0.000204425	  -11.5417	-0.000205506	  -11.5417	  -5.13766	
  -11.5716	-0.000215573	  -11.5613	-0.000199032	  -11.5562	-0.000205419	   -11.563	-0.000206674	   -11.563	  -5.16686	
  -11.5922	-0.000216943	  -11.5822	-0.000200304	  -11.5772	-0.000206423	  -11.5839	-0.00020789	  -11.5839	  -5.19724	
  -11.6122	-0.000218231	  -11.6027	-0.000201588	  -11.5977	-0.000207478	  -11.6042	-0.000209099	  -11.6042	  -5.22748	
  -11.6318	-0.000219348	  -11.6226	-0.000202792	  -11.6177	-0.000208591	   -11.624	-0.000210244	   -11.624	  -5.25609	
  -11.6508	-0.00022031	   -11.642	-0.000203867	  -11.6372	-0.000209726	  -11.6433	-0.000211301	  -11.6433	  -5.28253	
  -11.6692	-0.000221241	  -11.6608	-0.000204831	  -11.6561	-0.000210851	   -11.662	-0.000212308	   -11.662	  -5.30769	
   -11.687	-0.000222261	  -11.6791	-0.000205765	  -11.6744	-0.000211942	  -11.6802	-0.000213322	  -11.6802	  -5.33306	
  -11.7042	-0.000223437	  -11.6967	-0.000206754	  -11.6921	-0.000212984	  -11.6977	-0.000214392	  -11.6977	  -5.35979	
  -11.7208	-0.000224712	  -11.7137	-0.000207841	  -11.7092	-0.000213985	  -11.7146	-0.000215513	  -11.7146	  -5.38782	
   -11.737	-0.00022597	  -11.7302	-0.000209003	  -11.7257	-0.000214949	   -11.731	-0.000216641	   -11.731	  -5.41602	
  -11.7531	-0.000227112	  -11.7461	-0.000210168	  -11.7415	-0.000215877	  -11.7469	-0.000217719	  -11.7469	  -5.44297	
  -11.7684	-0.000228091	  -11.7613	-0.00021126	  -11.7567	-0.000216756	  -11.7621	-0.000218702	  -11.7621	  -5.46756	
  -11.7833	-0.000228978	   -11.776	-0.000212246	  -11.7712	-0.00021759	  -11.7768	-0.000219605	  -11.7768	  -5.49012	
  -11.7977	-0.00022986	  -11.7901	-0.000213151	  -11.7853	-0.000218398	   -11.791	-0.00022047	   -11.791	  -5.51174	
  -11.8117	-0.000230809	  -11.8037	-0.000214038	  -11.7987	-0.000219229	  -11.8047	-0.000221359	  -11.8047	  -5.53397	
  -11.8254	-0.000231859	  -11.8167	-0.000214972	  -11.8114	-0.000220141	  -11.8179	-0.000222324	  -11.8179	   -5.5581	
  -11.8387	-0.000232954	  -11.8294	-0.000215984	  -11.8236	-0.000221164	  -11.8305	-0.000223367	  -11.8305	  -5.58417	
  -11.8516	-0.000234034	  -11.8413	-0.000217054	  -11.8351	-0.000222274	  -11.8427	-0.000224454	  -11.8427	  -5.61136	
  -11.8641	-0.000235034	  -11.8527	-0.000218122	   -11.846	-0.000223383	  -11.8543	-0.000225513	  -11.8543	  -5.63783	
  -11.8762	-0.000235935	  -11.8637	-0.000219127	  -11.8563	-0.000224383	  -11.8654	-0.000226482	  -11.8654	  -5.66204	
   -11.888	-0.000236782	  -11.8743	-0.000220037	  -11.8663	-0.000225196	  -11.8762	-0.000227338	  -11.8762	  -5.68346	
  -11.8996	-0.000237618	  -11.8845	-0.000220876	  -11.8764	-0.000225835	  -11.8868	-0.00022811	  -11.8868	  -5.70274	
  -11.9106	-0.000238503	  -11.8945	-0.000221707	  -11.8865	-0.000226389	  -11.8972	-0.000228866	  -11.8972	  -5.72166	
  -11.9211	-0.000239449	   -11.904	-0.000222584	  -11.8966	-0.000226996	  -11.9072	-0.000229677	  -11.9072	  -5.74192	
  -11.9314	-0.000240432	   -11.913	-0.00022353	  -11.9064	-0.000227771	   -11.917	-0.000230578	   -11.917	  -5.76445	
  -11.9414	-0.000241405	  -11.9216	-0.000224517	  -11.9157	-0.000228727	  -11.9262	-0.00023155	  -11.9262	  -5.78874	
   -11.951	-0.000242306	  -11.9297	-0.00022549	  -11.9243	-0.000229779	   -11.935	-0.000232525	   -11.935	  -5.81312	
  -11.9602	-0.000243122	  -11.9373	-0.0002264	  -11.9323	-0.000230777	  -11.9433	-0.000233433	  -11.9433	  -5.83583	
  -11.9687	-0.000243867	  -11.9447	-0.000227229	  -11.9396	-0.000231595	   -11.951	-0.00023423	   -11.951	  -5.85575	
  -11.9769	-0.000244591	  -11.9516	-0.000227999	  -11.9463	-0.00023221	  -11.9583	-0.000234934	  -11.9583	  -5.87334	
  -11.9847	-0.000245351	  -11.9581	-0.000228756	  -11.9527	-0.000232703	  -11.9651	-0.000235603	  -11.9651	  -5.89008	
  -11.9922	-0.000246164	  -11.9641	-0.000229545	  -11.9587	-0.000233231	  -11.9716	-0.000236313	  -11.9716	  -5.90783	
  -11.9991	-0.000247012	  -11.9698	-0.00023039	  -11.9644	-0.000233913	  -11.9778	-0.000237105	  -11.9778	  -5.92762	
  -12.0053	-0.000247844	   -11.975	-0.000231281	  -11.9697	-0.000234739	  -11.9833	-0.000237954	  -11.9833	  -5.94886	
  -12.0108	-0.000248614	    -11.98	-0.000232168	  -11.9744	-0.00023564	  -11.9884	-0.000238807	  -11.9884	  -5.97018	
  -12.0157	-0.000249304	  -11.9843	-0.000233009	  -11.9785	-0.00023648	  -11.9928	-0.000239598	  -11.9928	  -5.98994	
  -12.0199	-0.000249934	  -11.9882	-0.00023377	  -11.9822	-0.00023719	  -11.9967	-0.000240298	  -11.9967	  -6.00744	
  -12.0236	-0.000250552	  -11.9915	-0.000234464	  -11.9854	-0.000237761	  -12.0001	-0.000240926	  -12.0001	  -6.02315	
  -12.0266	-0.000251202	  -11.9944	-0.000235121	  -11.9881	-0.000238281	   -12.003	-0.000241534	   -12.003	  -6.03836	
  -12.0291	-0.000251895	  -11.9968	-0.000235787	  -11.9904	-0.000238865	  -12.0054	-0.000242182	  -12.0054	  -6.05456	
  -12.0311	-0.000252612	  -11.9988	-0.000236492	  -11.9924	-0.000239566	  -12.0074	-0.00024289	  -12.0074	  -6.07225	
  -12.0325	-0.000253312	  -12.0004	-0.000237232	  -11.9939	-0.00024037	   -12.009	-0.000243638	   -12.009	  -6.09095	
  -12.0335	-0.000253961	  -12.0017	-0.000237988	  -11.9951	-0.000241173	  -12.0101	-0.000244374	  -12.0101	  -6.10935	
   -12.034	-0.000254555	  -12.0027	-0.000238709	  -11.9961	-0.000241867	  -12.0109	-0.000245044	  -12.0109	  -6.12609	
  -12.0342	-0.000255124	  -12.0033	-0.000239382	  -11.9967	-0.000242407	  -12.0114	-0.000245638	  -12.0114	  -6.14095	
   -12.034	-0.000255698	  -12.0036	-0.00024002	   -11.997	-0.000242823	  -12.0116	-0.00024618	  -12.0116	  -6.15451	
  -12.0335	-0.000256294	  -12.0037	-0.000240669	  -11.9972	-0.000243218	  -12.0115	-0.000246727	  -12.0115	  -6.16818	
  -12.0325	-0.0002569	  -12.0034	-0.000241347	  -11.9969	-0.000243692	   -12.011	-0.000247313	   -12.011	  -6.18283	
  -12.0313	-0.000257498	  -12.0028	-0.000242047	  -11.9963	-0.000244289	  -12.0101	-0.000247945	  -12.0101	  -6.19861	
  -12.0293	-0.000258066	  -12.0019	-0.000242713	  -11.9953	-0.000244979	  -12.0088	-0.000248586	  -12.0088	  -6.21465	
  -12.0272	-0.000258595	  -12.0002	-0.000243289	  -11.9937	-0.000245664	   -12.007	-0.000249182	   -12.007	  -6.22956	
  -12.0243	-0.0002591	  -11.9981	-0.000243749	  -11.9915	-0.000246251	  -12.0047	-0.0002497	  -12.0047	  -6.24249	
  -12.0211	-0.000259606	  -11.9954	-0.000244156	  -11.9887	-0.000246697	  -12.0017	-0.000250153	  -12.0017	  -6.25382	
  -12.0174	-0.000260128	  -11.9921	-0.000244574	  -11.9853	-0.000247041	  -11.9982	-0.000250581	  -11.9982	  -6.26452	
  -12.0131	-0.000260675	  -11.9881	-0.000245089	  -11.9814	-0.000247373	  -11.9942	-0.000251045	  -11.9942	  -6.27613	
  -12.0083	-0.000261234	  -11.9837	-0.000245714	  -11.9769	-0.000247787	  -11.9896	-0.000251578	  -11.9896	  -6.28945	
  -12.0029	-0.000261789	  -11.9787	-0.000246399	   -11.972	-0.000248311	  -11.9845	-0.000252166	  -11.9845	  -6.30416	
   -11.997	-0.000262326	  -11.9734	-0.000247038	  -11.9668	-0.000248906	  -11.9791	-0.000252757	  -11.9791	  -6.31891	
  -11.9908	-0.00026283	  -11.9677	-0.000247545	  -11.9611	-0.000249477	  -11.9732	-0.000253284	  -11.9732	   -6.3321	
  -11.9842	-0.000263309	  -11.9616	-0.000247913	  -11.9551	-0.000249941	   -11.967	-0.000253721	   -11.967	  -6.34302	
  -11.9774	-0.000263767	  -11.9552	-0.000248198	  -11.9486	-0.000250273	  -11.9604	-0.000254079	  -11.9604	  -6.35198	
  -11.9703	-0.000264225	  -11.9481	-0.000248509	  -11.9415	-0.00025052	  -11.9533	-0.000254418	  -11.9533	  -6.36045	
  -11.9627	-0.000264706	  -11.9405	-0.000248922	  -11.9337	-0.000250771	  -11.9456	-0.0002548	  -11.9456	     -6.37	
  -11.9545	-0.000265211	  -11.9322	-0.000249448	  -11.9252	-0.000251103	  -11.9373	-0.000255254	  -11.9373	  -6.38135	
  -11.9456	-0.000265733	  -11.9232	-0.000250022	  -11.9162	-0.000251535	  -11.9283	-0.000255764	  -11.9283	  -6.39409	
  -11.9362	-0.000266249	  -11.9137	-0.000250555	  -11.9066	-0.000252022	  -11.9188	-0.000256275	  -11.9188	  -6.40688	
  -11.9261	-0.000266737	  -11.9037	-0.000250986	  -11.8965	-0.000252482	  -11.9088	-0.000256735	  -11.9088	  -6.41837	
  -11.9157	-0.000267189	  -11.8934	-0.000251301	  -11.8861	-0.000252841	  -11.8984	-0.000257111	  -11.8984	  -6.42777	
  -11.9048	-0.000267615	  -11.8827	-0.000251539	  -11.8754	-0.000253088	  -11.8876	-0.000257414	  -11.8876	  -6.43535	
  -11.8936	-0.000268039	  -11.8716	-0.000251766	  -11.8644	-0.000253265	  -11.8765	-0.00025769	  -11.8765	  -6.44225	
  -11.8819	-0.000268483	    -11.86	-0.00025205	  -11.8531	-0.000253451	   -11.865	-0.000257995	   -11.865	  -6.44987	
    -11.87	-0.000268955	  -11.8477	-0.000252419	  -11.8412	-0.000253708	   -11.853	-0.000258361	   -11.853	  -6.45902	
  -11.8574	-0.000269442	  -11.8347	-0.00025285	  -11.8287	-0.000254051	  -11.8403	-0.000258781	  -11.8403	  -6.46952	
  -11.8444	-0.000269924	  -11.8212	-0.000253286	  -11.8155	-0.000254439	   -11.827	-0.000259216	   -11.827	  -6.48041	
  -11.8307	-0.000270382	  -11.8072	-0.000253658	  -11.8019	-0.000254805	  -11.8133	-0.000259615	  -11.8133	  -6.49038	
  -11.8165	-0.000270807	  -11.7929	-0.000253929	  -11.7878	-0.000255101	  -11.7991	-0.000259946	  -11.7991	  -6.49864	
  -11.8019	-0.000271228	  -11.7782	-0.000254117	  -11.7735	-0.000255315	  -11.7846	-0.00026022	  -11.7846	   -6.5055	
  -11.7869	-0.000271653	  -11.7631	-0.000254298	  -11.7588	-0.000255483	  -11.7696	-0.000260478	  -11.7696	  -6.51195	
  -11.7717	-0.000272078	  -11.7474	-0.000254544	  -11.7436	-0.000255661	  -11.7542	-0.000260761	  -11.7542	  -6.51902	
   -11.756	-0.000272477	  -11.7313	-0.000254896	  -11.7277	-0.000255897	  -11.7384	-0.00026109	  -11.7384	  -6.52725	
  -11.7396	-0.000272837	  -11.7146	-0.000255321	  -11.7112	-0.000256196	  -11.7218	-0.000261451	  -11.7218	  -6.53628	
  -11.7226	-0.000273164	  -11.6974	-0.000255741	  -11.6942	-0.000256523	  -11.7048	-0.00026181	  -11.7048	  -6.54524	
  -11.7051	-0.000273477	  -11.6798	-0.000256075	  -11.6768	-0.000256826	  -11.6873	-0.000262126	  -11.6873	  -6.55315	
  -11.6872	-0.000273807	   -11.662	-0.000256306	   -11.659	-0.000257065	  -11.6694	-0.000262393	  -11.6694	  -6.55982	
   -11.669	-0.000274171	  -11.6437	-0.000256473	  -11.6408	-0.000257246	  -11.6512	-0.00026263	  -11.6512	  -6.56575	
  -11.6505	-0.00027456	  -11.6251	-0.000256646	  -11.6222	-0.000257407	  -11.6326	-0.000262871	  -11.6326	  -6.57178	
  -11.6313	-0.000274953	  -11.6059	-0.000256896	   -11.603	-0.0002576	  -11.6134	-0.00026315	  -11.6134	  -6.57874	
  -11.6114	-0.000275331	   -11.586	-0.000257232	  -11.5833	-0.000257856	  -11.5936	-0.000263473	  -11.5936	  -6.58683	
   -11.591	-0.000275667	  -11.5657	-0.000257616	  -11.5631	-0.000258149	  -11.5733	-0.000263811	  -11.5733	  -6.59527	
  -11.5702	-0.000275956	  -11.5449	-0.000257975	  -11.5426	-0.000258452	  -11.5526	-0.000264128	  -11.5526	  -6.60319	
  -11.5489	-0.000276194	   -11.524	-0.000258254	  -11.5217	-0.000258724	  -11.5315	-0.000264391	  -11.5315	  -6.60976	
  -11.5274	-0.00027641	  -11.5024	-0.000258447	  -11.5003	-0.000258965	  -11.5101	-0.000264607	  -11.5101	  -6.61518	
  -11.5053	-0.000276613	  -11.4805	-0.000258595	  -11.4783	-0.000259199	   -11.488	-0.000264802	   -11.488	  -6.62006	
  -11.4826	-0.000276827	   -11.458	-0.000258762	  -11.4558	-0.000259456	  -11.4654	-0.000265015	  -11.4654	  -6.62538	
  -11.4593	-0.000277063	  -11.4351	-0.000258998	  -11.4328	-0.000259755	  -11.4424	-0.000265272	  -11.4424	   -6.6318	
  -11.4357	-0.000277311	  -11.4118	-0.000259304	  -11.4095	-0.000260073	   -11.419	-0.000265563	   -11.419	  -6.63907	
  -11.4116	-0.000277548	  -11.3884	-0.000259645	  -11.3858	-0.000260375	  -11.3953	-0.000265856	  -11.3953	  -6.64639	
  -11.3873	-0.000277747	  -11.3643	-0.00025995	  -11.3617	-0.000260615	  -11.3711	-0.000266104	  -11.3711	   -6.6526	
  -11.3622	-0.000277904	  -11.3395	-0.000260176	  -11.3369	-0.000260779	  -11.3462	-0.000266286	  -11.3462	  -6.65715	
  -11.3366	-0.000278018	  -11.3143	-0.000260314	  -11.3116	-0.000260901	  -11.3208	-0.000266411	  -11.3208	  -6.66028	
  -11.3106	-0.000278116	  -11.2886	-0.000260398	   -11.286	-0.000261044	  -11.2951	-0.000266519	  -11.2951	  -6.66298	
  -11.2843	-0.00027822	  -11.2627	-0.000260492	  -11.2601	-0.000261264	   -11.269	-0.000266659	   -11.269	  -6.66647	
  -11.2577	-0.000278336	   -11.236	-0.000260648	  -11.2337	-0.000261562	  -11.2425	-0.000266848	  -11.2425	  -6.67121	
  -11.2306	-0.000278441	   -11.209	-0.000260873	  -11.2066	-0.000261888	  -11.2154	-0.000267067	  -11.2154	  -6.67669	
   -11.203	-0.000278505	  -11.1816	-0.000261125	   -11.179	-0.000262179	  -11.1878	-0.00026727	  -11.1878	  -6.68174	
  -11.1748	-0.00027852	  -11.1537	-0.000261359	   -11.151	-0.000262391	  -11.1598	-0.000267423	  -11.1598	  -6.68557	
  -11.1463	-0.00027851	  -11.1255	-0.000261542	  -11.1228	-0.000262523	  -11.1315	-0.000267525	  -11.1315	  -6.68813	
   -11.117	-0.000278532	  -11.0969	-0.000261651	  -11.0942	-0.000262622	  -11.1027	-0.000267601	  -11.1027	  -6.69004	
  -11.0871	-0.000278623	   -11.068	-0.000261694	   -11.065	-0.000262739	  -11.0734	-0.000267685	  -11.0734	  -6.69212	
  -11.0565	-0.000278771	  -11.0388	-0.000261695	  -11.0353	-0.0002629	  -11.0435	-0.000267789	  -11.0435	  -6.69472	
  -11.0255	-0.000278922	  -11.0099	-0.000261706	  -11.0052	-0.000263088	  -11.0135	-0.000267905	  -11.0135	  -6.69763	
  -10.9944	-0.00027899	  -10.9805	-0.000261762	  -10.9747	-0.000263266	  -10.9832	-0.000268006	  -10.9832	  -6.70015	
  -10.9632	-0.000278927	  -10.9508	-0.000261875	  -10.9439	-0.000263409	  -10.9526	-0.00026807	  -10.9526	  -6.70176	
   -10.932	-0.000278746	    -10.92	-0.000262027	  -10.9125	-0.000263505	  -10.9215	-0.000268093	  -10.9215	  -6.70233	
   -10.901	-0.00027853	  -10.8888	-0.000262158	  -10.8807	-0.000263586	  -10.8902	-0.000268091	  -10.8902	  -6.70228	
  -10.8695	-0.000278389	  -10.8569	-0.000262208	  -10.8486	-0.000263675	  -10.8583	-0.000268091	  -10.8583	  -6.70226	
  -10.8376	-0.000278369	  -10.8247	-0.000262162	  -10.8161	-0.000263793	  -10.8261	-0.000268108	  -10.8261	   -6.7027	
  -10.8049	-0.000278432	  -10.7919	-0.000262073	  -10.7831	-0.000263917	  -10.7933	-0.00026814	  -10.7933	  -6.70351	
  -10.7718	-0.000278469	   -10.759	-0.000262011	  -10.7496	-0.000264026	  -10.7601	-0.000268169	  -10.7601	  -6.70422	
  -10.7387	-0.000278399	  -10.7249	-0.000262037	  -10.7158	-0.000264101	  -10.7264	-0.000268179	  -10.7264	  -6.70447	
  -10.7052	-0.000278188	  -10.6906	-0.000262136	  -10.6817	-0.000264146	  -10.6925	-0.000268157	  -10.6925	  -6.70392	
  -10.6716	-0.000277876	  -10.6552	-0.000262243	   -10.647	-0.00026419	   -10.658	-0.000268103	   -10.658	  -6.70257	
  -10.6369	-0.000277586	  -10.6205	-0.000262267	  -10.6118	-0.000264243	  -10.6231	-0.000268032	  -10.6231	   -6.7008	
  -10.6022	-0.000277374	  -10.5847	-0.000262179	  -10.5761	-0.000264316	  -10.5877	-0.000267956	  -10.5877	   -6.6989	
  -10.5666	-0.000277298	  -10.5496	-0.000262006	  -10.5403	-0.000264386	  -10.5521	-0.000267897	  -10.5521	  -6.69742	
  -10.5307	-0.000277288	  -10.5133	-0.000261811	  -10.5037	-0.000264437	  -10.5159	-0.000267845	  -10.5159	  -6.69612	
   -10.494	-0.000277243	   -10.477	-0.000261669	  -10.4667	-0.000264452	  -10.4792	-0.000267788	  -10.4792	  -6.69471	
  -10.4569	-0.000277048	  -10.4395	-0.000261605	  -10.4292	-0.000264425	  -10.4418	-0.000267693	  -10.4418	  -6.69231	
  -10.4185	-0.000276667	  -10.4023	-0.000261589	  -10.3915	-0.000264365	  -10.4041	-0.00026754	  -10.4041	  -6.68851	
  -10.3804	-0.000276168	  -10.3642	-0.00026156	  -10.3531	-0.000264286	  -10.3659	-0.000267338	  -10.3659	  -6.68345	
  -10.3411	-0.000275673	   -10.326	-0.000261455	  -10.3143	-0.000264202	  -10.3271	-0.00026711	  -10.3271	  -6.67775	
  -10.3022	-0.000275329	  -10.2871	-0.000261262	   -10.275	-0.000264121	  -10.2881	-0.000266904	  -10.2881	  -6.67259	
  -10.2625	-0.000275201	   -10.248	-0.00026101	  -10.2355	-0.00026404	  -10.2487	-0.000266751	  -10.2487	  -6.66877	
  -10.2231	-0.000275206	   -10.208	-0.000260752	  -10.1955	-0.000263962	  -10.2088	-0.00026664	  -10.2088	  -6.66601	
  -10.1827	-0.000275183	  -10.1678	-0.000260539	  -10.1549	-0.000263884	  -10.1685	-0.000266535	  -10.1685	  -6.66338	
  -10.1418	-0.000274972	  -10.1274	-0.000260378	   -10.114	-0.000263801	  -10.1277	-0.000266384	  -10.1277	  -6.65959	
  -10.1002	-0.000274521	  -10.0865	-0.00026025	  -10.0725	-0.000263697	  -10.0864	-0.000266156	  -10.0864	   -6.6539	
  -10.0587	-0.000273908	  -10.0451	-0.000260114	  -10.0305	-0.000263548	  -10.0448	-0.000265857	  -10.0448	  -6.64642	
  -10.0165	-0.000273315	  -10.0032	-0.00025993	   -9.9881	-0.000263354	  -10.0026	-0.000265533	  -10.0026	  -6.63833	
  -9.97403	-0.000272904	  -9.96092	-0.000259681	  -9.94541	-0.000263118	  -9.96012	-0.000265234	  -9.96012	  -6.63086	
  -9.93106	-0.000272729	   -9.9183	-0.000259384	  -9.90237	-0.000262892	  -9.91724	-0.000265002	  -9.91724	  -6.62504	
  -9.88781	-0.000272706	  -9.87502	-0.000259081	  -9.85875	-0.000262698	  -9.87386	-0.000264828	  -9.87386	  -6.62071	
  -9.84393	-0.00027265	  -9.83143	-0.000258818	  -9.81476	-0.000262538	  -9.83004	-0.000264668	  -9.83004	  -6.61671	
  -9.79989	-0.00027241	  -9.78744	-0.000258611	  -9.77059	-0.000262389	  -9.78597	-0.00026447	  -9.78597	  -6.61175	
  -9.75546	-0.000271928	  -9.74296	-0.00025844	  -9.72601	-0.0002622	  -9.74148	-0.000264189	  -9.74148	  -6.60473	
  -9.71084	-0.000271279	  -9.69793	-0.000258259	  -9.68093	-0.000261961	  -9.69657	-0.000263833	  -9.69657	  -6.59583	
  -9.66552	-0.00027064	  -9.65257	-0.000258022	  -9.63557	-0.000261661	  -9.65122	-0.000263441	  -9.65122	  -6.58602	
  -9.61972	-0.000270176	  -9.60678	-0.000257714	  -9.58997	-0.000261339	  -9.60549	-0.000263076	  -9.60549	  -6.57691	
  -9.57351	-0.000269958	  -9.56063	-0.000257358	  -9.54392	-0.000261019	  -9.55935	-0.000262778	  -9.55935	  -6.56946	
  -9.52696	-0.000269914	  -9.51406	-0.000256999	  -9.49761	-0.000260708	  -9.51288	-0.00026254	  -9.51288	  -6.56351	
  -9.48014	-0.000269871	  -9.46726	-0.000256677	  -9.45111	-0.000260401	  -9.46617	-0.000262316	  -9.46617	   -6.5579	
  -9.43295	-0.00026966	  -9.41987	-0.000256396	  -9.40445	-0.000260075	  -9.41909	-0.000262044	  -9.41909	  -6.55109	
   -9.3852	-0.000269199	  -9.37212	-0.000256136	  -9.35755	-0.000259729	  -9.37163	-0.000261688	  -9.37163	   -6.5422	
  -9.33711	-0.000268543	  -9.32408	-0.00025586	  -9.30992	-0.000259367	   -9.3237	-0.000261257	   -9.3237	  -6.53141	
  -9.28887	-0.000267848	  -9.27567	-0.000255533	  -9.26192	-0.000258981	  -9.27549	-0.000260787	  -9.27549	  -6.51968	
   -9.2404	-0.000267273	  -9.22669	-0.000255145	  -9.21322	-0.000258598	  -9.22677	-0.000260339	  -9.22677	  -6.50847	
  -9.19148	-0.000266904	  -9.17736	-0.000254725	  -9.16432	-0.000258186	  -9.17772	-0.000259939	  -9.17772	  -6.49847	
  -9.14234	-0.000266699	  -9.12776	-0.000254328	  -9.11501	-0.000257765	  -9.12837	-0.000259598	  -9.12837	  -6.48994	
  -9.09262	-0.000266522	  -9.07767	-0.000253971	  -9.06577	-0.000257331	  -9.07869	-0.000259275	  -9.07869	  -6.48187	
  -9.04241	-0.000266224	  -9.02719	-0.000253642	  -9.01583	-0.000256908	  -9.02848	-0.000258925	  -9.02848	  -6.47312	
  -8.99194	-0.00026573	  -8.97652	-0.00025329	  -8.96597	-0.000256508	  -8.97814	-0.000258509	  -8.97814	  -6.46273	
  -8.94141	-0.000265076	  -8.92561	-0.000252873	  -8.91513	-0.000256106	  -8.92738	-0.000258019	  -8.92738	  -6.45046	
  -8.89033	-0.000264388	  -8.87423	-0.000252376	  -8.86426	-0.000255696	  -8.87627	-0.000257487	  -8.87627	  -6.43717	
  -8.83894	-0.000263801	  -8.82263	-0.000251821	  -8.81301	-0.00025525	  -8.82486	-0.000256957	  -8.82486	  -6.42393	
  -8.78716	-0.000263374	  -8.77072	-0.000251276	  -8.76158	-0.000254763	  -8.77316	-0.000256471	  -8.77316	  -6.41177	
  -8.73508	-0.000263069	  -8.71833	-0.000250791	  -8.70992	-0.000254248	  -8.72111	-0.000256036	  -8.72111	  -6.40091	
  -8.68265	-0.000262771	  -8.66567	-0.000250387	  -8.65768	-0.000253717	  -8.66867	-0.000255625	  -8.66867	  -6.39063	
  -8.62981	-0.000262361	  -8.61282	-0.000250032	  -8.60537	-0.000253194	    -8.616	-0.000255196	    -8.616	   -6.3799	
  -8.57638	-0.000261782	  -8.55958	-0.000249656	  -8.55237	-0.000252687	  -8.56278	-0.000254708	  -8.56278	  -6.36771	
   -8.5226	-0.000261074	  -8.50604	-0.000249185	  -8.49907	-0.000252193	  -8.50924	-0.00025415	  -8.50924	  -6.35376	
   -8.4687	-0.000260336	  -8.45228	-0.000248611	  -8.44554	-0.000251705	  -8.45551	-0.000253551	  -8.45551	  -6.33877	
  -8.41433	-0.000259679	  -8.39798	-0.000247978	  -8.39172	-0.000251201	  -8.40134	-0.000252953	  -8.40134	  -6.32382	
  -8.35959	-0.000259151	  -8.34336	-0.000247364	  -8.33758	-0.000250658	  -8.34684	-0.000252391	  -8.34684	  -6.30977	
  -8.30472	-0.000258723	  -8.28839	-0.000246829	  -8.28318	-0.000250084	  -8.29209	-0.000251878	  -8.29209	  -6.29696	
  -8.24937	-0.0002583	  -8.23316	-0.000246388	  -8.22847	-0.000249488	    -8.237	-0.000251392	    -8.237	  -6.28479	
  -8.19366	-0.000257781	  -8.17761	-0.000246005	  -8.17342	-0.000248901	  -8.18156	-0.000250896	  -8.18156	  -6.27239	
  -8.13782	-0.000257117	  -8.12198	-0.000245607	  -8.11797	-0.000248337	  -8.12592	-0.000250354	  -8.12592	  -6.25884	
  -8.08164	-0.00025634	  -8.06578	-0.00024513	  -8.06222	-0.000247797	  -8.06988	-0.000249756	  -8.06988	   -6.2439	
   -8.0251	-0.000255539	  -8.00928	-0.000244539	  -8.00613	-0.000247254	   -8.0135	-0.000249111	   -8.0135	  -6.22777	
  -7.96841	-0.000254809	  -7.95257	-0.000243863	  -7.94979	-0.000246672	  -7.95692	-0.000248448	  -7.95692	   -6.2112	
  -7.91154	-0.000254194	  -7.89559	-0.000243152	  -7.89301	-0.000246036	  -7.90005	-0.000247794	  -7.90005	  -6.19485	
  -7.85428	-0.000253664	   -7.8383	-0.000242512	  -7.83591	-0.000245353	  -7.84283	-0.000247177	  -7.84283	  -6.17942	
  -7.79675	-0.000253132	  -7.78093	-0.000241979	  -7.77872	-0.000244666	  -7.78547	-0.000246593	  -7.78547	  -6.16482	
  -7.73903	-0.000252509	  -7.72316	-0.000241542	   -7.7211	-0.000244002	  -7.72776	-0.000246018	  -7.72776	  -6.15044	
  -7.68095	-0.000251756	  -7.66508	-0.000241134	  -7.66317	-0.000243375	  -7.66973	-0.000245421	  -7.66973	  -6.13554	
  -7.62274	-0.000250903	  -7.60681	-0.000240649	  -7.60501	-0.000242768	  -7.61152	-0.000244773	  -7.61152	  -6.11933	
  -7.56395	-0.000250028	  -7.54815	-0.000240051	   -7.5466	-0.00024215	   -7.5529	-0.000244076	   -7.5529	  -6.10191	
  -7.50483	-0.000249207	  -7.48922	-0.00023934	  -7.48789	-0.000241493	  -7.49398	-0.000243347	  -7.49398	  -6.08366	
  -7.44564	-0.000248479	  -7.43025	-0.0002386	  -7.42912	-0.000240791	  -7.43501	-0.000242623	  -7.43501	  -6.06558	
  -7.38603	-0.000247817	  -7.37079	-0.000237914	   -7.3701	-0.000240059	  -7.37564	-0.00024193	  -7.37564	  -6.04826	
  -7.32614	-0.000247156	  -7.31108	-0.000237321	  -7.31079	-0.000239324	    -7.316	-0.000241267	    -7.316	  -6.03167	
  -7.26605	-0.000246421	  -7.25108	-0.000236794	  -7.25115	-0.000238608	   -7.2561	-0.000240607	   -7.2561	  -6.01519	
   -7.2056	-0.000245578	  -7.19077	-0.000236253	  -7.19102	-0.000237919	   -7.1958	-0.000239916	   -7.1958	  -5.99791	
   -7.1449	-0.00024465	  -7.13026	-0.000235633	  -7.13067	-0.000237242	  -7.13528	-0.000239175	  -7.13528	  -5.97938	
  -7.08405	-0.000243699	  -7.06951	-0.000234917	  -7.07004	-0.000236555	  -7.07453	-0.00023839	  -7.07453	  -5.95976	
  -7.02288	-0.000242791	  -7.00834	-0.000234142	  -7.00912	-0.000235837	  -7.01345	-0.00023759	  -7.01345	  -5.93975	
   -6.9615	-0.000241958	  -6.94702	-0.000233389	  -6.94801	-0.000235092	  -6.95218	-0.000236813	  -6.95218	  -5.92033	
  -6.89987	-0.000241185	  -6.88538	-0.000232712	  -6.88653	-0.00023434	  -6.89059	-0.000236079	  -6.89059	  -5.90198	
  -6.83783	-0.000240413	  -6.82338	-0.000232122	  -6.82468	-0.00023361	  -6.82863	-0.000235382	  -6.82863	  -5.88455	
  -6.77564	-0.000239584	  -6.76129	-0.000231568	  -6.76271	-0.00023292	  -6.76655	-0.000234691	  -6.76655	  -5.86727	
  -6.71314	-0.000238667	  -6.69878	-0.000230967	  -6.70058	-0.000232275	  -6.70417	-0.00023397	  -6.70417	  -5.84924	
  -6.65029	-0.000237675	    -6.636	-0.000230267	  -6.63811	-0.000231634	  -6.64147	-0.000233192	  -6.64147	   -5.8298	
  -6.58736	-0.000236662	  -6.57304	-0.000229464	  -6.57557	-0.000230943	  -6.57866	-0.000232356	  -6.57866	  -5.80891	
   -6.5243	-0.000235685	  -6.50988	-0.000228612	   -6.5125	-0.000230157	  -6.51556	-0.000231484	  -6.51556	  -5.78711	
  -6.46095	-0.00023477	  -6.44649	-0.000227786	  -6.44917	-0.000229286	  -6.45221	-0.000230614	  -6.45221	  -5.76535	
  -6.39756	-0.000233908	  -6.38299	-0.000227033	   -6.3857	-0.000228393	  -6.38875	-0.000229778	  -6.38875	  -5.74445	
  -6.33369	-0.00023305	  -6.31906	-0.000226355	  -6.32179	-0.000227549	  -6.32485	-0.000228985	  -6.32485	  -5.72462	
  -6.26959	-0.00023214	  -6.25498	-0.000225708	   -6.2577	-0.000226809	  -6.26076	-0.000228219	  -6.26076	  -5.70547	
  -6.20499	-0.000231128	  -6.19071	-0.000225028	  -6.19327	-0.000226168	  -6.19632	-0.000227441	  -6.19632	  -5.68603	
  -6.14001	-0.000230032	   -6.1261	-0.000224276	   -6.1285	-0.000225567	  -6.13154	-0.000226625	  -6.13154	  -5.66562	
  -6.07494	-0.000228906	  -6.06128	-0.000223441	  -6.06364	-0.000224921	  -6.06662	-0.000225756	  -6.06662	   -5.6439	
  -6.00959	-0.000227833	  -5.99621	-0.00022256	  -5.99825	-0.000224169	  -6.00135	-0.000224854	  -6.00135	  -5.62135	
  -5.94396	-0.000226875	   -5.9309	-0.000221685	  -5.93262	-0.000223307	  -5.93583	-0.000223956	  -5.93583	   -5.5989	
  -5.87831	-0.000226027	  -5.86531	-0.000220844	  -5.86674	-0.000222394	  -5.87012	-0.000223088	  -5.87012	  -5.57721	
  -5.81232	-0.000225233	  -5.79944	-0.00022006	  -5.80044	-0.000221507	  -5.80407	-0.000222266	  -5.80407	  -5.55666	
  -5.74615	-0.000224386	  -5.73341	-0.000219311	  -5.73401	-0.000220708	  -5.73786	-0.000221468	  -5.73786	  -5.53671	
  -5.67975	-0.000223416	  -5.66721	-0.000218574	  -5.66743	-0.000220001	  -5.67146	-0.000220664	  -5.67146	   -5.5166	
  -5.61299	-0.00022232	  -5.60067	-0.000217823	  -5.60053	-0.000219335	  -5.60473	-0.000219826	  -5.60473	  -5.49565	
  -5.54614	-0.00022116	  -5.53393	-0.000217036	  -5.53359	-0.000218638	  -5.53789	-0.000218945	  -5.53789	  -5.47362	
  -5.47903	-0.000220024	  -5.46712	-0.000216215	  -5.46618	-0.00021786	  -5.47078	-0.000218033	  -5.47078	  -5.45082	
  -5.41167	-0.000218984	   -5.4002	-0.000215356	  -5.39857	-0.000216989	  -5.40348	-0.00021711	  -5.40348	  -5.42774	
  -5.34403	-0.000218049	   -5.3333	-0.000214475	  -5.33089	-0.000216064	  -5.33608	-0.000216196	  -5.33608	   -5.4049	
   -5.2764	-0.000217171	   -5.2661	-0.000213587	  -5.26299	-0.000215147	   -5.2685	-0.000215302	   -5.2685	  -5.38255	
  -5.20847	-0.000216282	  -5.19875	-0.000212699	  -5.19499	-0.000214308	  -5.20073	-0.00021443	  -5.20073	  -5.36074	
  -5.14064	-0.00021531	  -5.13108	-0.00021182	  -5.12673	-0.000213574	  -5.13281	-0.000213568	  -5.13281	   -5.3392	
  -5.07247	-0.000214241	  -5.06309	-0.000210945	  -5.05821	-0.000212916	  -5.06459	-0.000212701	  -5.06459	  -5.31751	
  -5.00423	-0.000213097	  -4.99493	-0.000210065	   -4.9897	-0.000212263	  -4.99629	-0.000211809	  -4.99629	  -5.29522	
  -4.93564	-0.000211942	  -4.92644	-0.000209179	  -4.92077	-0.000211528	  -4.92762	-0.000210883	  -4.92762	  -5.27207	
  -4.86683	-0.00021082	  -4.85776	-0.000208282	   -4.8517	-0.000210655	  -4.85877	-0.000209919	  -4.85877	  -5.24797	
  -4.79753	-0.000209763	  -4.78889	-0.000207375	  -4.78262	-0.000209664	  -4.78968	-0.000208934	  -4.78968	  -5.22335	
  -4.72816	-0.000208763	  -4.71968	-0.000206459	  -4.71323	-0.000208632	  -4.72036	-0.000207952	  -4.72036	  -5.19879	
  -4.65858	-0.000207769	  -4.65027	-0.000205528	  -4.64381	-0.000207668	  -4.65089	-0.000206988	  -4.65089	  -5.17471	
  -4.58877	-0.000206737	  -4.58053	-0.000204585	  -4.57406	-0.000206832	  -4.58112	-0.000206052	  -4.58112	  -5.15129	
  -4.51875	-0.000205623	  -4.51059	-0.000203632	  -4.50414	-0.000206122	  -4.51116	-0.000205126	  -4.51116	  -5.12815	
  -4.44863	-0.000204445	  -4.44046	-0.00020267	  -4.43403	-0.000205446	  -4.44104	-0.000204187	  -4.44104	  -5.10467	
  -4.37815	-0.000203245	  -4.37013	-0.000201703	   -4.3636	-0.000204688	  -4.37063	-0.000203212	  -4.37063	  -5.08029	
  -4.30758	-0.000202074	  -4.29973	-0.000200732	  -4.29313	-0.000203778	  -4.30015	-0.000202195	  -4.30015	  -5.05487	
  -4.23664	-0.000200963	  -4.22898	-0.000199761	  -4.22246	-0.00020273	  -4.22936	-0.000201151	  -4.22936	  -5.02878	
  -4.16548	-0.000199892	  -4.15804	-0.000198787	   -4.1516	-0.000201627	  -4.15837	-0.000200102	  -4.15837	  -5.00255	
  -4.09425	-0.000198834	  -4.08716	-0.000197804	  -4.08082	-0.000200578	  -4.08741	-0.000199072	  -4.08741	   -4.9768	
  -4.02279	-0.000197752	  -4.01607	-0.000196808	  -4.00982	-0.000199652	  -4.01623	-0.000198071	  -4.01623	  -4.95177	
  -3.95126	-0.000196619	  -3.94489	-0.0001958	  -3.93874	-0.000198834	  -3.94496	-0.000197084	  -3.94496	   -4.9271	
  -3.87977	-0.000195432	  -3.87348	-0.000194785	   -3.8673	-0.000198039	  -3.87352	-0.000196085	  -3.87352	  -4.90214	
  -3.80804	-0.000194196	  -3.80185	-0.000193772	  -3.79566	-0.000197162	  -3.80185	-0.000195044	  -3.80185	  -4.87609	
  -3.73635	-0.00019294	  -3.73015	-0.000192768	  -3.72381	-0.000196146	   -3.7301	-0.000193951	   -3.7301	  -4.84878	
  -3.66468	-0.000191684	  -3.65808	-0.000191771	  -3.65177	-0.000195014	  -3.65817	-0.000192823	  -3.65817	  -4.82057	
  -3.59288	-0.000190451	  -3.58594	-0.000190775	  -3.57966	-0.000193846	  -3.58616	-0.000191691	  -3.58616	  -4.79226	
   -3.5208	-0.000189247	  -3.51372	-0.000189776	  -3.50735	-0.000192732	  -3.51396	-0.000190585	  -3.51396	  -4.76463	
  -3.44847	-0.000188065	  -3.44143	-0.000188768	  -3.43484	-0.000191721	  -3.44158	-0.000189518	  -3.44158	  -4.73795	
  -3.37575	-0.000186875	  -3.36918	-0.000187749	  -3.36228	-0.000190787	  -3.36907	-0.00018847	  -3.36907	  -4.71176	
  -3.30267	-0.000185647	  -3.29683	-0.000186725	  -3.28966	-0.000189855	  -3.29639	-0.000187409	  -3.29639	  -4.68523	
  -3.22952	-0.000184396	  -3.22438	-0.000185697	  -3.21698	-0.000188837	  -3.22363	-0.00018631	  -3.22363	  -4.65775	
  -3.15644	-0.00018312	  -3.15169	-0.000184654	  -3.14423	-0.000187695	  -3.15079	-0.000185156	  -3.15079	  -4.62891	
  -3.08328	-0.000181849	  -3.07877	-0.000183596	  -3.07127	-0.00018646	  -3.07777	-0.000183968	  -3.07777	  -4.59921	
  -3.01017	-0.000180572	   -3.0059	-0.000182518	  -2.99838	-0.000185218	  -3.00482	-0.000182769	  -3.00482	  -4.56924	
  -2.93628	-0.000179283	   -2.9328	-0.000181443	  -2.92528	-0.000184092	  -2.93145	-0.000181606	  -2.93145	  -4.54015	
  -2.86262	-0.000177999	  -2.85961	-0.000180405	  -2.85211	-0.000183128	  -2.85811	-0.000180511	  -2.85811	  -4.51276	
  -2.78849	-0.000176694	  -2.78592	-0.00017943	  -2.77886	-0.000182261	  -2.78443	-0.000179462	  -2.78443	  -4.48654	
  -2.71488	-0.000175386	  -2.71178	-0.000178506	  -2.70554	-0.000181326	  -2.71073	-0.000178406	  -2.71073	  -4.46015	
  -2.64119	-0.000174069	  -2.63748	-0.000177576	  -2.63215	-0.000180184	  -2.63694	-0.000177276	  -2.63694	  -4.43191	
  -2.56729	-0.000172728	  -2.56303	-0.000176567	  -2.55854	-0.000178787	  -2.56295	-0.000176028	  -2.56295	  -4.40069	
  -2.49332	-0.000171371	  -2.48886	-0.000175431	  -2.48487	-0.000177206	  -2.48902	-0.000174669	  -2.48902	  -4.36672	
  -2.41915	-0.000169973	   -2.4152	-0.000174181	  -2.41127	-0.000175624	  -2.41521	-0.000173259	  -2.41521	  -4.33148	
  -2.34479	-0.000168573	  -2.34202	-0.000172888	  -2.33746	-0.000174226	  -2.34142	-0.000171896	  -2.34142	   -4.2974	
  -2.27039	-0.000167184	  -2.26898	-0.000171647	  -2.26372	-0.000173099	   -2.2677	-0.000170644	   -2.2677	  -4.26609	
  -2.19609	-0.000165815	  -2.19566	-0.000170516	   -2.1899	-0.000172171	  -2.19388	-0.000169501	  -2.19388	  -4.23752	
  -2.12159	-0.000164466	  -2.12207	-0.00016949	    -2.116	-0.000171256	  -2.11989	-0.000168404	  -2.11989	   -4.2101	
  -2.04678	-0.000163095	  -2.04795	-0.0001685	  -2.04216	-0.000170161	  -2.04563	-0.000167252	  -2.04563	  -4.18131	
  -1.97196	-0.000161635	  -1.97363	-0.000167261	   -1.9681	-0.00016867	  -1.97123	-0.000165855	  -1.97123	  -4.14639	
  -1.89725	-0.000160197	  -1.89924	-0.000166002	   -1.8941	-0.00016701	  -1.89687	-0.000164403	  -1.89687	  -4.11007	
  -1.82238	-0.000158794	  -1.82466	-0.000164734	  -1.82002	-0.000165337	  -1.82235	-0.000162955	  -1.82235	  -4.07388	
  -1.74749	-0.000157418	  -1.75004	-0.00016346	  -1.74586	-0.000163811	   -1.7478	-0.000161563	   -1.7478	  -4.03907	
