# User: ACHyster
# File name: C:/ACHYSTER/ACHyster SENS/SHAMS/CoFe2O4-1gl-water-80 Glycerol-Sens-08-03-2023/CoFe2O4-1gl-water-80 Glycerol- 10_100F-12 kAm -Sens-08-03-20230000#1.txt
# Saved at: mi. mar. 8 15:53:12 2023
# Hyster Loop (3 iterations). Intensity: 12.0 kA/m; Tuned frequency: 9.4 kHz
# Units x axis: (kA/m)
# Units y axis: "Repeats y" & "Average y" (10^(-3)Am^2); "Mass avg y" (Am^2/kg)
# Magnetic mass: 4e-05 g
# Parameter      	Repeat   1	Repeat   2	Repeat   3	Average   	Sigma     
# H_C (kA/m)     	       7.8	       7.6	       7.9	       7.7	       0.1
# M_R (Am^2/kg)  	       7.9	       7.7	       8.0	       7.9	       0.1
# M_max (Am^2/kg)	       8.5	       8.8	       8.8	       8.7	       0.2
# Area (mJ/kg)   	     348.0	     348.4	     364.6	     353.7	       7.7
# SAR (W/g)      	       3.3	       3.3	       3.4	       3.3	       0.1
#Repeat 1 x	Repeat 1 y	Repeat 2 x	Repeat 2 y	Repeat 3 x	Repeat 3 y	Average x 	Average y 	Mass avg x 	Mass avg y 
  -1.66871	-0.000365731	  -1.67896	-0.000354043	  -1.68026	-0.000356383	  -1.67598	-0.000358719	  -1.67598	  -8.96798	
  -1.59386	-0.000363983	  -1.60382	-0.000351997	  -1.60542	-0.000354634	  -1.60103	-0.000356871	  -1.60103	  -8.92179	
   -1.5191	-0.000362114	  -1.52868	-0.000349973	  -1.53036	-0.000352847	  -1.52605	-0.000354978	  -1.52605	  -8.87445	
  -1.44415	-0.000360232	  -1.45335	-0.000347894	  -1.45524	-0.000351025	  -1.45092	-0.00035305	  -1.45092	  -8.82626	
  -1.36927	-0.000358358	  -1.37804	-0.000345883	  -1.38022	-0.000349205	  -1.37584	-0.000351149	  -1.37584	  -8.77872	
  -1.29435	-0.000356401	  -1.30267	-0.000343829	  -1.30506	-0.000347435	  -1.30069	-0.000349222	  -1.30069	  -8.73055	
  -1.21938	-0.000354403	  -1.22725	-0.000341726	  -1.22989	-0.000345577	  -1.22551	-0.000347235	  -1.22551	  -8.68089	
  -1.14443	-0.000352424	   -1.1518	-0.000339676	  -1.15478	-0.000343721	  -1.15033	-0.000345274	  -1.15033	  -8.63185	
  -1.06933	-0.000350389	   -1.0762	-0.000337594	  -1.07948	-0.000341896	    -1.075	-0.000343293	    -1.075	  -8.58232	
 -0.994282	-0.000348274	  -1.00063	-0.000335497	  -1.00425	-0.000339991	 -0.999722	-0.000341254	 -0.999722	  -8.53135	
 -0.919129	-0.000346169	 -0.924957	-0.000333441	 -0.928847	-0.000338089	 -0.924311	-0.000339233	 -0.924311	  -8.48083	
 -0.843977	-0.000344024	 -0.849311	-0.000331323	 -0.853419	-0.000336178	 -0.848902	-0.000337175	 -0.848902	  -8.42938	
 -0.768754	-0.000341806	 -0.773642	-0.000329167	 -0.777928	-0.000334206	 -0.773441	-0.000335059	 -0.773441	  -8.37649	
 -0.693547	-0.000339621	 -0.697908	-0.000327009	 -0.702308	-0.00033224	 -0.697921	-0.000332957	 -0.697921	  -8.32392	
 -0.618279	-0.000337388	 -0.622263	-0.000324924	 -0.626816	-0.000330252	 -0.622453	-0.000330855	 -0.622453	  -8.27137	
 -0.542913	-0.000335091	 -0.546486	-0.000322706	 -0.551182	-0.000328226	  -0.54686	-0.000328674	  -0.54686	  -8.21686	
 -0.467576	-0.000332833	 -0.470762	-0.000320526	 -0.475537	-0.000326221	 -0.471292	-0.000326527	 -0.471292	  -8.16317	
 -0.392147	-0.000330552	 -0.394967	-0.000318415	 -0.399862	-0.000324162	 -0.395659	-0.000324376	 -0.395659	  -8.10941	
 -0.316534	-0.00032822	 -0.319134	-0.000316182	 -0.324113	-0.000322076	 -0.319927	-0.000322159	 -0.319927	  -8.05399	
 -0.241174	-0.000325814	  -0.24337	-0.000313972	 -0.248448	-0.000319931	  -0.24433	-0.000319906	  -0.24433	  -7.99764	
 -0.165634	-0.000323478	  -0.16753	-0.000311812	 -0.172647	-0.000317763	 -0.168604	-0.000317684	 -0.168604	   -7.9421	
-0.0902025	-0.00032106	-0.0917452	-0.000309565	-0.0969431	-0.000315592	-0.0929636	-0.000315406	-0.0929636	  -7.88514	
-0.0146863	-0.000318604	-0.0161518	-0.000307329	-0.0211206	-0.000313365	-0.0173196	-0.000313099	-0.0173196	  -7.82749	
 0.0608409	-0.000316189	 0.0595481	-0.000305165	 0.0547177	-0.000311149	 0.0583689	-0.000310835	 0.0583689	  -7.77087	
  0.136302	-0.000313736	  0.135292	-0.000302908	  0.130467	-0.0003089	   0.13402	-0.000308515	   0.13402	  -7.71287	
  0.211869	-0.000311269	  0.211044	-0.00030062	  0.206276	-0.00030662	   0.20973	-0.000306169	   0.20973	  -7.65423	
  0.287337	-0.00030882	  0.286732	-0.000298401	  0.281967	-0.000304359	  0.285345	-0.00030386	  0.285345	   -7.5965	
  0.362847	-0.000306324	  0.362446	-0.000296112	  0.357734	-0.000302062	  0.361009	-0.000301499	  0.361009	  -7.53749	
  0.438331	-0.000303813	  0.438116	-0.000293734	  0.433478	-0.00029981	  0.436642	-0.000299119	  0.436642	  -7.47798	
  0.513759	-0.000301309	  0.513765	-0.000291415	  0.509148	-0.00029748	  0.512224	-0.000296735	  0.512224	  -7.41837	
  0.589281	-0.000298763	  0.589488	-0.000289065	  0.584889	-0.000295136	  0.587886	-0.000294321	  0.587886	  -7.35803	
  0.664667	-0.000296213	  0.665057	-0.0002867	  0.660521	-0.000292851	  0.663415	-0.000291921	  0.663415	  -7.29803	
  0.740062	-0.000293688	  0.740669	-0.000284273	   0.73619	-0.000290512	  0.738974	-0.000289491	  0.738974	  -7.23727	
    0.8154	-0.000291092	  0.816202	-0.000281885	    0.8118	-0.000288154	  0.814468	-0.000287043	  0.814468	  -7.17608	
  0.890681	-0.000288482	  0.891659	-0.000279518	    0.8874	-0.000285841	  0.889913	-0.000284614	  0.889913	  -7.11534	
  0.965879	-0.000285928	  0.967167	-0.000277047	  0.963036	-0.000283496	  0.965361	-0.000282157	  0.965361	  -7.05392	
   1.04108	-0.000283301	    1.0425	-0.000274645	   1.03848	-0.000281125	   1.04069	-0.00027969	   1.04069	  -6.99225	
   1.11619	-0.000280646	   1.11793	-0.000272202	   1.11399	-0.000278791	   1.11604	-0.000277213	   1.11604	  -6.93032	
   1.19124	-0.000278044	   1.19327	-0.000269746	   1.18944	-0.000276474	   1.19132	-0.000274755	   1.19132	  -6.86887	
   1.26632	-0.000275467	    1.2686	-0.000267404	   1.26481	-0.000274144	   1.26658	-0.000272338	   1.26658	  -6.80845	
   1.34142	-0.000272797	   1.34396	-0.000264996	   1.34019	-0.000271756	   1.34186	-0.00026985	   1.34186	  -6.74624	
   1.41643	-0.00027015	   1.41916	-0.000262561	   1.41538	-0.00026945	   1.41699	-0.000267387	   1.41699	  -6.68467	
   1.49131	-0.000267543	   1.49441	-0.000260198	   1.49065	-0.000267085	   1.49213	-0.000264942	   1.49213	  -6.62355	
   1.56623	-0.000264905	   1.56954	-0.000257795	   1.56582	-0.00026467	    1.5672	-0.000262457	    1.5672	  -6.56142	
   1.64114	-0.000262195	    1.6447	-0.000255375	   1.64089	-0.000262246	   1.64225	-0.000259939	   1.64225	  -6.49846	
   1.71599	-0.000259548	   1.71987	-0.000252977	   1.71597	-0.000259885	   1.71727	-0.00025747	   1.71727	  -6.43675	
   1.79068	-0.000256912	   1.79484	-0.000250599	   1.79085	-0.000257406	   1.79212	-0.000254972	   1.79212	  -6.37431	
    1.8654	-0.000254198	   1.86982	-0.000248213	   1.86578	-0.000254957	     1.867	-0.000252456	     1.867	   -6.3114	
   1.94002	-0.000251532	   1.94467	-0.000245849	   1.94061	-0.000252559	   1.94177	-0.00024998	   1.94177	   -6.2495	
   2.01447	-0.000248874	   2.01942	-0.000243492	   2.01524	-0.000250021	   2.01637	-0.000247462	   2.01637	  -6.18656	
   2.08893	-0.000246144	   2.09418	-0.000241112	   2.08986	-0.000247552	   2.09099	-0.000244936	   2.09099	   -6.1234	
   2.16321	-0.000243395	   2.16874	-0.000238777	   2.16428	-0.000245113	   2.16541	-0.000242428	   2.16541	  -6.06071	
   2.23746	-0.000240642	   2.24333	-0.000236487	   2.23867	-0.000242592	   2.23982	-0.000239907	   2.23982	  -5.99767	
   2.31165	-0.000237877	   2.31779	-0.000234127	   2.31298	-0.00024015	   2.31414	-0.000237385	   2.31414	  -5.93462	
   2.38562	-0.000235057	   2.39226	-0.000231788	   2.38714	-0.000237733	   2.38834	-0.000234859	   2.38834	  -5.87148	
   2.45961	-0.000232241	   2.46643	-0.000229518	   2.46132	-0.000235216	   2.46245	-0.000232325	   2.46245	  -5.80812	
   2.53344	-0.000229452	   2.54055	-0.000227212	   2.53531	-0.000232734	   2.53643	-0.000229799	   2.53643	  -5.74498	
   2.60715	-0.000226555	   2.61457	-0.000224794	   2.60917	-0.000230273	    2.6103	-0.000227207	    2.6103	  -5.68018	
    2.6808	-0.000223705	   2.68845	-0.000222444	   2.68298	-0.000227728	   2.68408	-0.000224626	   2.68408	  -5.61565	
   2.75424	-0.000220868	    2.7621	-0.000220079	    2.7566	-0.000225203	   2.75765	-0.00022205	   2.75765	  -5.55124	
   2.82767	-0.000217973	    2.8358	-0.000217631	   2.83024	-0.000222701	   2.83124	-0.000219435	   2.83124	  -5.48587	
   2.90126	-0.000215098	   2.90931	-0.000215211	   2.90371	-0.000220112	   2.90476	-0.000216807	   2.90476	  -5.42017	
   2.97425	-0.000212118	   2.98273	-0.000212773	   2.97699	-0.00021753	   2.97799	-0.00021414	   2.97799	  -5.35351	
   3.04732	-0.000209221	    3.0561	-0.000210276	   3.05025	-0.000214962	   3.05122	-0.000211487	   3.05122	  -5.28716	
    3.1202	-0.000206281	   3.12923	-0.000207786	   3.12327	-0.000212278	   3.12423	-0.000208782	   3.12423	  -5.21954	
   3.19305	-0.000203275	   3.20234	-0.000205272	   3.19629	-0.000209643	   3.19723	-0.000206063	   3.19723	  -5.15158	
   3.26579	-0.000200311	    3.2753	-0.000202698	   3.26918	-0.000207087	   3.27009	-0.000203365	   3.27009	  -5.08413	
   3.33828	-0.000197294	   3.34808	-0.00020011	   3.34184	-0.00020438	   3.34273	-0.000200595	   3.34273	  -5.01487	
   3.41076	-0.000194223	   3.42085	-0.00019752	   3.41448	-0.000201728	   3.41536	-0.000197824	   3.41536	  -4.94559	
    3.4831	-0.000191182	   3.49339	-0.000194853	    3.4869	-0.000199107	    3.4878	-0.000195047	    3.4878	  -4.87618	
   3.55522	-0.000188104	   3.56582	-0.000192139	   3.55927	-0.000196392	    3.5601	-0.000192212	    3.5601	  -4.80529	
    3.6273	-0.000184981	   3.63817	-0.000189505	    3.6316	-0.000193717	   3.63236	-0.000189401	   3.63236	  -4.73503	
   3.69913	-0.000181843	   3.71026	-0.000186813	   3.70353	-0.000191031	   3.70431	-0.000186563	   3.70431	  -4.66406	
   3.77088	-0.000178708	   3.78233	-0.000184011	   3.77547	-0.000188313	   3.77622	-0.000183677	   3.77622	  -4.59194	
   3.84252	-0.000175594	   3.85422	-0.000181294	   3.84727	-0.000185645	   3.84801	-0.000180844	   3.84801	  -4.52111	
   3.91393	-0.000172407	   3.92597	-0.000178536	   3.91887	-0.000182923	   3.91959	-0.000177955	   3.91959	  -4.44888	
   3.98526	-0.000169244	   3.99768	-0.000175686	   3.99049	-0.000180133	   3.99114	-0.000175021	   3.99114	  -4.37552	
   4.05641	-0.00016604	   4.06916	-0.000172962	   4.06188	-0.000177394	   4.06248	-0.000172132	   4.06248	  -4.30331	
   4.12731	-0.000162807	   4.14048	-0.000170098	   4.13307	-0.0001746	   4.13362	-0.000169168	   4.13362	  -4.22921	
   4.19813	-0.000159642	    4.2115	-0.000167231	   4.20422	-0.000171748	   4.20462	-0.000166207	   4.20462	  -4.15517	
   4.26871	-0.000156471	   4.28242	-0.000164421	   4.27511	-0.00016894	   4.27542	-0.000163277	   4.27542	  -4.08193	
   4.33908	-0.000153264	   4.35323	-0.000161532	    4.3459	-0.000166082	   4.34607	-0.000160293	   4.34607	  -4.00732	
   4.40939	-0.000150149	   4.42381	-0.000158582	   4.41657	-0.000163166	   4.41659	-0.000157299	   4.41659	  -3.93248	
    4.4794	-0.000146995	   4.49423	-0.000155614	   4.48694	-0.000160279	   4.48686	-0.000154296	   4.48686	   -3.8574	
   4.54921	-0.000143793	   4.56449	-0.000152617	   4.55727	-0.000157381	   4.55699	-0.000151263	   4.55699	  -3.78159	
   4.61882	-0.00014069	    4.6345	-0.000149566	   4.62742	-0.000154405	   4.62691	-0.00014822	   4.62691	  -3.70551	
   4.68816	-0.000137526	   4.70425	-0.00014651	   4.69729	-0.000151452	   4.69657	-0.000145163	   4.69657	  -3.62906	
   4.75736	-0.000134303	   4.77395	-0.000143437	   4.76713	-0.000148523	   4.76615	-0.000142087	   4.76615	  -3.55219	
    4.8265	-0.000131178	   4.84341	-0.000140331	   4.83675	-0.000145488	   4.83555	-0.000138999	   4.83555	  -3.47497	
   4.89543	-0.000128108	   4.91267	-0.000137232	   4.90609	-0.000142463	   4.90473	-0.000135934	   4.90473	  -3.39836	
   4.96415	-0.000124898	   4.98189	-0.000134132	   4.97536	-0.000139445	    4.9738	-0.000132825	    4.9738	  -3.32062	
   5.03271	-0.000121729	   5.05081	-0.000131016	   5.04436	-0.000136317	   5.04263	-0.000129687	   5.04263	  -3.24218	
   5.10106	-0.000118617	    5.1196	-0.000127898	   5.11315	-0.000133203	   5.11127	-0.000126573	   5.11127	  -3.16432	
   5.16934	-0.000115415	   5.18829	-0.000124782	   5.18185	-0.000130102	   5.17983	-0.000123433	   5.17983	  -3.08582	
   5.23739	-0.000112282	   5.25667	-0.000121669	   5.25028	-0.000126942	   5.24811	-0.000120298	   5.24811	  -3.00744	
   5.30518	-0.000109187	   5.32487	-0.000118554	   5.31849	-0.000123786	   5.31618	-0.000117176	   5.31618	   -2.9294	
   5.37288	-0.000106003	   5.39292	-0.000115457	   5.38644	-0.00012057	   5.38408	-0.00011401	   5.38408	  -2.85025	
   5.44033	-0.00010286	   5.46061	-0.000112308	   5.45418	-0.000117402	   5.45171	-0.000110857	   5.45171	  -2.77143	
   5.50748	-9.98061e-05	   5.52815	-0.000109155	   5.52182	-0.000114163	   5.51915	-0.000107708	   5.51915	   -2.6927	
   5.57457	-9.66115e-05	   5.59555	-0.000106053	   5.58918	-0.00011089	   5.58644	-0.000104518	   5.58644	  -2.61295	
    5.6414	-9.34205e-05	   5.66259	-0.000102915	   5.65638	-0.00010766	   5.65346	-0.000101332	   5.65346	  -2.53329	
   5.70786	-9.03538e-05	   5.72948	-9.97694e-05	   5.72332	-0.000104344	   5.72022	-9.81556e-05	   5.72022	  -2.45389	
   5.77424	-8.72223e-05	   5.79623	-9.66419e-05	   5.79008	-0.000101043	   5.78685	-9.49691e-05	   5.78685	  -2.37423	
   5.84035	-8.40929e-05	   5.86263	-9.34885e-05	   5.85649	-9.78037e-05	   5.85316	-9.1795e-05	   5.85316	  -2.29488	
   5.90614	-8.10578e-05	   5.92882	-9.03632e-05	   5.92266	-9.44274e-05	    5.9192	-8.86161e-05	    5.9192	   -2.2154	
   5.97187	-7.78442e-05	   5.99486	-8.71993e-05	   5.98868	-9.11015e-05	   5.98514	-8.53816e-05	   5.98514	  -2.13454	
   6.03734	-7.47441e-05	   6.06053	-8.4041e-05	   6.05438	-8.7816e-05	   6.05075	-8.22004e-05	   6.05075	  -2.05501	
   6.10253	-7.17022e-05	     6.126	-8.09185e-05	   6.11979	-8.4426e-05	   6.11611	-7.90156e-05	   6.11611	  -1.97539	
   6.16752	-6.85791e-05	   6.19133	-7.7771e-05	   6.18507	-8.11118e-05	   6.18131	-7.58206e-05	   6.18131	  -1.89552	
   6.23227	-6.5477e-05	   6.25631	-7.4626e-05	   6.25003	-7.78382e-05	    6.2462	-7.26471e-05	    6.2462	  -1.81618	
   6.29664	-6.24055e-05	   6.32094	-7.15034e-05	   6.31462	-7.44749e-05	   6.31073	-6.94613e-05	   6.31073	  -1.73653	
   6.36084	-5.92782e-05	   6.38544	-6.83231e-05	   6.37909	-7.12417e-05	   6.37512	-6.6281e-05	   6.37512	  -1.65702	
   6.42482	-5.61587e-05	   6.44962	-6.51361e-05	   6.44327	-6.80086e-05	   6.43924	-6.31011e-05	   6.43924	  -1.57753	
   6.48838	-5.30881e-05	   6.51355	-6.19995e-05	   6.50712	-6.46818e-05	   6.50302	-5.99231e-05	   6.50302	  -1.49808	
   6.55186	-5.00217e-05	   6.57738	-5.8807e-05	   6.57082	-6.14649e-05	   6.56669	-5.67645e-05	   6.56669	  -1.41911	
   6.61515	-4.68678e-05	   6.64093	-5.56053e-05	   6.63427	-5.82515e-05	   6.63012	-5.35749e-05	   6.63012	  -1.33937	
   6.67806	-4.37302e-05	   6.70402	-5.24559e-05	   6.69735	-5.49721e-05	   6.69314	-5.03861e-05	   6.69314	  -1.25965	
   6.74071	-4.06061e-05	   6.76703	-4.92761e-05	   6.76023	-5.1762e-05	   6.75599	-4.72148e-05	   6.75599	  -1.18037	
   6.80322	-3.74222e-05	   6.82978	-4.60812e-05	   6.82287	-4.85556e-05	   6.81862	-4.40197e-05	   6.81862	  -1.10049	
   6.86537	-3.42592e-05	   6.89208	-4.29613e-05	   6.88514	-4.53099e-05	   6.88086	-4.08434e-05	   6.88086	  -1.02109	
   6.92721	-3.11207e-05	   6.95418	-3.98225e-05	   6.94715	-4.20743e-05	   6.94285	-3.76725e-05	   6.94285	 -0.941813	
   6.98893	-2.79458e-05	   7.01607	-3.66377e-05	   7.00902	-3.89334e-05	   7.00467	-3.45057e-05	   7.00467	 -0.862641	
   7.05036	-2.47792e-05	   7.07756	-3.35476e-05	   7.07034	-3.57292e-05	   7.06609	-3.1352e-05	   7.06609	   -0.7838	
   7.11138	-2.16541e-05	   7.13867	-3.03973e-05	   7.13143	-3.25336e-05	   7.12716	-2.8195e-05	   7.12716	 -0.704875	
   7.17211	-1.85033e-05	   7.19965	-2.72663e-05	   7.19235	-2.94223e-05	   7.18804	-2.50639e-05	   7.18804	 -0.626599	
   7.23265	-1.53567e-05	   7.26032	-2.42027e-05	   7.25298	-2.62601e-05	   7.24865	-2.19398e-05	   7.24865	 -0.548496	
    7.2928	-1.22343e-05	   7.32058	-2.10265e-05	   7.31319	-2.31359e-05	   7.30886	-1.87989e-05	   7.30886	 -0.469972	
   7.35259	-9.10535e-06	    7.3807	-1.78705e-05	   7.37323	-2.00688e-05	   7.36884	-1.56816e-05	   7.36884	 -0.392039	
   7.41215	-5.9814e-06	   7.44058	-1.47581e-05	   7.43304	-1.69297e-05	   7.42859	-1.25564e-05	   7.42859	  -0.31391	
    7.4714	-2.8415e-06	   7.50002	-1.15695e-05	   7.49246	-1.38495e-05	   7.48796	-9.42017e-06	   7.48796	 -0.235504	
   7.53018	2.82337e-07	   7.55907	-8.4046e-06	    7.5515	-1.08392e-05	   7.54692	-6.3205e-06	   7.54692	 -0.158013	
   7.58873	3.41494e-06	   7.61807	-5.27101e-06	   7.61032	-7.74361e-06	    7.6057	-3.19989e-06	    7.6057	-0.0799973	
   7.64708	6.48376e-06	   7.67648	-2.07462e-06	   7.66884	-4.74379e-06	   7.66413	-1.1155e-07	   7.66413	-0.00278874	
   7.70506	9.52272e-06	   7.73477	9.81288e-07	   7.72694	-1.71535e-06	   7.72226	2.92955e-06	   7.72226	 0.0732388	
    7.7627	1.25462e-05	   7.79262	4.11261e-06	   7.78474	1.36102e-06	   7.78002	6.0066e-06	   7.78002	  0.150165	
   7.82014	1.55751e-05	   7.85026	7.28339e-06	   7.84235	4.36488e-06	   7.83758	9.07446e-06	   7.83758	  0.226862	
   7.87729	1.85665e-05	   7.90749	1.03268e-05	   7.89959	7.36925e-06	   7.89479	1.20875e-05	   7.89479	  0.302188	
   7.93402	2.15755e-05	   7.96442	1.33961e-05	   7.95647	1.04274e-05	   7.95164	1.5133e-05	   7.95164	  0.378325	
   7.99043	2.45585e-05	   8.02123	1.65181e-05	   8.01319	1.34057e-05	   8.00829	1.81607e-05	   8.00829	  0.454019	
   8.04663	2.74914e-05	   8.07775	1.95686e-05	   8.06968	1.63494e-05	   8.06469	2.11365e-05	   8.06469	  0.528412	
    8.1025	3.04577e-05	   8.13384	2.2637e-05	   8.12578	1.93645e-05	   8.12071	2.41531e-05	   8.12071	  0.603826	
   8.15795	3.34107e-05	   8.18964	2.57254e-05	   8.18155	2.22789e-05	   8.17638	2.71383e-05	   8.17638	  0.678458	
   8.21314	3.63098e-05	    8.2453	2.87795e-05	   8.23708	2.52274e-05	   8.23184	3.01056e-05	   8.23184	   0.75264	
   8.26816	3.92462e-05	   8.30063	3.17579e-05	   8.29233	2.82012e-05	   8.28704	3.30684e-05	   8.28704	  0.826711	
   8.32282	4.21703e-05	   8.35552	3.47842e-05	   8.34712	3.11071e-05	   8.34182	3.60205e-05	   8.34182	  0.900514	
   8.37697	4.50437e-05	   8.41013	3.77515e-05	   8.40155	3.4077e-05	   8.39622	3.89574e-05	   8.39622	  0.973934	
   8.43079	4.79405e-05	   8.46451	4.05657e-05	   8.45553	3.69713e-05	   8.45028	4.18258e-05	   8.45028	   1.04565	
   8.48443	5.08354e-05	   8.51854	4.35656e-05	   8.50927	3.98537e-05	   8.50408	4.47516e-05	   8.50408	   1.11879	
   8.53769	5.36905e-05	   8.57209	4.65498e-05	   8.56278	4.28323e-05	   8.55752	4.76909e-05	   8.55752	   1.19227	
   8.59054	5.65864e-05	   8.62537	4.93682e-05	   8.61575	4.57691e-05	   8.61055	5.05746e-05	   8.61055	   1.26436	
   8.64311	5.94112e-05	   8.67841	5.23276e-05	   8.66842	4.8639e-05	   8.66331	5.34593e-05	   8.66331	   1.33648	
    8.6955	6.22566e-05	    8.7311	5.52127e-05	   8.72068	5.15808e-05	   8.71576	 5.635e-05	   8.71576	   1.40875	
   8.74753	6.50876e-05	   8.78338	5.79401e-05	   8.77251	5.44504e-05	   8.76781	5.91594e-05	   8.76781	   1.47898	
   8.79906	6.78433e-05	   8.83525	6.0798e-05	   8.82397	5.7352e-05	   8.81943	6.19978e-05	   8.81943	   1.54994	
   8.85017	7.06473e-05	   8.88694	6.36125e-05	   8.87523	6.02774e-05	   8.87078	6.48457e-05	   8.87078	   1.62114	
   8.90107	7.34867e-05	   8.93821	6.63381e-05	   8.92625	6.31168e-05	   8.92184	6.76472e-05	   8.92184	   1.69118	
   8.95166	7.61924e-05	   8.98909	6.91594e-05	   8.97686	6.59786e-05	   8.97254	7.04435e-05	   8.97254	   1.76109	
   9.00171	7.90054e-05	   9.03961	7.18886e-05	   9.02704	6.88813e-05	   9.02279	7.32584e-05	   9.02279	   1.83146	
   9.05132	8.18842e-05	   9.08976	7.45494e-05	   9.07698	7.17492e-05	   9.07269	7.60609e-05	   9.07269	   1.90152	
    9.1007	8.4615e-05	   9.13952	7.73285e-05	   9.12668	7.46044e-05	    9.1223	7.88493e-05	    9.1223	   1.97123	
   9.14983	8.74114e-05	   9.18886	8.0114e-05	   9.17599	7.74484e-05	   9.17156	8.16579e-05	   9.17156	   2.04145	
   9.19856	9.02263e-05	   9.23767	8.27829e-05	   9.22483	8.0288e-05	   9.22036	8.44324e-05	   9.22036	   2.11081	
   9.24683	9.29272e-05	   9.28606	8.55747e-05	   9.27322	8.31354e-05	   9.26871	8.72124e-05	   9.26871	   2.18031	
   9.29485	9.56911e-05	   9.33421	8.83221e-05	   9.32133	8.59754e-05	    9.3168	8.99962e-05	    9.3168	   2.24991	
   9.34266	9.84802e-05	   9.38203	9.09905e-05	   9.36917	8.88019e-05	   9.36462	9.27575e-05	   9.36462	   2.31894	
   9.39014	0.000101192	   9.42939	9.37569e-05	   9.41659	9.16302e-05	   9.41204	9.55265e-05	   9.41204	   2.38816	
   9.43716	0.000103942	    9.4762	9.64944e-05	   9.46355	9.44767e-05	   9.45897	9.83044e-05	   9.45897	   2.45761	
   9.48373	0.000106719	   9.52265	9.91463e-05	   9.51002	9.7298e-05	   9.50547	0.000101054	   9.50547	   2.52636	
   9.52995	0.00010945	   9.56891	0.000101907	   9.55624	0.000100111	    9.5517	0.000103823	    9.5517	   2.59557	
   9.57592	0.000112205	   9.61483	0.000104652	   9.60218	0.000102964	   9.59764	0.000106607	   9.59764	   2.66517	
   9.62155	0.000114974	   9.66026	0.000107312	   9.64768	0.000105795	   9.64316	0.00010936	   9.64316	   2.73401	
   9.66669	0.000117758	   9.70519	0.000110075	   9.69266	0.000108605	   9.68818	0.000112146	   9.68818	   2.80364	
   9.71128	 0.0001205	   9.74981	0.000112815	   9.73715	0.000111464	   9.73275	0.000114926	   9.73275	   2.87316	
   9.75549	0.000123293	   9.79421	0.000115544	   9.78131	0.00011435	     9.777	0.000117729	     9.777	   2.94323	
   9.79939	0.000126123	   9.83826	0.000118332	   9.82518	0.000117157	   9.82094	0.000120537	   9.82094	   3.01344	
   9.84297	0.000128906	   9.88185	0.000121125	   9.86865	0.000120053	   9.86449	0.000123361	   9.86449	   3.08404	
   9.88611	0.000131681	   9.92486	0.000123896	   9.91162	0.000122925	   9.90753	0.000126167	   9.90753	   3.15418	
   9.92871	0.000134524	   9.96749	0.000126718	   9.95413	0.000125756	   9.95011	0.000128999	   9.95011	   3.22498	
   9.97087	0.000137283	   10.0099	0.000129485	   9.99633	0.000128671	   9.99237	0.000131813	   9.99237	   3.29533	
   10.0128	0.000140089	   10.0521	0.000132274	   10.0383	0.000131598	   10.0344	0.000134654	   10.0344	   3.36635	
   10.0544	0.000142998	   10.0938	0.000135096	   10.0799	0.000134405	    10.076	0.000137499	    10.076	   3.43748	
   10.0957	0.000145714	    10.135	0.000137865	    10.121	0.000137407	   10.1172	0.000140329	   10.1172	   3.50821	
   10.1367	0.000148464	   10.1757	0.000140655	   10.1616	0.00014038	    10.158	0.000143166	    10.158	   3.57916	
   10.1772	0.000151323	   10.2161	0.000143497	   10.2017	0.000143235	   10.1983	0.000146018	   10.1983	   3.65045	
   10.2172	0.000154038	   10.2562	0.000146305	   10.2417	0.000146284	   10.2383	0.000148876	   10.2383	   3.72189	
   10.2569	0.000156767	   10.2959	 0.0001491	   10.2813	0.000149296	    10.278	0.000151721	    10.278	   3.79303	
   10.2963	0.00015962	   10.3353	0.000151981	   10.3205	0.000152231	   10.3174	0.000154611	   10.3174	   3.86526	
   10.3353	0.000162329	    10.374	0.00015482	   10.3593	0.000155282	   10.3562	0.000157477	   10.3562	   3.93693	
   10.3738	0.000165024	   10.4123	0.000157613	   10.3976	0.000158337	   10.3945	0.000160324	   10.3945	   4.00811	
   10.4116	0.000167835	   10.4501	0.000160494	   10.4353	0.000161238	   10.4323	0.000163189	   10.4323	   4.07972	
    10.449	0.000170551	   10.4876	0.000163336	   10.4727	0.000164295	   10.4698	0.000166061	   10.4698	   4.15152	
    10.486	0.000173249	   10.5249	0.000166165	   10.5097	0.000167297	   10.5069	0.000168904	   10.5069	   4.22259	
   10.5227	0.000176032	   10.5617	0.00016906	   10.5464	0.000170165	   10.5436	0.000171752	   10.5436	   4.29381	
    10.559	 0.0001787	   10.5982	0.000171957	   10.5827	0.000173147	     10.58	0.000174601	     10.58	   4.36503	
   10.5949	0.00018136	   10.6343	0.000174744	   10.6186	0.000176085	   10.6159	0.000177396	   10.6159	   4.43491	
   10.6303	0.000184135	   10.6699	0.000177611	   10.6538	0.000178917	   10.6513	0.000180221	   10.6513	   4.50553	
   10.6651	0.000186773	   10.7051	0.000180539	   10.6887	0.000181823	   10.6863	0.000183045	   10.6863	   4.57613	
   10.6994	0.000189388	   10.7398	0.000183338	   10.7232	0.000184698	   10.7208	0.000185808	   10.7208	    4.6452	
   10.7333	0.000192036	   10.7742	0.000186248	   10.7574	0.000187464	    10.755	0.000188583	    10.755	   4.71456	
    10.767	0.000194644	   10.8082	0.000189155	   10.7914	0.000190226	   10.7889	0.000191342	   10.7889	   4.78354	
   10.8003	0.000197188	   10.8418	0.000191998	   10.8249	0.000192976	   10.8223	0.000194054	   10.8223	   4.85135	
   10.8335	0.000199707	   10.8747	0.000194938	    10.858	0.000195698	   10.8554	0.000196781	   10.8554	   4.91953	
   10.8659	0.000202319	   10.9071	0.000197863	   10.8905	0.000198295	   10.8878	0.000199493	   10.8878	   4.98731	
    10.898	0.000204738	    10.939	0.000200708	   10.9224	0.00020098	   10.9198	0.000202142	   10.9198	   5.05355	
   10.9296	0.000207125	   10.9705	0.000203632	   10.9538	0.000203582	   10.9513	0.000204779	   10.9513	   5.11949	
   10.9607	0.000209572	   11.0016	0.000206553	   10.9847	0.000206127	   10.9823	0.000207418	   10.9823	   5.18544	
   10.9913	0.000211981	   11.0325	0.000209407	   11.0154	0.000208753	   11.0131	0.000210047	   11.0131	   5.25117	
   11.0216	0.000214298	    11.063	0.000212304	   11.0457	0.000211339	   11.0434	0.000212647	   11.0434	   5.31618	
   11.0514	0.000216648	   11.0931	0.000215194	   11.0757	0.000213829	   11.0734	0.000215224	   11.0734	   5.38059	
   11.0809	0.000218958	   11.1227	0.000218043	   11.1053	0.000216291	   11.1029	0.000217764	   11.1029	    5.4441	
     11.11	0.000221175	   11.1517	0.000220889	   11.1343	0.000218715	    11.132	0.00022026	    11.132	   5.50649	
   11.1386	0.000223413	   11.1801	0.000223729	   11.1629	0.000221096	   11.1605	0.000222746	   11.1605	   5.56865	
   11.1666	0.000225653	    11.208	0.000226623	   11.1908	0.000223408	   11.1885	0.000225228	   11.1885	    5.6307	
   11.1941	0.000227834	   11.2354	0.000229363	   11.2181	0.000225719	   11.2159	0.000227639	   11.2159	   5.69096	
    11.221	0.000230027	   11.2624	0.000232216	   11.2449	0.000228018	   11.2427	0.000230087	   11.2427	   5.75218	
   11.2473	0.000232129	   11.2892	0.000235099	   11.2713	0.000230191	   11.2692	0.000232473	   11.2692	   5.81183	
   11.2731	0.000234311	   11.3155	0.000237837	   11.2973	0.000232331	   11.2953	0.000234826	   11.2953	   5.87066	
   11.2985	0.000236481	   11.3415	0.000240622	   11.3229	0.000234557	    11.321	0.00023722	    11.321	   5.93051	
   11.3236	0.000238519	   11.3668	0.000243439	    11.348	0.000236716	   11.3462	0.000239558	   11.3462	   5.98895	
   11.3485	0.000240641	   11.3918	0.000246077	   11.3728	0.000238834	    11.371	0.000241851	    11.371	   6.04626	
    11.373	0.000242728	   11.4163	0.000248794	   11.3972	0.000241002	   11.3955	0.000244175	   11.3955	   6.10437	
   11.3971	0.000244714	   11.4405	0.000251627	   11.4212	0.00024314	   11.4196	0.000246494	   11.4196	   6.16235	
   11.4208	0.000246795	   11.4641	0.000254242	   11.4446	0.000245245	   11.4432	0.000248761	   11.4432	   6.21902	
    11.444	0.00024879	   11.4873	0.000256936	   11.4676	0.000247379	   11.4663	0.000251035	   11.4663	   6.27587	
   11.4668	0.000250774	     11.51	0.000259672	     11.49	0.000249491	   11.4889	0.000253312	   11.4889	    6.3328	
   11.4889	0.000252788	   11.5322	0.000262219	   11.5118	0.000251576	    11.511	0.000255528	    11.511	   6.38819	
   11.5106	0.000254749	    11.554	0.000264833	   11.5332	0.000253731	   11.5326	0.000257771	   11.5326	   6.44427	
   11.5318	0.000256686	   11.5753	0.000267511	   11.5541	0.000255851	   11.5537	0.000260016	   11.5537	   6.50039	
   11.5526	0.000258655	   11.5962	0.000269988	   11.5747	0.000257935	   11.5745	0.000262193	   11.5745	   6.55482	
    11.573	0.000260541	   11.6168	0.000272528	   11.5949	0.000260073	   11.5949	0.000264381	   11.5949	   6.60952	
   11.5929	0.000262446	   11.6371	0.000275101	   11.6148	0.000262159	   11.6149	0.000266569	   11.6149	   6.66421	
   11.6125	0.000264382	   11.6571	0.000277519	   11.6343	0.000264195	   11.6346	0.000268699	   11.6346	   6.71747	
   11.6316	0.000266245	   11.6766	0.000279961	   11.6536	0.000266265	   11.6539	0.000270823	   11.6539	   6.77059	
   11.6504	0.000268156	   11.6958	0.000282411	   11.6725	0.000268271	   11.6729	0.000272946	   11.6729	   6.82365	
   11.6688	0.000270097	   11.7146	0.000284779	   11.6911	0.000270239	   11.6915	0.000275038	   11.6915	   6.87596	
   11.6868	0.00027197	   11.7329	0.000287132	   11.7094	0.000272311	   11.7097	0.000277138	   11.7097	   6.92844	
   11.7044	0.000273871	   11.7507	0.000289412	   11.7272	0.000274267	   11.7274	0.000279183	   11.7274	   6.97958	
   11.7216	0.000275797	    11.768	0.000291698	   11.7446	0.000276206	   11.7447	0.000281234	   11.7447	   7.03085	
   11.7384	0.000277665	   11.7848	0.000293991	   11.7615	0.000278236	   11.7616	0.000283297	   11.7616	   7.08243	
   11.7548	0.000279513	    11.801	0.000296239	    11.778	0.000280196	   11.7779	0.000285316	   11.7779	    7.1329	
   11.7707	0.000281428	   11.8167	0.00029845	    11.794	0.00028215	   11.7938	0.000287343	   11.7938	   7.18357	
   11.7863	0.000283343	   11.8318	0.000300653	   11.8094	0.000284237	   11.8092	0.000289411	   11.8092	   7.23528	
   11.8013	0.000285149	   11.8464	0.000302807	   11.8245	0.000286232	   11.8241	0.000291396	   11.8241	    7.2849	
   11.8159	0.000286993	   11.8605	0.000304942	    11.839	0.000288154	   11.8385	0.000293363	   11.8385	   7.33407	
     11.83	0.000288927	   11.8739	0.000307082	    11.853	0.000290169	   11.8523	0.000295393	   11.8523	   7.38482	
   11.8437	0.000290692	   11.8868	0.000309208	   11.8666	0.000292169	   11.8657	0.000297356	   11.8657	    7.4339	
   11.8568	0.000292569	   11.8991	0.000311245	   11.8795	0.00029405	   11.8785	0.000299288	   11.8785	    7.4822	
   11.8695	0.000294399	   11.9109	0.000313343	   11.8919	0.000296032	   11.8908	0.000301258	   11.8908	   7.53145	
   11.8816	0.00029613	   11.9221	0.000315428	   11.9038	0.000298001	   11.9025	0.000303186	   11.9025	   7.57966	
   11.8933	0.000297936	   11.9328	0.000317431	   11.9151	0.000299859	   11.9137	0.000305075	   11.9137	   7.62688	
   11.9045	0.000299668	   11.9429	0.000319455	   11.9259	0.000301865	   11.9244	0.000306996	   11.9244	    7.6749	
   11.9151	0.000301316	   11.9525	0.000321472	   11.9362	0.000303802	   11.9346	0.000308863	   11.9346	   7.72159	
   11.9253	0.000303033	   11.9616	0.000323456	    11.946	0.000305632	   11.9443	0.000310707	   11.9443	   7.76768	
    11.935	0.000304725	   11.9701	0.000325428	   11.9552	0.000307617	   11.9534	0.00031259	   11.9534	   7.81476	
   11.9442	0.000306357	   11.9782	0.000327384	   11.9639	0.000309547	   11.9621	0.000314429	   11.9621	   7.86074	
    11.953	0.000308031	   11.9857	0.000329313	   11.9721	0.000311392	   11.9703	0.000316245	   11.9703	   7.90613	
   11.9612	0.000309695	   11.9928	0.000331236	   11.9799	0.000313342	    11.978	0.000318091	    11.978	   7.95228	
    11.969	0.000311295	   11.9994	0.000333144	   11.9871	0.000315255	   11.9852	0.000319898	   11.9852	   7.99745	
   11.9764	0.000312914	   12.0057	0.000335054	    11.994	0.000317097	    11.992	0.000321688	    11.992	   8.04221	
   11.9833	0.000314527	   12.0115	0.000336943	   12.0003	0.000319019	   11.9984	0.000323497	   11.9984	   8.08741	
   11.9898	0.000316095	   12.0169	0.000338802	   12.0063	0.00032095	   12.0043	0.000325282	   12.0043	   8.13206	
   11.9957	0.000317663	   12.0218	0.000340669	   12.0118	0.000322802	   12.0098	0.000327045	   12.0098	   8.17612	
   12.0013	0.00031923	   12.0264	0.000342526	   12.0169	0.000324696	   12.0149	0.000328817	   12.0149	   8.22044	
   12.0064	0.000320755	   12.0306	0.000344262	   12.0216	0.000326609	   12.0195	0.000330542	   12.0195	   8.26355	
    12.011	0.000322284	   12.0347	0.000346063	   12.0259	0.000328455	   12.0239	0.000332267	   12.0239	   8.30668	
   12.0153	0.000323747	    12.038	0.000347918	   12.0298	0.00033033	   12.0277	0.000333998	   12.0277	   8.34996	
    12.019	0.000325239	   12.0411	0.000349643	   12.0334	0.000332222	   12.0311	0.000335702	   12.0311	   8.39254	
   12.0222	0.000326749	   12.0437	0.000351395	   12.0367	0.000334031	   12.0342	0.000337392	   12.0342	   8.43479	
   12.0247	0.000328199	    12.046	0.000353218	   12.0392	0.000335906	   12.0366	0.000339108	   12.0366	   8.47769	
   12.0266	0.000329629	    12.048	0.000354936	   12.0413	0.000337707	   12.0386	0.000340757	   12.0386	   8.51894	
   12.0277	0.000331127	   12.0497	0.000356638	   12.0429	0.00033946	   12.0401	0.000342408	   12.0401	    8.5602	
   12.0282	0.00033257	   12.0511	0.000358405	   12.0439	0.000341231	   12.0411	0.000344069	   12.0411	   8.60172	
   12.0281	0.00033396	   12.0519	0.000360118	   12.0444	0.000343022	   12.0414	 0.0003457	   12.0414	   8.64249	
   12.0273	0.000335418	   12.0522	0.00036179	   12.0441	0.000344728	   12.0412	0.000347312	   12.0412	    8.6828	
   12.0259	0.000336835	    12.052	0.000363496	   12.0432	0.000346417	   12.0404	0.000348916	   12.0404	    8.7229	
    12.024	0.000338203	   12.0511	0.000365159	   12.0417	0.000348138	    12.039	 0.0003505	    12.039	   8.76251	
   12.0217	0.000339619	   12.0496	0.000366783	   12.0397	0.00034985	    12.037	0.000352084	    12.037	    8.8021	
   12.0188	0.00034101	   12.0475	0.000368421	   12.0371	0.00035151	   12.0345	0.000353647	   12.0345	   8.84118	
   12.0157	0.000342367	   12.0449	0.000369981	   12.0341	0.000353173	   12.0316	0.000355174	   12.0316	   8.87934	
   12.0121	0.000343753	   12.0418	0.000371626	   12.0306	0.000354816	   12.0282	0.000356732	   12.0282	   8.91829	
   12.0083	0.000345109	   12.0383	0.000373202	   12.0267	0.000356406	   12.0244	0.000358239	   12.0244	   8.95597	
   12.0041	0.000346447	   12.0344	0.000374686	   12.0224	0.000358017	   12.0203	0.000359717	   12.0203	   8.99292	
   11.9997	0.000347809	   12.0299	0.000376277	   12.0177	0.00035963	   12.0158	0.000361239	   12.0158	   9.03097	
   11.9946	0.000349163	    12.025	0.000377838	   12.0127	0.000361178	   12.0108	0.000362726	   12.0108	   9.06816	
    11.989	0.000350494	   12.0196	0.000379276	   12.0073	0.000362719	   12.0053	0.000364163	   12.0053	   9.10407	
   11.9827	0.000351901	   12.0137	0.000380804	   12.0014	0.000364308	   11.9993	0.000365671	   11.9993	   9.14178	
   11.9758	0.000353254	   12.0074	0.000382296	    11.995	 0.0003658	   11.9927	0.000367116	   11.9927	   9.17791	
   11.9684	0.000354592	   12.0004	0.000383716	   11.9879	0.000367292	   11.9856	0.000368533	   11.9856	   9.21333	
   11.9605	0.000356002	   11.9931	0.000385196	   11.9803	0.000368819	   11.9779	0.000370006	   11.9779	   9.25015	
   11.9522	0.000357401	   11.9853	0.000386661	   11.9721	0.000370282	   11.9699	0.000371448	   11.9699	    9.2862	
   11.9435	0.000358776	   11.9772	0.000388064	   11.9636	0.000371751	   11.9614	0.000372864	   11.9614	    9.3216	
   11.9346	0.000360176	   11.9685	0.000389481	   11.9547	0.000373224	   11.9526	0.000374293	   11.9526	   9.35733	
   11.9253	0.000361548	   11.9594	0.000390859	   11.9454	0.000374666	   11.9434	0.000375691	   11.9434	   9.39228	
   11.9155	0.00036289	     11.95	0.000392212	   11.9356	0.000376143	   11.9337	0.000377082	   11.9337	   9.42705	
   11.9056	0.000364192	   11.9402	0.000393601	   11.9253	0.000377621	   11.9237	0.000378471	   11.9237	   9.46178	
   11.8948	0.000365625	     11.93	0.000394976	   11.9145	0.00037898	   11.9131	0.00037986	   11.9131	    9.4965	
   11.8837	0.000366959	   11.9192	0.000396219	   11.9033	0.000380336	   11.9021	0.000381171	   11.9021	   9.52928	
    11.872	0.000368256	   11.9079	0.00039759	   11.8918	0.00038174	   11.8906	0.000382529	   11.8906	   9.56322	
   11.8599	0.000369665	    11.896	0.000398904	   11.8799	0.000383097	   11.8786	0.000383889	   11.8786	   9.59722	
   11.8475	0.000370995	   11.8836	0.000400111	   11.8677	0.000384437	   11.8662	0.000385181	   11.8662	   9.62953	
   11.8347	0.000372285	   11.8708	0.00040144	   11.8549	0.000385799	   11.8535	0.000386508	   11.8535	   9.66269	
   11.8214	0.000373641	   11.8576	0.000402713	   11.8418	0.000387093	   11.8403	0.000387816	   11.8403	   9.69539	
   11.8075	0.00037492	   11.8442	0.000403862	   11.8282	0.000388406	   11.8266	0.000389063	   11.8266	   9.72657	
   11.7931	0.000376156	   11.8303	0.000405071	   11.8142	0.000389761	   11.8125	0.00039033	   11.8125	   9.75824	
   11.7781	0.000377435	   11.8159	 0.0004063	   11.7997	0.000391053	   11.7979	0.000391596	   11.7979	   9.78991	
   11.7626	0.000378624	   11.8008	0.000407439	   11.7847	0.000392352	   11.7827	0.000392805	   11.7827	   9.82012	
   11.7468	0.000379831	   11.7852	0.000408596	   11.7693	0.000393699	   11.7671	0.000394042	   11.7671	   9.85105	
   11.7306	0.000381048	   11.7691	0.000409809	   11.7534	0.00039499	   11.7511	0.000395283	   11.7511	   9.88206	
    11.714	0.000382205	   11.7527	0.000410944	   11.7372	0.000396245	   11.7346	0.000396465	   11.7346	   9.91162	
   11.6969	0.000383349	    11.736	0.000412118	   11.7205	0.000397533	   11.7178	0.000397667	   11.7178	   9.94168	
   11.6791	0.000384516	   11.7188	0.000413221	   11.7033	0.000398784	   11.7004	0.00039884	   11.7004	   9.97101	
   11.6608	0.000385678	   11.7011	0.000414374	   11.6856	0.000399993	   11.6825	0.000400015	   11.6825	   10.0004	
   11.6421	0.000386816	   11.6827	0.000415479	   11.6674	0.000401214	    11.664	0.00040117	    11.664	   10.0292	
   11.6231	0.000387954	   11.6639	0.000416556	   11.6487	0.000402404	   11.6452	0.000402304	   11.6452	   10.0576	
   11.6037	0.000389098	   11.6446	0.00041767	   11.6296	0.000403556	    11.626	0.000403441	    11.626	    10.086	
    11.584	0.000390233	   11.6251	0.000418738	   11.6101	0.000404716	   11.6064	0.000404562	   11.6064	   10.1141	
   11.5638	0.000391308	   11.6051	0.000419782	   11.5902	0.000405848	   11.5864	0.000405646	   11.5864	   10.1412	
    11.543	0.000392439	   11.5844	0.00042083	   11.5697	0.000406949	   11.5657	0.000406739	   11.5657	   10.1685	
   11.5218	0.000393565	   11.5632	0.000421855	   11.5486	0.000408048	   11.5445	0.000407822	   11.5445	   10.1956	
   11.5001	0.000394581	   11.5415	0.000422852	   11.5271	0.000409112	   11.5229	0.000408849	   11.5229	   10.2212	
   11.4781	0.000395637	   11.5195	0.000423845	   11.5053	0.000410168	    11.501	0.000409883	    11.501	   10.2471	
   11.4556	0.000396703	   11.4971	0.000424809	   11.4832	0.000411179	   11.4786	0.000410897	   11.4786	   10.2724	
   11.4325	0.000397777	   11.4743	0.000425759	   11.4604	0.000412157	   11.4558	0.000411898	   11.4558	   10.2974	
    11.409	0.000398775	    11.451	0.000426698	   11.4371	0.000413185	   11.4324	0.000412886	   11.4324	   10.3222	
   11.3851	0.000399776	   11.4271	0.000427602	   11.4132	0.000414151	   11.4085	0.000413843	   11.4085	   10.3461	
   11.3609	0.000400822	   11.4028	0.00042849	    11.389	0.00041509	   11.3842	 0.0004148	   11.3842	     10.37	
   11.3362	0.000401794	   11.3782	0.000429333	   11.3644	0.000416067	   11.3596	0.000415731	   11.3596	   10.3933	
   11.3109	0.00040282	   11.3531	0.000430153	   11.3394	0.000416988	   11.3345	0.000416654	   11.3345	   10.4163	
   11.2851	0.000403856	   11.3276	0.000430999	   11.3136	0.000417877	   11.3088	0.000417577	   11.3088	   10.4394	
   11.2589	0.000404842	   11.3015	0.000431799	   11.2874	0.000418803	   11.2826	0.000418481	   11.2826	    10.462	
   11.2324	0.000405856	    11.275	0.000432577	   11.2608	0.00041968	   11.2561	0.000419371	   11.2561	   10.4843	
   11.2053	0.000406839	   11.2481	0.000433373	   11.2339	0.000420507	   11.2291	0.00042024	   11.2291	    10.506	
   11.1777	0.000407808	   11.2211	0.000434167	   11.2065	0.000421423	   11.2018	0.000421133	   11.2018	   10.5283	
   11.1496	0.000408766	   11.1935	0.000434905	   11.1785	0.000422308	   11.1739	0.000421993	   11.1739	   10.5498	
   11.1211	0.000409698	   11.1655	0.00043562	   11.1501	0.000423036	   11.1456	0.000422784	   11.1456	   10.5696	
   11.0923	0.000410617	    11.137	0.000436344	   11.1213	0.000423856	   11.1169	0.000423606	   11.1169	   10.5902	
   11.0632	0.00041153	   11.1081	0.000437004	   11.0922	0.00042465	   11.0878	0.000424395	   11.0878	   10.6099	
   11.0335	0.000412428	   11.0787	0.000437669	   11.0626	0.00042532	   11.0583	0.000425139	   11.0583	   10.6285	
   11.0035	0.000413286	   11.0486	0.000438367	   11.0325	0.000426033	   11.0282	0.000425895	   11.0282	   10.6474	
    10.973	0.000414142	   11.0181	0.000439006	   11.0019	0.000426708	   10.9977	0.000426619	   10.9977	   10.6655	
   10.9422	0.000414981	   10.9871	0.000439646	    10.971	0.000427286	   10.9668	0.000427304	   10.9668	   10.6826	
   10.9113	0.000415748	   10.9558	0.000440299	   10.9397	0.000427886	   10.9356	0.000427978	   10.9356	   10.6994	
   10.8794	0.000416604	   10.9239	0.000440878	   10.9078	0.000428445	   10.9037	0.000428642	   10.9037	   10.7161	
   10.8472	0.000417293	   10.8914	0.000441517	   10.8755	0.000428932	   10.8713	0.000429247	   10.8713	   10.7312	
   10.8145	0.000418026	   10.8585	0.000442113	   10.8428	0.000429453	   10.8386	0.000429864	   10.8386	   10.7466	
   10.7815	0.000418785	   10.8253	0.000442634	   10.8097	0.000429934	   10.8055	0.000430451	   10.8055	   10.7613	
   10.7479	0.000419395	   10.7916	0.000443214	   10.7761	0.000430333	   10.7719	0.000430981	   10.7719	   10.7745	
   10.7138	0.000420064	   10.7573	0.000443723	    10.742	0.000430765	   10.7377	0.000431517	   10.7377	   10.7879	
   10.6794	0.000420795	   10.7226	0.000444177	   10.7075	0.000431214	   10.7032	0.000432062	   10.7032	   10.8015	
   10.6446	0.000421404	   10.6876	0.000444637	   10.6728	0.000431599	   10.6684	0.000432547	   10.6684	   10.8137	
   10.6092	0.000421988	   10.6523	0.000445114	   10.6376	0.000431998	    10.633	0.000433033	    10.633	   10.8258	
   10.5734	0.000422609	   10.6164	0.000445514	   10.6019	0.000432408	   10.5972	0.00043351	   10.5972	   10.8378	
   10.5372	0.000423142	   10.5801	0.000445931	   10.5658	0.000432718	    10.561	0.00043393	    10.561	   10.8483	
   10.5008	0.000423631	   10.5435	0.000446369	   10.5294	0.000433099	   10.5246	0.000434366	   10.5246	   10.8592	
   10.4638	0.000424143	   10.5066	0.000446706	   10.4926	0.000433464	   10.4877	0.000434771	   10.4877	   10.8693	
   10.4264	0.000424689	   10.4693	0.000447101	   10.4552	0.000433798	   10.4503	0.000435196	   10.4503	   10.8799	
   10.3887	0.000425091	   10.4316	0.000447517	   10.4175	0.000434171	   10.4126	0.000435593	   10.4126	   10.8898	
   10.3507	0.000425477	   10.3932	0.00044787	   10.3795	0.000434509	   10.3745	0.000435952	   10.3745	   10.8988	
   10.3122	0.000425945	   10.3546	0.000448195	    10.341	0.000434829	   10.3359	0.000436323	   10.3359	   10.9081	
   10.2733	0.000426271	   10.3157	0.000448604	    10.302	0.000435188	    10.297	0.000436687	    10.297	   10.9172	
   10.2341	0.000426574	   10.2762	0.000448921	   10.2626	0.000435504	   10.2576	  0.000437	   10.2576	    10.925	
   10.1944	0.000426925	   10.2365	0.000449305	    10.223	0.000435692	    10.218	0.000437307	    10.218	   10.9327	
   10.1545	0.000427175	   10.1964	0.000449676	   10.1828	0.000436034	   10.1779	0.000437628	   10.1779	   10.9407	
   10.1141	0.000427436	   10.1558	0.000449924	   10.1422	0.000436336	   10.1374	0.000437898	   10.1374	   10.9475	
   10.0734	0.000427675	   10.1148	0.000450269	   10.1013	0.000436507	   10.0965	0.00043815	   10.0965	   10.9538	
   10.0322	0.000427848	   10.0736	0.000450598	   10.0601	0.000436804	   10.0553	0.000438416	   10.0553	   10.9604	
   9.99056	0.000428131	   10.0319	0.000450829	   10.0183	0.000437049	   10.0136	0.00043867	   10.0136	   10.9667	
   9.94858	0.000428361	   9.98972	0.000451111	    9.9761	0.000437191	   9.97147	0.000438888	   9.97147	   10.9722	
   9.90605	0.000428517	   9.94724	0.000451349	   9.93366	0.000437406	   9.92898	0.000439091	   9.92898	   10.9773	
   9.86327	0.000428706	   9.90442	0.000451542	   9.89083	0.000437596	   9.88617	0.000439281	   9.88617	    10.982	
   9.82009	0.000428913	   9.86104	0.000451751	   9.84751	0.000437692	   9.84288	0.000439452	   9.84288	   10.9863	
   9.77646	0.000429027	   9.81728	0.000451936	   9.80385	0.00043785	    9.7992	0.000439605	    9.7992	   10.9901	
   9.73243	0.000429157	   9.77323	0.000452116	   9.75983	0.000438006	   9.75517	0.00043976	   9.75517	    10.994	
   9.68796	0.000429328	   9.72867	0.000452308	   9.71532	0.000438104	   9.71065	0.000439913	   9.71065	   10.9978	
   9.64316	0.000429409	   9.68364	0.000452461	    9.6704	0.000438241	   9.66573	0.000440037	   9.66573	   11.0009	
   9.59813	0.00042944	   9.63835	0.00045258	   9.62519	0.000438357	   9.62055	0.000440126	   9.62055	   11.0031	
   9.55261	0.000429596	   9.59267	0.000452701	   9.57948	0.000438484	   9.57492	0.00044026	   9.57492	   11.0065	
   9.50668	0.000429641	   9.54649	0.000452791	   9.53328	0.000438652	   9.52881	0.000440361	   9.52881	    11.009	
   9.46052	0.000429663	   9.49994	0.000452841	   9.48681	0.000438782	   9.48242	0.000440428	   9.48242	   11.0107	
   9.41401	0.000429763	   9.45309	0.000452971	   9.44003	0.000438871	   9.43571	0.000440535	   9.43571	   11.0134	
   9.36701	0.000429867	   9.40574	0.000453037	   9.39275	0.000439018	    9.3885	0.000440641	    9.3885	    11.016	
   9.31974	0.000429785	   9.35801	0.00045307	   9.34513	0.000439176	   9.34096	0.000440677	   9.34096	   11.0169	
   9.27214	0.000429855	   9.30992	0.000453146	   9.29736	0.000439318	   9.29314	0.000440773	   9.29314	   11.0193	
   9.22401	0.000429951	   9.26152	0.000453152	    9.2491	0.00043946	   9.24487	0.000440854	   9.24487	   11.0214	
   9.17556	0.000429903	   9.21268	0.000453155	   9.20044	0.000439601	   9.19623	0.000440886	   9.19623	   11.0222	
   9.12688	0.000429945	   9.16357	0.000453181	   9.15156	0.000439748	   9.14734	0.000440958	   9.14734	    11.024	
   9.07773	0.000429961	   9.11411	0.000453134	   9.10215	0.000439926	     9.098	0.000441007	     9.098	   11.0252	
    9.0282	0.000429841	    9.0642	0.000453102	   9.05246	0.000440068	   9.04829	0.000441004	   9.04829	   11.0251	
    8.9784	0.000429785	   9.01404	0.000453078	   9.00247	0.000440204	    8.9983	0.000441022	    8.9983	   11.0256	
   8.92818	0.000429772	   8.96352	0.000452956	   8.95219	0.000440358	   8.94796	0.000441029	   8.94796	   11.0257	
   8.87759	0.000429661	   8.91249	0.000452865	   8.90148	0.000440547	   8.89719	0.000441024	   8.89719	   11.0256	
   8.82674	0.000429526	   8.86117	0.000452815	   8.85044	0.000440707	   8.84612	0.000441016	   8.84612	   11.0254	
   8.77542	0.000429432	   8.80952	0.00045268	   8.79902	0.000440905	   8.79465	0.000441005	   8.79465	   11.0251	
   8.72368	0.000429302	   8.75742	0.000452548	   8.74711	0.000441094	   8.74274	0.000440981	   8.74274	   11.0245	
   8.67167	0.000429159	   8.70505	0.000452476	   8.69492	0.000441225	   8.69055	0.000440953	   8.69055	   11.0238	
    8.6192	0.000429035	   8.65235	0.000452333	    8.6424	0.000441448	   8.63798	0.000440939	   8.63798	   11.0235	
   8.56633	0.000428885	   8.59925	0.00045217	   8.58941	0.000441636	     8.585	0.000440897	     8.585	   11.0224	
   8.51322	 0.0004287	     8.546	0.000451967	   8.53617	0.000441757	    8.5318	0.000440808	    8.5318	   11.0202	
   8.45968	0.000428508	   8.49223	0.00045184	   8.48256	0.000441933	   8.47816	0.00044076	   8.47816	    11.019	
   8.40574	0.000428319	   8.43822	0.000451641	    8.4285	0.000442112	   8.42415	0.000440691	   8.42415	   11.0173	
   8.35158	0.000428144	   8.38392	0.000451391	   8.37419	0.00044222	    8.3699	0.000440585	    8.3699	   11.0146	
   8.29698	0.000428007	   8.32932	0.000451225	    8.3196	0.000442334	    8.3153	0.000440522	    8.3153	    11.013	
   8.24199	0.000427798	   8.27424	0.000450985	   8.26459	0.000442471	   8.26027	0.000440418	   8.26027	   11.0104	
   8.18675	0.000427484	   8.21889	0.000450748	   8.20932	0.000442544	   8.20499	0.000440259	   8.20499	   11.0065	
   8.13111	0.000427336	   8.16326	0.000450574	   8.15374	0.000442613	   8.14937	0.000440174	   8.14937	   11.0044	
   8.07511	0.000427127	   8.10718	0.00045028	   8.09772	0.000442752	   8.09334	0.000440053	   8.09334	   11.0013	
   8.01886	0.000426769	   8.05085	0.000450005	   8.04147	0.000442782	   8.03706	0.000439852	   8.03706	   10.9963	
   7.96227	 0.0004265	   7.99423	0.000449847	   7.98489	0.000442821	   7.98046	0.000439723	   7.98046	   10.9931	
   7.90534	0.000426219	   7.93719	0.000449488	   7.92789	0.000442896	   7.92347	0.000439535	   7.92347	   10.9884	
   7.84816	0.000425853	   7.87993	0.000449188	   7.87073	0.000442877	   7.86627	0.000439306	   7.86627	   10.9826	
   7.79058	0.000425567	    7.8224	0.000448949	   7.81322	0.000442857	   7.80874	0.000439124	   7.80874	   10.9781	
   7.73272	0.000425273	   7.76445	0.000448611	   7.75532	0.000442892	   7.75083	0.000438926	   7.75083	   10.9731	
   7.67464	0.000424912	   7.70634	0.000448219	    7.6972	0.000442767	   7.69273	0.000438633	   7.69273	   10.9658	
   7.61619	0.000424604	   7.64784	0.000447942	   7.63893	0.000442758	   7.63432	0.000438435	   7.63432	   10.9609	
    7.5575	0.000424297	   7.58898	0.000447604	   7.58029	0.000442678	   7.57559	0.000438193	   7.57559	   10.9548	
   7.49858	0.000423937	   7.52983	0.000447216	   7.52133	0.000442541	   7.51658	0.000437898	   7.51658	   10.9474	
   7.43923	0.000423612	   7.47024	0.00044691	   7.46207	0.000442466	   7.45718	0.000437663	   7.45718	   10.9416	
   7.37969	0.000423275	   7.41035	0.000446576	   7.40251	0.000442355	   7.39751	0.000437402	   7.39751	    10.935	
   7.31982	0.00042288	   7.35028	0.000446205	   7.34272	0.000442187	   7.33761	0.000437091	   7.33761	   10.9273	
   7.25957	0.000422499	   7.28986	0.000445889	   7.28252	0.000442102	   7.27732	0.00043683	   7.27732	   10.9208	
   7.19913	0.000422106	   7.22911	0.000445544	    7.2221	0.00044198	   7.21678	0.000436543	   7.21678	   10.9136	
   7.13836	0.000421708	    7.1682	0.000445105	   7.16138	0.00044178	   7.15598	0.000436198	   7.15598	   10.9049	
   7.07727	0.000421258	   7.10707	0.000444749	   7.10029	0.000441651	   7.09488	0.000435886	   7.09488	   10.8972	
   7.01604	0.00042081	   7.04577	0.000444414	   7.03905	0.000441497	   7.03362	0.000435574	   7.03362	   10.8893	
   6.95447	0.000420353	   6.98419	0.000443922	   6.97746	0.00044126	   6.97204	0.000435178	   6.97204	   10.8795	
   6.89264	0.000419853	   6.92233	0.00044351	   6.91556	0.000441065	   6.91018	0.00043481	   6.91018	   10.8702	
   6.83062	0.00041937	   6.86031	0.000443059	   6.85353	0.000440848	   6.84815	0.000434426	   6.84815	   10.8606	
   6.76822	0.000418881	   6.79784	0.000442521	   6.79106	0.000440547	   6.78571	0.000433983	   6.78571	   10.8496	
   6.70566	0.000418364	    6.7351	0.000442063	   6.72834	0.000440293	   6.72303	0.000433573	   6.72303	   10.8393	
   6.64278	0.000417827	   6.67225	0.000441551	   6.66533	0.000440015	   6.66012	0.000433131	   6.66012	   10.8283	
   6.57958	 0.0004173	   6.60899	0.000441034	   6.60196	0.000439702	   6.59684	0.000432679	   6.59684	    10.817	
   6.51624	0.00041675	   6.54555	0.00044046	   6.53843	0.000439438	   6.53341	0.000432216	   6.53341	   10.8054	
   6.45293	0.000416197	   6.48183	0.000439839	   6.47459	0.000439136	   6.46978	0.000431724	   6.46978	   10.7931	
   6.38899	0.000415689	   6.41778	0.00043918	   6.41046	0.000438799	   6.40574	0.000431223	   6.40574	   10.7806	
   6.32499	0.000415047	   6.35357	0.000438455	   6.34626	0.000438463	    6.3416	0.000430655	    6.3416	   10.7664	
    6.2606	0.000414484	   6.28896	0.000437717	   6.28172	0.000438102	   6.27709	0.000430101	   6.27709	   10.7525	
   6.19607	0.000413923	   6.22412	0.000436963	   6.21696	0.000437749	   6.21238	0.000429545	   6.21238	   10.7386	
   6.13129	0.000413217	   6.15907	0.000436118	   6.15195	0.000437351	   6.14743	0.000428896	   6.14743	   10.7224	
   6.06623	0.000412632	   6.09365	0.000435267	   6.08663	0.000436884	   6.08217	0.000428261	   6.08217	   10.7065	
   6.00107	0.000412049	   6.02811	0.000434454	   6.02098	0.000436396	   6.01672	0.000427633	   6.01672	   10.6908	
   5.93562	0.000411346	   5.96221	0.000433539	   5.95526	0.000435845	   5.95103	0.00042691	   5.95103	   10.6728	
   5.86996	0.000410741	   5.89606	0.000432651	   5.88952	0.000435362	   5.88518	0.000426252	   5.88518	   10.6563	
   5.80411	0.000410158	    5.8298	0.000431726	   5.82343	0.000434861	   5.81911	0.000425582	   5.81911	   10.6395	
   5.73791	0.000409478	    5.7632	0.000430783	   5.75709	0.000434281	   5.75273	0.000424847	   5.75273	   10.6212	
   5.67159	0.000408863	   5.69645	0.000429803	    5.6906	0.000433718	   5.68621	0.000424128	   5.68621	   10.6032	
   5.60497	0.000408223	   5.62944	0.00042878	   5.62375	0.000433128	   5.61939	0.000423377	   5.61939	   10.5844	
   5.53812	0.000407525	   5.56215	0.000427716	   5.55666	0.00043248	   5.55231	0.000422573	   5.55231	   10.5643	
   5.47117	0.000406893	   5.49477	0.000426641	   5.48943	0.000431859	   5.48513	0.000421798	   5.48513	    10.545	
   5.40389	0.000406226	   5.42703	0.000425465	   5.42191	0.000431221	   5.41761	0.000420971	   5.41761	   10.5243	
   5.33649	0.000405497	   5.35913	0.000424323	   5.35424	0.000430519	   5.34995	0.000420113	   5.34995	   10.5028	
   5.26886	0.000404768	   5.29097	0.000423138	   5.28637	0.000429842	   5.28207	0.000419249	   5.28207	   10.4812	
   5.20096	0.000404038	   5.22255	0.000421856	   5.21821	0.000429136	   5.21391	0.000418343	   5.21391	   10.4586	
   5.13296	0.000403301	   5.15405	 0.0004206	   5.14997	0.000428378	   5.14566	0.000417426	   5.14566	   10.4357	
   5.06458	0.000402557	   5.08527	0.000419356	   5.08149	0.00042764	   5.07711	0.000416518	   5.07711	   10.4129	
   4.99606	0.000401801	   5.01634	0.000418027	   5.01281	0.000426881	    5.0084	0.00041557	    5.0084	   10.3892	
   4.92732	0.000401021	   4.94728	0.000416702	   4.94396	0.000426093	   4.93952	0.000414605	   4.93952	   10.3651	
   4.85833	0.000400199	   4.87792	0.00041541	   4.87484	0.00042531	   4.87036	0.00041364	   4.87036	    10.341	
   4.78926	0.000399352	   4.80852	0.00041406	   4.80561	0.000424508	   4.80113	0.00041264	   4.80113	    10.316	
      4.72	0.000398579	   4.73881	0.000412695	   4.73604	0.000423642	   4.73162	0.000411639	   4.73162	    10.291	
   4.65053	0.000397777	   4.66895	0.000411344	   4.66632	0.000422798	   4.66193	0.00041064	   4.66193	    10.266	
   4.58092	0.000396882	   4.59887	0.000409935	   4.59641	0.000422002	   4.59207	0.000409606	   4.59207	   10.2402	
   4.51113	0.000396063	   4.52854	0.000408497	   4.52623	0.000421104	   4.52197	0.000408555	   4.52197	   10.2139	
   4.44128	0.000395263	   4.45816	0.000407098	   4.45593	0.000420274	   4.45179	0.000407545	   4.45179	   10.1886	
   4.37107	0.000394373	   4.38747	0.000405653	   4.38532	0.000419367	   4.38129	0.000406465	   4.38129	   10.1616	
   4.30073	0.000393516	   4.31667	0.000404153	   4.31459	0.000418431	   4.31066	0.000405367	   4.31066	   10.1342	
   4.23015	0.00039268	   4.24562	0.000402713	   4.24367	0.000417544	   4.23981	0.000404312	   4.23981	   10.1078	
   4.15934	0.000391778	   4.17433	0.000401252	   4.17255	0.000416622	   4.16874	0.000403218	   4.16874	   10.0804	
   4.08847	0.000390872	   4.10298	0.00039972	   4.10134	0.000415612	    4.0976	0.000402068	    4.0976	   10.0517	
   4.01729	0.000389943	   4.03137	0.000398235	   4.02989	0.000414644	   4.02618	0.000400941	   4.02618	   10.0235	
     3.946	0.000388979	   3.95967	0.000396745	   3.95834	0.000413674	   3.95467	0.000399799	   3.95467	   9.99498	
   3.87451	  0.000388	   3.88783	0.000395181	   3.88656	0.000412618	   3.88297	0.000398599	   3.88297	   9.96498	
   3.80284	0.000387009	    3.8158	0.000393692	   3.81463	 0.0004116	   3.81109	0.000397434	   3.81109	   9.93585	
    3.7311	0.000385976	    3.7438	0.000392056	   3.74271	0.00041056	    3.7392	0.000396197	    3.7392	   9.90493	
   3.65906	0.00038494	   3.67141	0.000390474	   3.67048	0.000409439	   3.66698	0.000394951	   3.66698	   9.87378	
   3.58697	0.000383853	   3.59891	0.000389011	   3.59821	0.000408386	    3.5947	0.00039375	    3.5947	   9.84375	
   3.51473	0.000382772	   3.52629	0.000387428	    3.5258	0.000407282	   3.52227	0.000392494	   3.52227	   9.81236	
   3.44235	0.000381623	   3.45351	0.000385889	   3.45323	0.000406075	    3.4497	0.000391196	    3.4497	    9.7799	
   3.36995	0.000380426	   3.38067	0.000384426	   3.38065	0.000404966	   3.37709	0.000389939	   3.37709	   9.74849	
   3.29727	0.000379251	   3.30759	0.000382881	   3.30783	0.00040377	   3.30423	0.000388634	   3.30423	   9.71585	
   3.22458	0.000378019	   3.23449	0.000381352	   3.23495	0.000402504	   3.23134	0.000387291	   3.23134	   9.68228	
   3.15166	0.00037675	   3.16123	0.000379865	   3.16191	0.000401305	   3.15827	0.000385973	   3.15827	   9.64933	
   3.07879	0.000375547	   3.08787	0.000378325	   3.08874	0.000400052	   3.08513	0.000384641	   3.08513	   9.61603	
    3.0057	0.00037423	   3.01437	 0.0003768	   3.01551	0.000398742	   3.01186	0.000383257	   3.01186	   9.58143	
   2.93235	0.000372862	   2.94069	0.000375309	   2.94205	0.000397457	   2.93836	0.000381876	   2.93836	    9.5469	
   2.85901	0.000371587	   2.86699	0.000373776	   2.86853	0.000396142	   2.86484	0.000380501	   2.86484	   9.51254	
   2.78551	0.000370224	   2.79299	0.000372301	   2.79482	0.00039475	   2.79111	0.000379092	   2.79111	   9.47729	
   2.71196	0.000368829	   2.71894	0.00037081	   2.72105	0.000393357	   2.71732	0.000377665	   2.71732	   9.44163	
   2.63826	0.000367475	   2.64477	0.000369288	   2.64722	0.000391978	   2.64342	0.000376247	   2.64342	   9.40618	
    2.5644	0.000366063	   2.57044	0.000367815	   2.57322	0.000390531	   2.56935	0.000374803	   2.56935	   9.37008	
   2.49055	0.000364629	   2.49612	0.000366288	   2.49921	0.00038904	   2.49529	0.000373319	   2.49529	   9.33298	
   2.41647	0.00036325	    2.4217	0.000364779	   2.42497	0.000387586	   2.42104	0.000371872	   2.42104	   9.29679	
   2.34237	0.000361782	   2.34729	0.000363281	   2.35069	0.000386088	   2.34678	0.000370384	   2.34678	    9.2596	
   2.26822	0.00036038	   2.27285	0.000361762	   2.27628	0.000384552	   2.27245	0.000368898	   2.27245	   9.22246	
   2.19395	0.000359006	   2.19834	0.000360244	   2.20175	0.000383014	   2.19801	0.000367421	   2.19801	   9.18553	
   2.11967	0.000357522	   2.12387	0.00035877	   2.12724	0.000381441	   2.12359	0.000365911	   2.12359	   9.14778	
   2.04517	0.000356119	   2.04927	0.000357248	   2.05255	0.00037981	     2.049	0.000364392	     2.049	   9.10981	
    1.9707	0.000354683	   1.97443	0.000355699	   1.97787	0.000378223	   1.97433	0.000362868	   1.97433	    9.0717	
    1.8961	0.000353282	   1.89965	0.000354127	     1.903	0.000376628	   1.89958	0.000361346	   1.89958	   9.03365	
   1.82144	0.000351858	   1.82488	0.000352544	   1.82808	0.000374942	    1.8248	0.000359781	    1.8248	   8.99453	
   1.74685	0.000350437	   1.75012	0.000351004	   1.75314	0.000373268	   1.75003	0.000358236	   1.75003	   8.95591	
    1.6721	0.000349036	   1.67505	0.000349409	   1.67804	0.000371619	   1.67506	0.000356688	   1.67506	   8.91719	
   1.59742	0.000347565	   1.59991	0.00034774	   1.60296	0.000369883	    1.6001	0.000355063	    1.6001	   8.87657	
   1.52255	0.000346122	   1.52469	0.000346157	   1.52777	0.000368146	     1.525	0.000353475	     1.525	   8.83687	
   1.44765	0.000344685	   1.44946	0.000344478	   1.45257	0.000366425	   1.44989	0.000351863	   1.44989	   8.79657	
   1.37283	0.000343214	   1.37421	0.000342704	   1.37731	0.000364641	   1.37478	0.000350186	   1.37478	   8.75466	
   1.29792	0.000341765	   1.29886	0.000341069	   1.30198	0.000362806	   1.29959	0.000348547	   1.29959	   8.71366	
   1.22278	0.000340271	   1.22357	0.000339333	   1.22682	0.000360981	   1.22439	0.000346862	   1.22439	   8.67154	
   1.14764	0.00033871	   1.14817	0.000337493	   1.15128	0.000359157	   1.14903	0.00034512	   1.14903	     8.628	
    1.0726	0.000337229	   1.07283	0.000335795	    1.0758	0.00035715	   1.07375	0.000343391	   1.07375	   8.58478	
  0.997412	0.000335781	  0.997491	0.000333976	   1.00012	0.000355239	  0.998342	0.000341665	  0.998342	   8.54164	
  0.922105	0.000334111	  0.922095	0.000332075	  0.924421	0.000353291	  0.922874	0.000339826	  0.922874	   8.49564	
  0.846869	0.000332558	  0.846728	0.000330276	  0.848649	0.000351224	  0.847415	0.000338019	  0.847415	   8.45048	
  0.771631	0.000331002	  0.771219	0.000328379	  0.772771	0.000349258	  0.771874	0.000336213	  0.771874	   8.40533	
  0.696462	0.000329306	  0.695777	0.000326434	  0.696994	0.000347215	  0.696411	0.000334318	  0.696411	   8.35796	
  0.621285	0.000327628	  0.620181	0.000324559	  0.621024	0.000345132	   0.62083	0.00033244	   0.62083	   8.31099	
  0.546077	0.000325992	  0.544593	0.000322542	  0.545097	0.000343109	  0.545255	0.000330548	  0.545255	   8.26369	
  0.470891	0.000324192	  0.468967	0.000320517	  0.469337	0.000341025	  0.469732	0.000328578	  0.469732	   8.21445	
  0.395557	0.000322407	  0.393235	0.000318567	  0.393515	0.000338912	  0.394102	0.000326629	  0.394102	   8.16572	
  0.320307	0.000320759	  0.317581	0.000316512	  0.317785	0.000336838	  0.318558	0.000324703	  0.318558	   8.11758	
  0.244944	0.000318836	  0.241832	0.000314413	  0.241951	0.000334717	  0.242909	0.000322655	  0.242909	   8.06638	
  0.169599	0.000316949	  0.166145	0.000312331	  0.166193	0.000332566	  0.167312	0.000320615	  0.167312	   8.01538	
 0.0943011	0.000315138	 0.0904471	0.000310189	 0.0904623	0.000330405	 0.0917368	0.000318577	 0.0917368	   7.96443	
 0.0189264	0.00031321	 0.0146946	0.000308034	 0.0146873	0.000328187	 0.0161028	0.000316477	 0.0161028	   7.91192	
-0.0563939	0.000311293	-0.0609568	0.000305849	-0.0610508	0.000325961	-0.0594672	0.000314368	-0.0594672	    7.8592	
  -0.13188	0.000309377	 -0.136682	0.000303591	 -0.136847	0.000323772	 -0.135136	0.000312247	 -0.135136	   7.80617	
 -0.207348	0.000307372	 -0.212303	0.000301329	 -0.212573	0.000321523	 -0.210741	0.000310075	 -0.210741	   7.75187	
 -0.282795	0.000305365	 -0.287969	0.000299069	 -0.288303	0.00031922	 -0.286356	0.000307885	 -0.286356	   7.69712	
 -0.358268	0.000303353	 -0.363651	0.000296721	 -0.364035	0.000316952	 -0.361985	0.000305675	 -0.361985	   7.64188	
 -0.433641	0.000301258	 -0.439246	0.000294328	 -0.439664	0.000314637	 -0.437517	0.000303408	 -0.437517	   7.58519	
 -0.509089	0.000299178	 -0.514926	0.000291932	 -0.515319	0.000312269	 -0.513111	0.000301127	 -0.513111	   7.52816	
  -0.58446	0.000297065	 -0.590488	0.000289415	 -0.590873	0.000309896	 -0.588607	0.000298792	 -0.588607	    7.4698	
 -0.659851	0.000294848	 -0.666325	0.000286976	 -0.666526	0.000307526	 -0.664234	0.00029645	 -0.664234	   7.41125	
  -0.73526	0.000292705	 -0.742043	0.000284449	 -0.742065	0.000305063	  -0.73979	0.000294072	  -0.73979	   7.35181	
 -0.810584	0.000290539	 -0.817772	0.000281861	 -0.817525	0.000302702	 -0.815294	0.000291701	 -0.815294	   7.29252	
 -0.885972	0.00028824	  -0.89353	0.000279268	 -0.892905	0.000300254	 -0.890803	0.000289254	 -0.890803	   7.23135	
 -0.961225	0.000285994	 -0.969144	0.000276609	 -0.968313	0.000297727	 -0.966227	0.000286776	 -0.966227	   7.16941	
   -1.0365	0.00028383	  -1.04477	0.000273895	  -1.04372	0.000295295	  -1.04166	0.00028434	  -1.04166	    7.1085	
  -1.11176	0.000281467	   -1.1203	0.000271176	  -1.11905	0.000292804	  -1.11703	0.000281816	  -1.11703	    7.0454	
  -1.18691	0.000279251	  -1.19569	0.000268436	  -1.19425	0.000290245	  -1.19229	0.000279311	  -1.19229	   6.98277	
  -1.26217	0.000277034	  -1.27111	0.000265637	  -1.26949	0.000287724	  -1.26759	0.000276798	  -1.26759	   6.91996	
  -1.33728	0.00027466	  -1.34639	0.000262834	  -1.34458	0.000285236	  -1.34275	0.000274243	  -1.34275	   6.85608	
  -1.41242	0.000272394	  -1.42174	0.00026002	  -1.41969	0.000282671	  -1.41795	0.000271695	  -1.41795	   6.79237	
  -1.48752	0.00027014	  -1.49701	0.00025716	  -1.49473	0.000280133	  -1.49309	0.000269145	  -1.49309	   6.72861	
  -1.56262	0.000267745	  -1.57211	0.000254206	   -1.5697	0.000277626	  -1.56814	0.000266526	  -1.56814	   6.66314	
  -1.63771	0.000265383	  -1.64726	0.000251361	  -1.64465	0.00027503	  -1.64321	0.000263925	  -1.64321	   6.59812	
  -1.71262	0.000263058	  -1.72224	0.000248424	  -1.71948	0.000272495	  -1.71811	0.000261325	  -1.71811	   6.53313	
  -1.78756	0.00026067	  -1.79724	0.000245423	  -1.79426	0.000269935	  -1.79302	0.000258676	  -1.79302	    6.4669	
  -1.86245	0.000258266	  -1.87216	0.000242521	  -1.86898	0.000267372	  -1.86786	0.000256053	  -1.86786	   6.40133	
  -1.93713	0.000255864	  -1.94689	0.000239548	  -1.94352	0.000264801	  -1.94252	0.000253404	  -1.94252	   6.33511	
  -2.01186	0.000253399	  -2.02164	0.000236664	  -2.01809	0.000262205	   -2.0172	0.000250756	   -2.0172	    6.2689	
  -2.08644	0.000250898	  -2.09622	0.000233682	  -2.09247	0.000259581	  -2.09171	0.000248054	  -2.09171	   6.20134	
    -2.161	0.000248407	  -2.17073	0.000230711	  -2.16682	0.00025695	  -2.16618	0.000245356	  -2.16618	    6.1339	
  -2.23553	0.000245861	  -2.24514	0.000227769	  -2.24112	0.000254311	  -2.24059	0.000242647	  -2.24059	   6.06617	
  -2.30987	0.00024329	  -2.31959	0.000224748	  -2.31532	0.000251607	  -2.31492	0.000239882	  -2.31492	   5.99705	
  -2.38426	0.000240736	  -2.39399	0.000221732	  -2.38951	0.000248919	  -2.38925	0.000237129	  -2.38925	   5.92823	
  -2.45848	0.00023814	  -2.46821	0.000218778	  -2.46355	0.000246239	  -2.46342	0.000234386	  -2.46342	   5.85964	
  -2.53255	0.000235538	  -2.54235	0.000215754	  -2.53755	0.000243482	  -2.53748	0.000231591	  -2.53748	   5.78978	
  -2.60658	0.00023295	  -2.61645	0.00021265	  -2.61151	0.00024076	  -2.61151	0.000228787	  -2.61151	   5.71967	
  -2.68041	0.000230278	   -2.6904	0.000209676	  -2.68527	0.000238052	  -2.68536	0.000226002	  -2.68536	   5.65005	
  -2.75416	0.000227651	  -2.76429	0.000206628	  -2.75907	0.000235284	  -2.75917	0.000223188	  -2.75917	   5.57969	
  -2.82779	0.000224968	  -2.83803	0.000203528	  -2.83262	0.000232582	  -2.83281	0.000220359	  -2.83281	   5.50898	
  -2.90126	0.000222223	  -2.91168	 0.0002005	  -2.90606	0.000229807	  -2.90633	0.00021751	  -2.90633	   5.43774	
  -2.97475	0.00021955	   -2.9853	0.000197441	  -2.97957	0.000227011	  -2.97988	0.000214667	  -2.97988	   5.36668	
  -3.04806	0.000216859	  -3.05871	0.000194367	   -3.0529	0.000224289	  -3.05322	0.000211839	  -3.05322	   5.29597	
  -3.12133	0.000214063	  -3.13207	0.000191285	  -3.12619	0.000221484	  -3.12653	0.000208944	  -3.12653	   5.22359	
  -3.19451	0.000211304	  -3.20529	0.000188276	  -3.19936	0.000218637	  -3.19972	0.000206072	  -3.19972	    5.1518	
  -3.26745	0.000208541	  -3.27833	0.000185219	  -3.27236	0.000215864	  -3.27271	0.000203208	  -3.27271	    5.0802	
  -3.34036	0.000205705	  -3.35139	0.00018209	  -3.34531	0.00021308	  -3.34568	0.000200292	  -3.34568	    5.0073	
  -3.41308	0.000202899	  -3.42421	0.000179051	  -3.41806	0.000210237	  -3.41845	0.000197396	  -3.41845	    4.9349	
  -3.48563	0.000200097	  -3.49693	0.000176003	  -3.49073	0.000207402	   -3.4911	0.000194501	   -3.4911	   4.86252	
   -3.5581	0.000197254	  -3.56958	 0.0001729	  -3.56332	0.000204558	  -3.56367	0.000191571	  -3.56367	   4.78927	
  -3.63028	0.000194346	    -3.642	0.00016985	  -3.63565	0.000201714	  -3.63598	0.000188636	  -3.63598	   4.71591	
  -3.70253	0.000191561	  -3.71438	0.000166786	  -3.70792	0.000198849	  -3.70827	0.000185732	  -3.70827	   4.64329	
  -3.77449	0.000188677	  -3.78658	0.00016374	  -3.78004	0.000195936	  -3.78037	0.000182785	  -3.78037	   4.56961	
  -3.84626	0.000185754	  -3.85846	0.000160676	  -3.85194	0.000193034	  -3.85222	0.000179821	  -3.85222	   4.49554	
  -3.91792	0.00018295	  -3.93034	0.000157665	  -3.92378	0.000190121	  -3.92401	0.000176912	  -3.92401	    4.4228	
   -3.9894	0.000180056	  -4.00198	0.000154686	  -3.99539	0.000187205	  -3.99559	0.000173982	  -3.99559	   4.34956	
  -4.06061	0.000177142	   -4.0735	0.000151593	  -4.06676	0.000184333	  -4.06696	0.000171023	  -4.06696	   4.27557	
  -4.13177	0.00017432	  -4.14492	0.000148517	  -4.13802	0.000181447	  -4.13824	0.000168094	  -4.13824	   4.20236	
  -4.20273	0.000171414	  -4.21613	0.000145506	    -4.209	0.000178543	  -4.20928	0.000165154	  -4.20928	   4.12886	
  -4.27352	0.000168481	  -4.28712	0.000142431	  -4.27982	0.000175677	  -4.28015	0.000162196	  -4.28015	    4.0549	
   -4.3442	0.000165626	  -4.35792	0.000139349	  -4.35054	0.000172791	  -4.35089	0.000159256	  -4.35089	   3.98139	
  -4.41464	0.000162728	  -4.42855	 0.0001363	  -4.42099	0.00016989	  -4.42139	0.000156306	  -4.42139	   3.90765	
  -4.48491	0.000159792	  -4.49894	0.000133251	  -4.49135	0.000167001	  -4.49173	0.000153348	  -4.49173	   3.83371	
  -4.55507	0.000156899	  -4.56911	0.000130211	  -4.56154	0.000164106	  -4.56191	0.000150405	  -4.56191	   3.76013	
  -4.62492	0.000153955	  -4.63896	0.000127183	   -4.6315	0.000161193	   -4.6318	0.000147444	   -4.6318	   3.68609	
  -4.69472	0.000151052	  -4.70877	0.000124197	  -4.70151	0.00015825	  -4.70167	 0.0001445	  -4.70167	   3.61249	
  -4.76433	0.000148222	  -4.77838	0.00012119	  -4.77131	0.00015535	  -4.77134	0.000141587	  -4.77134	   3.53968	
  -4.83365	0.000145352	  -4.84776	0.000118171	  -4.84085	0.000152418	  -4.84075	0.000138647	  -4.84075	   3.46618	
  -4.90291	0.000142525	  -4.91709	0.000115188	  -4.91037	0.000149503	  -4.91012	0.000135738	  -4.91012	   3.39346	
  -4.97195	0.000139768	  -4.98613	0.000112181	  -4.97956	0.000146565	  -4.97921	0.000132838	  -4.97921	   3.32095	
  -5.04071	0.000136986	  -5.05495	0.000109169	  -5.04858	0.000143611	  -5.04808	0.000129922	  -5.04808	   3.24805	
  -5.10931	0.000134218	  -5.12367	0.000106199	   -5.1174	0.000140648	  -5.11679	0.000127022	  -5.11679	   3.17554	
  -5.17765	0.000131545	  -5.19209	0.000103242	  -5.18594	0.000137758	  -5.18523	0.000124182	  -5.18523	   3.10455	
  -5.24582	0.000128813	  -5.26032	0.000100286	  -5.25433	0.000134764	  -5.25349	0.000121288	  -5.25349	   3.03219	
   -5.3139	0.000126038	  -5.32841	9.73617e-05	  -5.32256	0.000131754	  -5.32162	0.000118385	  -5.32162	   2.95962	
  -5.38164	0.000123317	  -5.39619	9.43926e-05	  -5.39048	0.000128891	  -5.38943	0.000115534	  -5.38943	   2.88834	
  -5.44907	0.000120637	   -5.4638	9.14577e-05	  -5.45813	0.000125874	    -5.457	0.000112656	    -5.457	   2.81641	
   -5.5163	0.000117917	  -5.53129	8.85926e-05	  -5.52565	0.00012284	  -5.52441	0.000109783	  -5.52441	   2.74459	
   -5.5834	0.000115174	   -5.5985	8.56763e-05	  -5.59281	0.000119843	  -5.59157	0.000106898	  -5.59157	   2.67245	
   -5.6503	0.000112466	  -5.66554	8.27584e-05	  -5.65981	0.000116804	  -5.65855	0.000104009	  -5.65855	   2.60024	
  -5.71703	0.000109708	  -5.73244	7.98877e-05	  -5.72661	0.00011374	  -5.72536	0.000101112	  -5.72536	    2.5278	
  -5.78345	0.000106919	  -5.79902	7.69715e-05	  -5.79315	0.000110663	  -5.79187	9.81843e-05	  -5.79187	   2.45461	
  -5.84958	0.000104143	   -5.8655	7.40141e-05	  -5.85947	0.000107586	  -5.85818	9.52477e-05	  -5.85818	   2.38119	
  -5.91556	0.000101305	  -5.93183	7.11446e-05	  -5.92556	0.000104476	  -5.92432	9.23084e-05	  -5.92432	   2.30771	
  -5.98125	9.85023e-05	  -5.99783	6.81804e-05	  -5.99137	0.000101355	  -5.99015	8.9346e-05	  -5.99015	   2.23365	
  -6.04656	9.56732e-05	  -6.06371	6.51942e-05	  -6.05703	9.82392e-05	  -6.05577	8.63688e-05	  -6.05577	   2.15922	
   -6.1118	9.27928e-05	  -6.12944	6.22849e-05	  -6.12256	9.50954e-05	  -6.12127	8.3391e-05	  -6.12127	   2.08478	
  -6.17675	8.99753e-05	   -6.1948	5.92963e-05	  -6.18777	9.19503e-05	  -6.18644	8.04073e-05	  -6.18644	   2.01018	
  -6.24138	8.70892e-05	  -6.25991	5.62877e-05	  -6.25275	8.87861e-05	  -6.25135	7.73877e-05	  -6.25135	   1.93469	
  -6.30584	8.41978e-05	  -6.32471	5.3396e-05	  -6.31759	8.56218e-05	  -6.31605	7.44052e-05	  -6.31605	   1.86013	
  -6.37006	8.13118e-05	  -6.38946	5.03881e-05	   -6.3821	8.24641e-05	  -6.38054	7.1388e-05	  -6.38054	    1.7847	
  -6.43393	7.83563e-05	  -6.45398	4.73584e-05	   -6.4462	7.92637e-05	   -6.4447	6.83261e-05	   -6.4447	   1.70815	
   -6.4977	7.53881e-05	   -6.5181	4.44339e-05	  -6.51017	7.60583e-05	  -6.50866	6.52934e-05	  -6.50866	   1.63234	
   -6.5612	7.25031e-05	  -6.58194	4.13761e-05	  -6.57385	7.28541e-05	  -6.57233	6.22444e-05	  -6.57233	   1.55611	
  -6.62437	6.95323e-05	  -6.64542	3.83063e-05	  -6.63713	6.96626e-05	  -6.63564	5.91671e-05	  -6.63564	   1.47918	
  -6.68729	6.6576e-05	  -6.70881	3.52922e-05	  -6.70025	6.63681e-05	  -6.69878	5.60788e-05	  -6.69878	   1.40197	
  -6.75001	6.36566e-05	  -6.77191	3.21961e-05	  -6.76312	6.31398e-05	  -6.76168	5.29975e-05	  -6.76168	   1.32494	
  -6.81238	6.06646e-05	  -6.83468	2.90639e-05	   -6.8256	5.99538e-05	  -6.82422	4.98941e-05	  -6.82422	   1.24735	
  -6.87444	5.77121e-05	   -6.8973	2.6022e-05	  -6.88786	5.67321e-05	  -6.88653	4.68221e-05	  -6.88653	   1.17055	
  -6.93637	5.47901e-05	  -6.95967	2.28663e-05	  -6.94991	5.35304e-05	  -6.94865	4.37289e-05	  -6.94865	   1.09322	
  -6.99799	5.17887e-05	  -7.02161	1.97109e-05	  -7.01156	5.02616e-05	  -7.01039	4.05871e-05	  -7.01039	   1.01468	
  -7.05899	 4.883e-05	  -7.08332	1.66652e-05	  -7.07295	4.7055e-05	  -7.07175	3.75167e-05	  -7.07175	  0.937919	
  -7.12011	4.59091e-05	  -7.14484	1.35348e-05	   -7.1341	4.3877e-05	  -7.13301	3.44403e-05	  -7.13301	  0.861008	
  -7.18094	4.28533e-05	  -7.20598	1.04088e-05	  -7.19507	4.06654e-05	    -7.194	3.13092e-05	    -7.194	   0.78273	
  -7.24148	3.99025e-05	   -7.2668	7.38888e-06	  -7.25569	3.75582e-05	  -7.25466	2.82832e-05	  -7.25466	   0.70708	
  -7.30163	3.69417e-05	  -7.32741	4.31874e-06	  -7.31593	3.44319e-05	  -7.31499	2.52308e-05	  -7.31499	   0.63077	
  -7.36161	3.38837e-05	  -7.38772	1.21721e-06	  -7.37588	3.12467e-05	  -7.37507	2.21159e-05	  -7.37507	  0.552897	
  -7.42124	3.0901e-05	   -7.4476	-1.7916e-06	  -7.43554	2.81417e-05	   -7.4348	1.90837e-05	   -7.4348	  0.477092	
  -7.48054	2.78882e-05	  -7.50722	-4.80801e-06	  -7.49492	2.50431e-05	  -7.49423	1.60411e-05	  -7.49423	  0.401027	
  -7.53966	2.48164e-05	  -7.56664	-7.86678e-06	  -7.55402	2.18913e-05	  -7.55344	1.2947e-05	  -7.55344	  0.323674	
  -7.59847	2.18273e-05	  -7.62565	-1.08517e-05	  -7.61281	1.87881e-05	  -7.61231	9.92123e-06	  -7.61231	  0.248031	
  -7.65684	1.87931e-05	  -7.68426	-1.38269e-05	   -7.6713	1.57003e-05	   -7.6708	6.88882e-06	   -7.6708	  0.172221	
  -7.71495	1.57307e-05	  -7.74266	-1.68419e-05	  -7.72958	1.25727e-05	  -7.72906	3.8205e-06	  -7.72906	 0.0955124	
  -7.77289	1.27596e-05	  -7.80077	-1.98268e-05	  -7.78759	9.49502e-06	  -7.78708	8.09263e-07	  -7.78708	 0.0202316	
  -7.83047	9.7721e-06	  -7.85872	-2.27378e-05	  -7.84522	6.42488e-06	   -7.8448	-2.18027e-06	   -7.8448	-0.0545067	
  -7.88761	6.66051e-06	   -7.9162	-2.56693e-05	  -7.90258	3.36505e-06	  -7.90213	-5.21458e-06	  -7.90213	 -0.130365	
  -7.94453	3.67892e-06	  -7.97323	-2.86929e-05	  -7.95971	3.42263e-07	  -7.95916	-8.22392e-06	  -7.95916	 -0.205598	
  -8.00122	6.47219e-07	   -8.0301	-3.15765e-05	  -8.01653	-2.68426e-06	  -8.01595	-1.12045e-05	  -8.01595	 -0.280113	
  -8.05749	-2.46129e-06	  -8.08655	-3.44518e-05	  -8.07293	-5.71439e-06	  -8.07232	-1.42092e-05	  -8.07232	 -0.355229	
  -8.11332	-5.47072e-06	  -8.14266	-3.74146e-05	  -8.12903	-8.7653e-06	  -8.12834	-1.72169e-05	  -8.12834	 -0.430422	
  -8.16894	-8.45576e-06	  -8.19851	-4.02625e-05	  -8.18494	-1.17688e-05	  -8.18413	-2.01623e-05	  -8.18413	 -0.504058	
  -8.22429	-1.1605e-05	  -8.25396	-4.31089e-05	  -8.24048	-1.47683e-05	  -8.23958	-2.31607e-05	  -8.23958	 -0.579018	
  -8.27919	-1.45708e-05	  -8.30895	-4.60036e-05	  -8.29552	-1.7825e-05	  -8.29455	-2.61331e-05	  -8.29455	 -0.653328	
  -8.33366	-1.76055e-05	  -8.36365	-4.87694e-05	  -8.35027	-2.08643e-05	  -8.34919	-2.90797e-05	  -8.34919	 -0.726993	
   -8.3879	-2.07724e-05	  -8.41813	-5.15489e-05	  -8.40482	-2.38972e-05	  -8.40361	-3.20728e-05	  -8.40361	 -0.801821	
  -8.44183	-2.37682e-05	   -8.4722	-5.43887e-05	  -8.45899	-2.6922e-05	  -8.45767	-3.50263e-05	  -8.45767	 -0.875659	
  -8.49562	-2.68049e-05	  -8.52579	-5.71623e-05	  -8.51272	-2.99228e-05	  -8.51138	-3.79633e-05	  -8.51138	 -0.949083	
  -8.54894	-3.00498e-05	  -8.57919	-5.9931e-05	  -8.56619	-3.29407e-05	  -8.56477	-4.09738e-05	  -8.56477	  -1.02435	
  -8.60186	-3.30982e-05	  -8.63235	-6.27353e-05	  -8.61942	-3.59376e-05	  -8.61788	-4.39237e-05	  -8.61788	  -1.09809	
   -8.6544	-3.60964e-05	   -8.6851	-6.54666e-05	  -8.67228	-3.89238e-05	  -8.67059	-4.68289e-05	  -8.67059	  -1.17072	
  -8.70661	-3.9279e-05	  -8.73735	-6.82233e-05	  -8.72467	-4.19104e-05	  -8.72288	-4.98042e-05	  -8.72288	  -1.24511	
  -8.75853	-4.23556e-05	  -8.78941	-7.10104e-05	  -8.77654	-4.49303e-05	  -8.77483	-5.27654e-05	  -8.77483	  -1.31914	
  -8.81002	-4.53883e-05	  -8.84122	-7.37458e-05	  -8.82835	-4.78704e-05	  -8.82653	-5.56682e-05	  -8.82653	   -1.3917	
  -8.86124	-4.85803e-05	  -8.89264	-7.65004e-05	  -8.87968	-5.08174e-05	  -8.87785	-5.86327e-05	  -8.87785	  -1.46582	
  -8.91205	-5.17085e-05	  -8.94354	-7.92803e-05	  -8.93055	-5.38119e-05	  -8.92871	-6.16002e-05	  -8.92871	  -1.54001	
  -8.96232	-5.48053e-05	  -8.99417	-8.20151e-05	    -8.981	-5.67454e-05	  -8.97916	-6.45219e-05	  -8.97916	  -1.61305	
  -9.01231	-5.81151e-05	  -9.04462	-8.47577e-05	  -9.03125	-5.96722e-05	  -9.02939	-6.7515e-05	  -9.02939	  -1.68787	
  -9.06208	-6.1242e-05	  -9.09473	-8.75257e-05	  -9.08122	-6.26212e-05	  -9.07934	-7.0463e-05	  -9.07934	  -1.76157	
  -9.11148	-6.4382e-05	  -9.14434	-9.02455e-05	  -9.13076	-6.55071e-05	  -9.12886	-7.33782e-05	  -9.12886	  -1.83446	
  -9.16039	-6.76928e-05	  -9.19346	-9.29217e-05	  -9.17987	-6.83713e-05	  -9.17791	-7.63286e-05	  -9.17791	  -1.90822	
  -9.20881	-7.08281e-05	  -9.24246	-9.5627e-05	  -9.22873	-7.12342e-05	  -9.22667	-7.92298e-05	  -9.22667	  -1.98074	
  -9.25703	-7.39239e-05	  -9.29117	-9.83659e-05	  -9.27734	-7.40498e-05	  -9.27518	-8.21132e-05	  -9.27518	  -2.05283	
  -9.30499	-7.7178e-05	  -9.33947	-0.000101048	  -9.32558	-7.68618e-05	  -9.32335	-8.50291e-05	  -9.32335	  -2.12573	
  -9.35254	-8.03333e-05	  -9.38737	-0.000103767	  -9.37333	-7.9667e-05	  -9.37108	-8.79223e-05	  -9.37108	  -2.19806	
  -9.39954	-8.33954e-05	  -9.43481	-0.00010651	  -9.42062	-8.24282e-05	  -9.41833	-9.0778e-05	  -9.41833	  -2.26945	
   -9.4462	-8.65498e-05	    -9.482	-0.000109128	  -9.46767	-8.52014e-05	  -9.46529	-9.36265e-05	  -9.46529	  -2.34066	
  -9.49264	-8.96687e-05	  -9.52886	-0.000111816	  -9.51445	-8.79642e-05	  -9.51198	-9.64829e-05	  -9.51198	  -2.41207	
  -9.53877	-9.27463e-05	  -9.57526	-0.00011448	  -9.56081	-9.07016e-05	  -9.55828	-9.93093e-05	  -9.55828	  -2.48273	
  -9.58447	-9.59363e-05	  -9.62109	-0.000117074	  -9.60662	-9.34398e-05	  -9.60406	-0.00010215	  -9.60406	  -2.55375	
  -9.62982	-9.90127e-05	  -9.66657	-0.000119698	  -9.65199	-9.61892e-05	  -9.64946	-0.000104967	  -9.64946	  -2.62417	
  -9.67485	-0.000102068	  -9.71182	-0.000122338	  -9.69708	-9.89075e-05	  -9.69458	-0.000107771	  -9.69458	  -2.69428	
   -9.7196	-0.000105164	  -9.75674	-0.000124971	   -9.7419	-0.000101619	  -9.73941	-0.000110585	  -9.73941	  -2.76462	
  -9.76403	-0.000108183	  -9.80121	-0.000127599	  -9.78631	-0.000104317	  -9.78385	-0.000113366	  -9.78385	  -2.83416	
  -9.80803	-0.000111215	  -9.84513	-0.000130222	  -9.83019	-0.000106963	  -9.82778	-0.000116133	  -9.82778	  -2.90333	
   -9.8515	-0.000114271	  -9.88867	-0.000132787	  -9.87355	-0.000109652	  -9.87124	-0.000118903	  -9.87124	  -2.97258	
  -9.89452	-0.00011725	  -9.93185	-0.000135443	  -9.91667	-0.000112263	  -9.91435	-0.000121652	  -9.91435	   -3.0413	
  -9.93725	-0.00012016	  -9.97475	-0.000137977	  -9.95956	-0.000114884	  -9.95718	-0.00012434	  -9.95718	  -3.10851	
  -9.97966	-0.000123089	  -10.0172	-0.000140499	   -10.002	-0.000117585	  -9.99962	-0.000127058	  -9.99962	  -3.17645	
  -10.0217	-0.000126005	  -10.0592	-0.000143107	   -10.044	-0.000120241	  -10.0416	-0.000129784	  -10.0416	  -3.24461	
  -10.0632	-0.000128867	  -10.1007	-0.000145593	  -10.0857	-0.00012277	  -10.0832	-0.00013241	  -10.0832	  -3.31025	
  -10.1042	-0.0001318	  -10.1419	-0.000148069	  -10.1269	-0.000125381	  -10.1244	-0.000135083	  -10.1244	  -3.37709	
  -10.1449	-0.000134734	  -10.1829	-0.000150604	  -10.1677	-0.000128011	  -10.1652	-0.000137783	  -10.1652	  -3.44457	
  -10.1854	-0.00013756	  -10.2235	-0.000153031	  -10.2083	-0.000130468	  -10.2057	-0.000140353	  -10.2057	  -3.50883	
  -10.2255	-0.00014044	  -10.2637	-0.000155438	  -10.2484	-0.000133086	  -10.2459	-0.000142988	  -10.2459	   -3.5747	
  -10.2652	-0.000143341	  -10.3034	-0.00015788	   -10.288	-0.000135642	  -10.2855	-0.000145621	  -10.2855	  -3.64053	
  -10.3044	-0.000146159	  -10.3426	-0.000160237	  -10.3271	-0.000138087	  -10.3247	-0.000148161	  -10.3247	  -3.70402	
   -10.343	-0.000149017	  -10.3815	-0.000162516	  -10.3658	-0.000140648	  -10.3634	-0.000150727	  -10.3634	  -3.76818	
  -10.3812	-0.000151879	  -10.4199	-0.000164951	  -10.4042	-0.000143165	  -10.4018	-0.000153332	  -10.4018	  -3.83329	
  -10.4192	-0.000154673	  -10.4578	-0.000167324	  -10.4423	-0.000145592	  -10.4397	-0.000155863	  -10.4397	  -3.89658	
  -10.4568	-0.000157498	  -10.4953	-0.000169577	    -10.48	-0.000148135	  -10.4774	-0.000158404	  -10.4774	  -3.96009	
  -10.4941	-0.000160337	  -10.5325	-0.000171974	  -10.5172	-0.000150659	  -10.5146	-0.00016099	  -10.5146	  -4.02476	
   -10.531	-0.000163112	  -10.5692	-0.000174401	  -10.5538	-0.000153089	  -10.5513	-0.000163534	  -10.5513	  -4.08835	
  -10.5674	-0.000165889	  -10.6055	-0.000176575	  -10.5899	-0.000155634	  -10.5876	-0.000166033	  -10.5876	  -4.15081	
  -10.6034	-0.000168631	  -10.6414	-0.000178911	  -10.6255	-0.000158161	  -10.6234	-0.000168568	  -10.6234	   -4.2142	
  -10.6389	-0.000171388	  -10.6771	-0.000181287	  -10.6609	-0.00016062	   -10.659	-0.000171098	   -10.659	  -4.27746	
   -10.674	-0.000174134	  -10.7123	-0.000183458	   -10.696	-0.000163157	  -10.6941	-0.000173583	  -10.6941	  -4.33958	
  -10.7088	-0.000176812	  -10.7472	-0.000185763	  -10.7308	-0.000165691	  -10.7289	-0.000176089	  -10.7289	  -4.40222	
  -10.7431	-0.000179511	  -10.7815	-0.000188116	   -10.765	-0.000168195	  -10.7632	-0.000178607	  -10.7632	  -4.46518	
   -10.777	-0.0001822	  -10.8152	-0.000190249	  -10.7988	-0.000170739	   -10.797	-0.000181063	   -10.797	  -4.52656	
  -10.8104	-0.00018482	  -10.8485	-0.000192553	  -10.8319	-0.000173256	  -10.8303	-0.000183543	  -10.8303	  -4.58858	
  -10.8431	-0.000187493	  -10.8814	-0.000194912	  -10.8646	-0.000175769	  -10.8631	-0.000186058	  -10.8631	  -4.65145	
  -10.8754	-0.000190157	  -10.9141	-0.000197061	   -10.897	-0.000178301	  -10.8955	-0.000188506	  -10.8955	  -4.71265	
  -10.9074	-0.000192763	  -10.9465	-0.000199372	  -10.9291	-0.00018083	  -10.9276	-0.000190988	  -10.9276	   -4.7747	
  -10.9389	-0.000195371	  -10.9784	-0.000201695	  -10.9608	-0.000183381	  -10.9594	-0.000193482	  -10.9594	  -4.83706	
    -10.97	-0.000198029	  -11.0099	-0.000203895	  -10.9922	-0.000185963	  -10.9907	-0.000195963	  -10.9907	  -4.89906	
  -11.0009	-0.000200633	  -11.0409	-0.000206129	  -11.0231	-0.000188516	  -11.0216	-0.000198426	  -11.0216	  -4.96065	
  -11.0312	-0.000203217	  -11.0713	-0.000208446	  -11.0535	-0.000191098	   -11.052	-0.00020092	   -11.052	  -5.02301	
  -11.0611	-0.000205863	   -11.101	-0.000210648	  -11.0831	-0.000193773	  -11.0817	-0.000203428	  -11.0817	   -5.0857	
  -11.0904	-0.000208452	  -11.1302	-0.00021283	  -11.1126	-0.000196322	  -11.1111	-0.000205868	  -11.1111	  -5.14671	
   -11.119	-0.000211067	   -11.159	-0.000215132	  -11.1414	-0.000199033	  -11.1398	-0.000208411	  -11.1398	  -5.21026	
  -11.1475	-0.000213604	  -11.1875	-0.000217319	  -11.1699	-0.000201747	  -11.1683	-0.00021089	  -11.1683	  -5.27225	
  -11.1753	-0.000216171	  -11.2157	-0.000219467	   -11.198	-0.000204357	  -11.1963	-0.000213332	  -11.1963	  -5.33329	
  -11.2028	-0.000218758	  -11.2436	-0.000221728	  -11.2258	-0.000207098	  -11.2241	-0.000215862	  -11.2241	  -5.39654	
  -11.2299	-0.000221272	   -11.271	-0.000223911	  -11.2532	-0.000209842	  -11.2514	-0.000218342	  -11.2514	  -5.45854	
  -11.2567	-0.000223835	   -11.298	-0.000226049	  -11.2803	-0.000212518	  -11.2783	-0.000220801	  -11.2783	  -5.52002	
  -11.2831	-0.000226402	  -11.3245	-0.00022829	  -11.3068	-0.000215259	  -11.3048	-0.000223317	  -11.3048	  -5.58292	
  -11.3091	-0.000228917	  -11.3504	-0.000230458	  -11.3328	-0.000217975	  -11.3308	-0.000225783	  -11.3308	  -5.64458	
  -11.3346	-0.000231473	  -11.3757	-0.000232647	  -11.3583	-0.000220623	  -11.3562	-0.000228248	  -11.3562	   -5.7062	
  -11.3596	-0.00023399	  -11.4003	-0.000234871	  -11.3832	-0.000223326	   -11.381	-0.000230729	   -11.381	  -5.76823	
  -11.3841	-0.00023647	  -11.4244	-0.000237021	  -11.4075	-0.000226003	  -11.4053	-0.000233164	  -11.4053	  -5.82911	
  -11.4079	-0.000238936	  -11.4481	-0.000239189	  -11.4313	-0.000228633	  -11.4291	-0.000235586	  -11.4291	  -5.88964	
  -11.4312	-0.000241452	  -11.4713	-0.000241412	  -11.4547	-0.000231319	  -11.4524	-0.000238061	  -11.4524	  -5.95153	
  -11.4539	-0.000243921	  -11.4943	-0.000243535	  -11.4777	-0.000233977	  -11.4753	-0.000240478	  -11.4753	  -6.01194	
  -11.4762	-0.000246372	  -11.5169	-0.000245699	  -11.5003	-0.000236562	  -11.4978	-0.000242878	  -11.4978	  -6.07194	
  -11.4982	-0.000248852	  -11.5392	-0.00024788	  -11.5225	-0.000239303	  -11.5199	-0.000245345	  -11.5199	  -6.13363	
  -11.5198	-0.000251296	  -11.5611	-0.000249978	  -11.5445	-0.000241937	  -11.5418	-0.000247737	  -11.5418	  -6.19343	
   -11.541	-0.000253722	  -11.5827	-0.00025215	   -11.566	-0.000244549	  -11.5632	-0.00025014	  -11.5632	   -6.2535	
   -11.562	-0.000256129	  -11.6038	-0.000254304	  -11.5872	-0.000247266	  -11.5843	-0.000252566	  -11.5843	  -6.31416	
  -11.5826	-0.000258585	  -11.6245	-0.000256372	  -11.6079	-0.0002499	   -11.605	-0.000254952	   -11.605	  -6.37381	
  -11.6029	-0.000260936	  -11.6446	-0.000258509	  -11.6282	-0.000252502	  -11.6252	-0.000257316	  -11.6252	   -6.4329	
  -11.6228	-0.000263289	  -11.6642	-0.00026067	   -11.648	-0.00025518	   -11.645	-0.000259713	   -11.645	  -6.49282	
  -11.6422	-0.000265677	  -11.6833	-0.000262729	  -11.6672	-0.00025783	  -11.6642	-0.000262078	  -11.6642	  -6.55196	
  -11.6611	-0.000267967	  -11.7017	-0.000264847	   -11.686	-0.000260382	   -11.683	-0.000264399	   -11.683	  -6.60997	
  -11.6796	-0.000270232	  -11.7196	-0.00026701	  -11.7044	-0.000262969	  -11.7012	-0.000266737	  -11.7012	  -6.66843	
  -11.6975	-0.000272565	  -11.7369	-0.000269132	  -11.7222	-0.000265645	  -11.7189	-0.000269114	  -11.7189	  -6.72784	
  -11.7149	-0.000274768	  -11.7537	-0.000271221	  -11.7394	-0.000268216	   -11.736	-0.000271402	   -11.736	  -6.78504	
  -11.7318	-0.000276909	  -11.7698	-0.000273355	  -11.7563	-0.000270781	  -11.7526	-0.000273682	  -11.7526	  -6.84204	
  -11.7482	-0.000279132	  -11.7855	-0.000275465	  -11.7727	-0.000273371	  -11.7688	-0.000275989	  -11.7688	  -6.89974	
   -11.764	-0.000281273	  -11.8006	-0.000277534	  -11.7886	-0.000275868	  -11.7844	-0.000278225	  -11.7844	  -6.95563	
  -11.7792	-0.000283343	  -11.8152	-0.000279649	   -11.804	-0.000278488	  -11.7995	-0.000280493	  -11.7995	  -7.01233	
  -11.7939	-0.000285442	  -11.8293	-0.000281754	  -11.8189	-0.000281009	   -11.814	-0.000282735	   -11.814	  -7.06838	
  -11.8079	-0.000287517	  -11.8431	-0.000283835	  -11.8332	-0.00028355	   -11.828	-0.000284967	   -11.828	  -7.12418	
  -11.8214	-0.000289453	  -11.8563	-0.000285956	  -11.8469	-0.000286147	  -11.8415	-0.000287185	  -11.8415	  -7.17963	
  -11.8343	-0.000291468	  -11.8693	-0.000288075	    -11.86	-0.000288698	  -11.8545	-0.000289414	  -11.8545	  -7.23535	
  -11.8467	-0.000293464	  -11.8818	-0.000290177	  -11.8726	-0.00029126	  -11.8671	-0.000291634	  -11.8671	  -7.29085	
  -11.8586	-0.000295367	  -11.8941	-0.00029231	  -11.8847	-0.000293863	  -11.8791	-0.000293847	  -11.8791	  -7.34617	
    -11.87	-0.000297303	  -11.9059	-0.000294433	  -11.8963	-0.000296426	  -11.8907	-0.000296054	  -11.8907	  -7.40134	
  -11.8807	-0.000299224	  -11.9172	-0.000296538	  -11.9074	-0.000298924	  -11.9018	-0.000298229	  -11.9018	  -7.45571	
   -11.891	-0.000301096	  -11.9278	-0.0002987	   -11.918	-0.000301504	  -11.9123	-0.000300433	  -11.9123	  -7.51084	
  -11.9007	-0.000303005	  -11.9384	-0.000300701	  -11.9282	-0.000304088	  -11.9224	-0.000302598	  -11.9224	  -7.56494	
  -11.9099	-0.000304908	  -11.9485	-0.000302866	   -11.938	-0.000306579	  -11.9321	-0.000304784	  -11.9321	  -7.61961	
  -11.9187	-0.000306789	  -11.9582	-0.000304967	  -11.9472	-0.000309101	  -11.9413	-0.000306952	  -11.9413	  -7.67381	
  -11.9269	-0.000308652	  -11.9675	-0.000306993	   -11.956	-0.000311624	  -11.9501	-0.00030909	  -11.9501	  -7.72725	
  -11.9347	-0.000310482	  -11.9763	-0.000309123	  -11.9642	-0.000314136	  -11.9584	-0.000311247	  -11.9584	  -7.78117	
   -11.942	-0.000312299	  -11.9847	-0.000311182	   -11.972	-0.000316575	  -11.9662	-0.000313352	  -11.9662	   -7.8338	
  -11.9488	-0.000314119	  -11.9927	-0.000313177	  -11.9792	-0.000319053	  -11.9736	-0.00031545	  -11.9736	  -7.88624	
  -11.9552	-0.000315916	  -12.0002	-0.000315237	  -11.9859	-0.000321539	  -11.9804	-0.000317564	  -11.9804	   -7.9391	
  -11.9611	-0.000317665	  -12.0072	-0.000317244	   -11.992	-0.000323948	  -11.9867	-0.000319619	  -11.9867	  -7.99047	
  -11.9665	-0.000319478	  -12.0135	-0.000319171	  -11.9976	-0.000326402	  -11.9925	-0.000321684	  -11.9925	  -8.04209	
  -11.9715	-0.000321225	  -12.0193	-0.000321174	  -12.0028	-0.000328877	  -11.9978	-0.000323759	  -11.9978	  -8.09396	
   -11.976	-0.000322938	  -12.0246	-0.000323115	  -12.0074	-0.000331302	  -12.0027	-0.000325785	  -12.0027	  -8.14463	
  -11.9802	-0.000324705	  -12.0293	-0.000324996	  -12.0115	-0.000333712	   -12.007	-0.000327804	   -12.007	  -8.19511	
  -11.9837	-0.000326387	  -12.0336	-0.000326937	  -12.0151	-0.00033608	  -12.0108	-0.000329802	  -12.0108	  -8.24504	
   -11.987	-0.000328071	  -12.0372	-0.000328821	  -12.0183	-0.000338495	  -12.0142	-0.000331796	  -12.0142	  -8.29489	
  -11.9901	-0.000329857	  -12.0404	-0.000330658	   -12.021	-0.000340868	  -12.0172	-0.000333794	  -12.0172	  -8.34485	
  -11.9929	-0.00033149	   -12.043	-0.000332526	  -12.0234	-0.000343153	  -12.0197	-0.000335723	  -12.0197	  -8.39308	
  -11.9953	-0.000333182	  -12.0452	-0.000334361	  -12.0253	-0.000345428	  -12.0219	-0.000337657	  -12.0219	  -8.44142	
  -11.9974	-0.000334951	  -12.0469	-0.000336167	  -12.0268	-0.00034769	  -12.0237	-0.000339603	  -12.0237	  -8.49007	
  -11.9993	-0.000336596	  -12.0482	-0.000337967	   -12.028	-0.000349894	  -12.0252	-0.000341486	  -12.0252	  -8.53714	
  -12.0008	-0.000338263	   -12.049	-0.000339763	  -12.0289	-0.000352085	  -12.0263	-0.00034337	  -12.0263	  -8.58426	
  -12.0021	-0.000340003	  -12.0496	-0.000341518	  -12.0295	-0.000354269	   -12.027	-0.000345264	   -12.027	  -8.63159	
   -12.003	-0.000341643	  -12.0497	-0.000343267	  -12.0298	-0.000356414	  -12.0275	-0.000347108	  -12.0275	  -8.67769	
  -12.0034	-0.000343261	  -12.0497	-0.000345037	  -12.0298	-0.000358539	  -12.0276	-0.000348946	  -12.0276	  -8.72364	
  -12.0035	-0.000344996	  -12.0493	-0.000346728	  -12.0295	-0.000360655	  -12.0274	-0.000350793	  -12.0274	  -8.76982	
  -12.0031	-0.00034653	  -12.0484	-0.000348407	  -12.0287	-0.00036274	  -12.0268	-0.000352559	  -12.0268	  -8.81398	
  -12.0022	-0.000348194	  -12.0471	-0.000350068	  -12.0276	-0.000364797	  -12.0256	-0.000354353	  -12.0256	  -8.85883	
  -12.0006	-0.000349757	  -12.0451	-0.000351768	   -12.026	-0.000366858	  -12.0239	-0.000356128	  -12.0239	   -8.9032	
  -11.9985	-0.000351214	  -12.0427	-0.000353433	  -12.0238	-0.0003689	  -12.0217	-0.000357849	  -12.0217	  -8.94623	
  -11.9957	-0.000352752	  -12.0399	-0.000355078	   -12.021	-0.000370904	  -12.0188	-0.000359578	  -12.0188	  -8.98945	
  -11.9924	-0.000354215	  -12.0364	-0.000356765	  -12.0175	-0.00037291	  -12.0155	-0.000361297	  -12.0155	  -9.03242	
  -11.9887	-0.000355602	  -12.0324	-0.000358393	  -12.0136	-0.000374869	  -12.0116	-0.000362955	  -12.0116	  -9.07387	
  -11.9846	 -0.000357	  -12.0279	-0.000359996	  -12.0091	-0.000376838	  -12.0072	-0.000364611	  -12.0072	  -9.11528	
  -11.9801	-0.000358397	  -12.0229	-0.000361622	  -12.0043	-0.000378804	  -12.0024	-0.000366274	  -12.0024	  -9.15686	
  -11.9752	-0.000359818	  -12.0175	-0.000363187	   -11.999	-0.000380787	  -11.9972	-0.000367931	  -11.9972	  -9.19827	
  -11.9701	-0.00036118	  -12.0117	-0.000364695	  -11.9935	-0.000382707	  -11.9917	-0.000369528	  -11.9917	  -9.23819	
  -11.9644	-0.000362517	  -12.0056	-0.000366229	  -11.9876	-0.000384589	  -11.9859	-0.000371112	  -11.9859	  -9.27779	
  -11.9583	-0.000363872	  -11.9992	-0.000367736	  -11.9813	-0.000386511	  -11.9796	-0.000372706	  -11.9796	  -9.31766	
  -11.9518	-0.000365181	  -11.9924	-0.000369189	  -11.9746	-0.000388355	  -11.9729	-0.000374241	  -11.9729	  -9.35603	
  -11.9447	-0.000366437	  -11.9852	-0.000370658	  -11.9673	-0.000390141	  -11.9657	-0.000375745	  -11.9657	  -9.39364	
  -11.9372	-0.000367653	  -11.9774	-0.000372058	  -11.9594	-0.000391928	   -11.958	-0.000377213	   -11.958	  -9.43033	
  -11.9292	-0.000368848	   -11.969	-0.00037348	  -11.9509	-0.000393677	  -11.9497	-0.000378668	  -11.9497	  -9.46671	
  -11.9206	-0.000369996	  -11.9601	-0.000374892	  -11.9419	-0.000395387	  -11.9409	-0.000380092	  -11.9409	  -9.50229	
  -11.9116	-0.000371128	  -11.9506	-0.000376328	  -11.9324	-0.000397124	  -11.9315	-0.000381527	  -11.9315	  -9.53816	
  -11.9018	-0.000372296	  -11.9407	-0.000377707	  -11.9226	-0.000398798	  -11.9217	-0.000382934	  -11.9217	  -9.57335	
  -11.8916	-0.00037328	  -11.9304	-0.000379095	  -11.9124	-0.000400419	  -11.9115	-0.000384265	  -11.9115	  -9.60662	
  -11.8809	-0.000374384	  -11.9198	-0.000380479	  -11.9019	-0.000402068	  -11.9009	-0.000385644	  -11.9009	  -9.64109	
  -11.8697	-0.00037547	  -11.9087	-0.000381777	  -11.8909	-0.000403641	  -11.8898	-0.000386963	  -11.8898	  -9.67407	
  -11.8578	-0.000376433	  -11.8972	-0.000383034	  -11.8793	-0.000405211	  -11.8781	-0.000388226	  -11.8781	  -9.70565	
  -11.8454	-0.000377478	  -11.8851	-0.0003844	  -11.8674	-0.000406669	   -11.866	-0.000389516	   -11.866	  -9.73789	
  -11.8325	-0.000378474	  -11.8723	-0.000385561	  -11.8549	-0.000408141	  -11.8532	-0.000390725	  -11.8532	  -9.76813	
  -11.8192	-0.000379425	   -11.859	-0.000386716	  -11.8419	-0.000409607	    -11.84	-0.000391916	    -11.84	   -9.7979	
  -11.8055	-0.000380412	  -11.8453	-0.000387979	  -11.8285	-0.00041098	  -11.8264	-0.000393124	  -11.8264	  -9.82809	
  -11.7915	-0.000381332	  -11.8311	-0.000389118	  -11.8147	-0.000412351	  -11.8125	-0.000394267	  -11.8125	  -9.85667	
  -11.7769	-0.000382281	  -11.8168	-0.000390278	  -11.8006	-0.000413691	  -11.7981	-0.000395417	  -11.7981	  -9.88541	
  -11.7618	-0.000383208	   -11.802	-0.000391501	   -11.786	-0.000414964	  -11.7832	-0.000396558	  -11.7832	  -9.91394	
  -11.7461	-0.000384127	  -11.7865	-0.000392631	  -11.7707	-0.000416231	  -11.7678	-0.000397663	  -11.7678	  -9.94157	
  -11.7298	-0.00038505	  -11.7705	-0.000393789	  -11.7548	-0.000417445	  -11.7517	-0.000398761	  -11.7517	  -9.96903	
  -11.7132	-0.000385934	  -11.7539	-0.000394984	  -11.7384	-0.000418626	  -11.7352	-0.000399848	  -11.7352	   -9.9962	
  -11.6963	-0.000386878	  -11.7369	-0.000396141	  -11.7216	-0.000419824	  -11.7183	-0.000400948	  -11.7183	  -10.0237	
  -11.6789	-0.000387898	  -11.7195	-0.000397197	  -11.7044	-0.000420972	  -11.7009	-0.000402022	  -11.7009	  -10.0506	
   -11.661	-0.000388856	  -11.7018	-0.000398365	  -11.6869	-0.000422037	  -11.6832	-0.000403086	  -11.6832	  -10.0772	
  -11.6425	-0.000389818	  -11.6835	-0.000399485	  -11.6688	-0.000423153	  -11.6649	-0.000404152	  -11.6649	  -10.1038	
  -11.6234	-0.000390852	  -11.6645	-0.000400522	  -11.6501	-0.000424207	   -11.646	-0.000405194	   -11.646	  -10.1298	
   -11.604	-0.000391777	  -11.6449	-0.000401647	  -11.6309	-0.000425192	  -11.6266	-0.000406205	  -11.6266	  -10.1551	
  -11.5842	-0.000392757	  -11.6249	-0.00040277	  -11.6112	-0.000426219	  -11.6068	-0.000407249	  -11.6068	  -10.1812	
  -11.5641	-0.000393746	  -11.6045	-0.00040383	  -11.5911	-0.000427188	  -11.5866	-0.000408254	  -11.5866	  -10.2064	
  -11.5435	-0.000394714	  -11.5838	-0.000404897	  -11.5708	-0.000428211	   -11.566	-0.000409274	   -11.566	  -10.2319	
  -11.5223	-0.000395712	  -11.5629	-0.000405944	  -11.5499	-0.000429127	   -11.545	-0.000410261	   -11.545	  -10.2565	
  -11.5005	-0.000396673	  -11.5413	-0.000406944	  -11.5285	-0.000430025	  -11.5234	-0.000411214	  -11.5234	  -10.2804	
  -11.4784	-0.00039767	  -11.5193	-0.000408044	  -11.5065	-0.000430977	  -11.5014	-0.00041223	  -11.5014	  -10.3058	
  -11.4559	-0.000398733	  -11.4968	-0.000409047	   -11.484	-0.000431852	  -11.4789	-0.000413211	  -11.4789	  -10.3303	
   -11.433	-0.000399743	  -11.4738	-0.000409996	  -11.4611	-0.000432741	   -11.456	-0.00041416	   -11.456	   -10.354	
  -11.4095	-0.000400726	  -11.4503	-0.000411075	   -11.438	-0.000433671	  -11.4326	-0.000415157	  -11.4326	  -10.3789	
  -11.3854	-0.000401743	  -11.4263	-0.000412082	  -11.4143	-0.000434578	  -11.4086	-0.000416134	  -11.4086	  -10.4034	
  -11.3609	-0.000402719	  -11.4018	-0.000413015	    -11.39	-0.000435415	  -11.3842	-0.00041705	  -11.3842	  -10.4262	
   -11.336	-0.000403675	  -11.3768	-0.00041405	  -11.3653	-0.000436248	  -11.3594	-0.000417991	  -11.3594	  -10.4498	
  -11.3107	-0.000404678	  -11.3515	-0.000415059	    -11.34	-0.000437094	  -11.3341	-0.000418944	  -11.3341	  -10.4736	
  -11.2851	-0.00040564	  -11.3259	-0.000416011	  -11.3144	-0.000437902	  -11.3085	-0.000419851	  -11.3085	  -10.4963	
  -11.2589	-0.000406542	  -11.2998	-0.000417051	  -11.2883	-0.000438708	  -11.2823	-0.000420767	  -11.2823	  -10.5192	
  -11.2321	-0.000407468	  -11.2731	-0.000418093	  -11.2616	-0.000439506	  -11.2556	-0.000421689	  -11.2556	  -10.5422	
  -11.2051	-0.000408347	  -11.2459	-0.000419061	  -11.2345	-0.000440305	  -11.2285	-0.000422571	  -11.2285	  -10.5643	
  -11.1777	-0.000409203	  -11.2184	-0.000420115	   -11.207	-0.000441027	   -11.201	-0.000423448	   -11.201	  -10.5862	
  -11.1499	-0.000410111	  -11.1905	-0.000421223	  -11.1791	-0.000441768	  -11.1732	-0.000424367	  -11.1732	  -10.6092	
  -11.1215	-0.000410973	  -11.1621	-0.000422193	  -11.1508	-0.000442526	  -11.1448	-0.000425231	  -11.1448	  -10.6308	
  -11.0927	-0.000411827	  -11.1331	-0.00042317	  -11.1219	-0.000443203	  -11.1159	-0.000426067	  -11.1159	  -10.6517	
  -11.0635	-0.000412711	  -11.1037	-0.000424282	  -11.0926	-0.000443869	  -11.0866	-0.000426954	  -11.0866	  -10.6738	
   -11.034	-0.000413574	   -11.074	-0.000425132	   -11.063	-0.000444564	   -11.057	-0.000427756	   -11.057	  -10.6939	
  -11.0039	-0.000414411	   -11.044	-0.000426084	  -11.0329	-0.000445208	  -11.0269	-0.000428568	  -11.0269	  -10.7142	
  -10.9733	-0.000415247	  -11.0135	-0.000427145	  -11.0022	-0.000445847	  -10.9963	-0.000429413	  -10.9963	  -10.7353	
  -10.9423	-0.000416005	  -10.9824	-0.000427999	  -10.9711	-0.000446523	  -10.9653	-0.000430176	  -10.9653	  -10.7544	
   -10.911	-0.000416807	  -10.9509	-0.000428926	  -10.9396	-0.000447148	  -10.9338	-0.000430961	  -10.9338	   -10.774	
  -10.8792	-0.000417613	   -10.919	-0.000429988	  -10.9077	-0.000447701	   -10.902	-0.000431767	   -10.902	  -10.7942	
  -10.8469	-0.000418364	  -10.8866	-0.000430863	  -10.8753	-0.000448367	  -10.8696	-0.000432531	  -10.8696	  -10.8133	
   -10.814	-0.000419154	  -10.8537	-0.000431727	  -10.8423	-0.000448968	  -10.8367	-0.000433283	  -10.8367	  -10.8321	
  -10.7809	-0.000419944	  -10.8203	-0.000432754	  -10.8089	-0.000449477	  -10.8034	-0.000434058	  -10.8034	  -10.8515	
  -10.7473	-0.000420698	  -10.7866	-0.000433617	  -10.7752	-0.000450036	  -10.7697	-0.000434784	  -10.7697	  -10.8696	
  -10.7133	-0.000421485	  -10.7526	-0.000434429	  -10.7412	-0.000450566	  -10.7357	-0.000435493	  -10.7357	  -10.8873	
  -10.6788	-0.000422257	   -10.718	-0.00043537	  -10.7067	-0.00045102	  -10.7012	-0.000436216	  -10.7012	  -10.9054	
  -10.6437	-0.000422983	   -10.683	-0.00043618	  -10.6716	-0.000451491	  -10.6661	-0.000436884	  -10.6661	  -10.9221	
  -10.6084	-0.000423701	  -10.6476	-0.000436934	  -10.6363	-0.000451947	  -10.6308	-0.000437527	  -10.6308	  -10.9382	
  -10.5726	-0.000424509	  -10.6119	-0.000437799	  -10.6006	-0.000452334	  -10.5951	-0.000438214	  -10.5951	  -10.9554	
  -10.5363	-0.000425196	  -10.5757	-0.000438577	  -10.5644	-0.000452738	  -10.5588	-0.000438837	  -10.5588	  -10.9709	
  -10.4996	-0.000425903	   -10.539	-0.000439304	  -10.5277	-0.00045313	  -10.5221	-0.000439445	  -10.5221	  -10.9861	
  -10.4626	-0.000426666	   -10.502	-0.000440113	  -10.4907	-0.000453482	  -10.4851	-0.000440087	  -10.4851	  -11.0022	
  -10.4251	-0.000427353	  -10.4647	-0.000440865	   -10.453	-0.000453927	  -10.4476	-0.000440715	  -10.4476	  -11.0179	
  -10.3871	-0.000428099	  -10.4268	-0.000441544	  -10.4152	-0.000454215	  -10.4097	-0.000441286	  -10.4097	  -11.0322	
  -10.3488	-0.000428818	  -10.3884	-0.000442277	  -10.3769	-0.00045445	  -10.3714	-0.000441848	  -10.3714	  -11.0462	
  -10.3102	-0.000429507	  -10.3497	-0.000442988	  -10.3384	-0.00045483	  -10.3327	-0.000442442	  -10.3327	   -11.061	
   -10.271	-0.000430245	  -10.3106	-0.000443597	  -10.2994	-0.000455053	  -10.2936	-0.000442965	  -10.2936	  -11.0741	
  -10.2313	-0.000430964	   -10.271	-0.000444268	  -10.2598	-0.000455203	  -10.2541	-0.000443478	  -10.2541	   -11.087	
  -10.1914	-0.000431661	  -10.2311	-0.000444908	  -10.2199	-0.000455454	  -10.2141	-0.000444007	  -10.2141	  -11.1002	
  -10.1511	-0.000432374	  -10.1908	-0.000445446	  -10.1797	-0.000455596	  -10.1739	-0.000444472	  -10.1739	  -11.1118	
  -10.1103	-0.000433053	  -10.1501	-0.000445977	  -10.1389	-0.000455689	  -10.1331	-0.000444906	  -10.1331	  -11.1227	
  -10.0692	-0.000433725	  -10.1089	-0.000446469	  -10.0977	-0.000455862	  -10.0919	-0.000445352	  -10.0919	  -11.1338	
  -10.0277	-0.000434367	  -10.0672	-0.000446959	  -10.0562	-0.000455966	  -10.0504	-0.000445764	  -10.0504	  -11.1441	
  -9.98573	-0.000434993	  -10.0251	-0.000447455	  -10.0143	-0.000456021	  -10.0084	-0.000446156	  -10.0084	  -11.1539	
  -9.94327	-0.00043559	  -9.98265	-0.000447931	  -9.97198	-0.000456141	  -9.96596	-0.000446554	  -9.96596	  -11.1639	
   -9.9005	-0.000436162	  -9.93976	-0.000448365	  -9.92921	-0.000456177	  -9.92316	-0.000446901	  -9.92316	  -11.1725	
  -9.85744	-0.000436721	  -9.89659	-0.000448804	  -9.88615	-0.00045621	  -9.88006	-0.000447245	  -9.88006	  -11.1811	
  -9.81382	-0.000437248	  -9.85302	-0.000449239	  -9.84262	-0.000456296	  -9.83648	-0.000447594	  -9.83648	  -11.1899	
  -9.76982	-0.000437752	  -9.80898	-0.000449586	  -9.79861	-0.00045631	  -9.79247	-0.000447883	  -9.79247	  -11.1971	
  -9.72558	-0.000438238	  -9.76459	-0.000449948	  -9.75429	-0.000456326	  -9.74815	-0.00044817	  -9.74815	  -11.2043	
  -9.68108	-0.00043871	  -9.71997	-0.000450305	  -9.70957	-0.000456388	  -9.70354	-0.000448468	  -9.70354	  -11.2117	
  -9.63617	-0.000439115	  -9.67492	-0.000450583	  -9.66438	-0.000456401	  -9.65849	-0.0004487	  -9.65849	  -11.2175	
  -9.59082	-0.000439483	  -9.62944	-0.000450866	  -9.61878	-0.000456407	  -9.61301	-0.000448919	  -9.61301	   -11.223	
  -9.54498	-0.000439907	  -9.58368	-0.000451142	  -9.57291	-0.000456447	  -9.56719	-0.000449165	  -9.56719	  -11.2291	
  -9.49882	-0.000440275	  -9.53751	-0.00045136	  -9.52661	-0.000456447	  -9.52098	-0.000449361	  -9.52098	   -11.234	
  -9.45234	-0.000440606	  -9.49086	-0.000451576	  -9.47987	-0.000456439	  -9.47435	-0.000449541	  -9.47435	  -11.2385	
  -9.40557	-0.000440936	  -9.44387	-0.000451788	  -9.43279	-0.000456444	  -9.42741	-0.000449723	  -9.42741	  -11.2431	
  -9.35839	-0.000441201	  -9.39658	-0.000451958	  -9.38545	-0.000456407	  -9.38014	-0.000449856	  -9.38014	  -11.2464	
  -9.31076	-0.000441454	  -9.34876	-0.00045214	  -9.33785	-0.000456353	  -9.33246	-0.000449982	  -9.33246	  -11.2496	
  -9.26288	-0.000441701	  -9.30058	-0.000452309	  -9.28982	-0.00045634	  -9.28443	-0.000450117	  -9.28443	  -11.2529	
  -9.21466	-0.000441901	  -9.25218	-0.00045239	  -9.24123	-0.000456348	  -9.23603	-0.000450213	  -9.23603	  -11.2553	
    -9.166	-0.000442053	  -9.20342	-0.000452518	  -9.19241	-0.000456318	  -9.18728	-0.000450297	  -9.18728	  -11.2574	
  -9.11706	-0.000442179	  -9.15425	-0.000452626	   -9.1432	-0.000456277	  -9.13817	-0.000450361	  -9.13817	   -11.259	
  -9.06783	-0.000442261	   -9.1048	-0.000452656	  -9.09357	-0.000456242	  -9.08873	-0.000450386	  -9.08873	  -11.2597	
  -9.01811	-0.000442302	  -9.05471	-0.000452694	  -9.04361	-0.000456256	  -9.03881	-0.000450418	  -9.03881	  -11.2604	
  -8.96807	-0.000442304	  -9.00467	-0.000452668	  -8.99325	-0.000456203	  -8.98866	-0.000450392	  -8.98866	  -11.2598	
  -8.91777	-0.000442315	  -8.95418	-0.000452681	  -8.94263	-0.000456182	  -8.93819	-0.000450393	  -8.93819	  -11.2598	
  -8.86698	-0.000442314	  -8.90336	-0.000452623	   -8.8916	-0.000456204	  -8.88731	-0.00045038	  -8.88731	  -11.2595	
  -8.81584	-0.000442284	  -8.85215	-0.000452586	  -8.84014	-0.000456165	  -8.83605	-0.000450345	  -8.83605	  -11.2586	
  -8.76453	-0.000442234	  -8.80066	-0.000452602	  -8.78847	-0.000456164	  -8.78455	-0.000450334	  -8.78455	  -11.2583	
  -8.71277	-0.000442181	   -8.7489	-0.000452532	  -8.73641	-0.0004562	   -8.7327	-0.000450305	   -8.7327	  -11.2576	
  -8.66066	-0.000442114	  -8.69669	-0.000452458	  -8.68393	-0.000456136	  -8.68043	-0.000450236	  -8.68043	  -11.2559	
  -8.60835	-0.000442017	  -8.64421	-0.000452419	  -8.63119	-0.000456088	  -8.62792	-0.000450174	  -8.62792	  -11.2544	
  -8.55564	-0.000441915	  -8.59145	-0.000452278	  -8.57807	-0.000456083	  -8.57505	-0.000450092	  -8.57505	  -11.2523	
  -8.50255	-0.000441787	  -8.53828	-0.000452163	  -8.52455	-0.000456027	  -8.52179	-0.000449992	  -8.52179	  -11.2498	
  -8.44925	-0.000441641	  -8.48482	-0.00045204	  -8.47082	-0.000455985	   -8.4683	-0.000449889	   -8.4683	  -11.2472	
  -8.39565	-0.000441489	  -8.43107	-0.000451866	  -8.41675	-0.000455933	  -8.41449	-0.000449763	  -8.41449	  -11.2441	
  -8.34166	-0.000441325	  -8.37685	-0.000451651	  -8.36231	-0.000455874	  -8.36027	-0.000449617	  -8.36027	  -11.2404	
  -8.28748	-0.000441149	  -8.32236	-0.000451426	  -8.30763	-0.000455759	  -8.30582	-0.000449445	  -8.30582	  -11.2361	
  -8.23299	-0.000440943	  -8.26756	-0.000451185	  -8.25263	-0.000455681	  -8.25106	-0.00044927	  -8.25106	  -11.2317	
  -8.17814	-0.000440731	  -8.21227	-0.000450915	  -8.19728	-0.000455608	   -8.1959	-0.000449085	   -8.1959	  -11.2271	
  -8.12269	-0.000440521	  -8.15672	-0.00045064	  -8.14174	-0.000455445	  -8.14038	-0.000448869	  -8.14038	  -11.2217	
  -8.06724	-0.000440265	   -8.1008	-0.000450314	  -8.08588	-0.000455274	  -8.08464	-0.000448617	  -8.08464	  -11.2154	
  -8.01137	-0.000440077	  -8.04447	-0.000450004	  -8.02966	-0.000455115	   -8.0285	-0.000448399	   -8.0285	    -11.21	
  -7.95534	-0.000439801	  -7.98787	-0.000449712	  -7.97323	-0.000454958	  -7.97215	-0.000448157	  -7.97215	  -11.2039	
  -7.89882	-0.00043954	  -7.93099	-0.000449361	  -7.91651	-0.000454782	  -7.91544	-0.000447894	  -7.91544	  -11.1974	
  -7.84197	-0.000439316	   -7.8737	-0.000449034	  -7.85946	-0.000454619	  -7.85838	-0.000447657	  -7.85838	  -11.1914	
  -7.78493	-0.000439039	  -7.81613	-0.000448719	   -7.8022	-0.000454426	  -7.80109	-0.000447395	  -7.80109	  -11.1849	
  -7.72745	-0.000438714	   -7.7582	-0.000448365	  -7.74454	-0.000454232	   -7.7434	-0.000447104	   -7.7434	  -11.1776	
  -7.66968	-0.00043848	  -7.70002	-0.00044795	  -7.68653	-0.000454041	  -7.68541	-0.000446824	  -7.68541	  -11.1706	
  -7.61164	-0.000438168	  -7.64137	-0.000447577	  -7.62833	-0.000453811	  -7.62711	-0.000446518	  -7.62711	   -11.163	
  -7.55317	-0.000437849	  -7.58252	-0.000447188	   -7.5697	-0.000453585	  -7.56846	-0.000446207	  -7.56846	  -11.1552	
  -7.49446	-0.00043753	  -7.52344	-0.000446833	  -7.51078	-0.000453374	  -7.50956	-0.000445912	  -7.50956	  -11.1478	
  -7.43551	-0.000437137	  -7.46398	-0.000446379	  -7.45162	-0.000453127	  -7.45037	-0.000445548	  -7.45037	  -11.1387	
  -7.37614	-0.000436818	  -7.40431	-0.000445918	  -7.39204	-0.000452874	  -7.39083	-0.000445203	  -7.39083	  -11.1301	
  -7.31654	-0.00043644	  -7.34435	-0.000445469	  -7.33222	-0.000452643	  -7.33104	-0.000444851	  -7.33104	  -11.1213	
  -7.25662	-0.000436014	   -7.2841	-0.000444931	  -7.27217	-0.000452386	  -7.27096	-0.000444444	  -7.27096	  -11.1111	
  -7.19637	-0.00043569	  -7.22347	-0.000444398	  -7.21172	-0.000452114	  -7.21052	-0.000444067	  -7.21052	  -11.1017	
  -7.13594	-0.00043528	  -7.16262	-0.000443853	  -7.15108	-0.000451855	  -7.14988	-0.000443663	  -7.14988	  -11.0916	
  -7.07518	-0.000434881	  -7.10141	-0.000443213	  -7.09021	-0.00045158	  -7.08894	-0.000443225	  -7.08894	  -11.0806	
  -7.01412	-0.000434551	  -7.03985	-0.000442571	  -7.02907	-0.000451246	  -7.02768	-0.00044279	  -7.02768	  -11.0697	
  -6.95281	-0.000434115	  -6.97818	-0.000441984	  -6.96766	-0.00045095	  -6.96621	-0.00044235	  -6.96621	  -11.0587	
  -6.89107	-0.000433689	  -6.91615	-0.000441285	    -6.906	-0.000450679	  -6.90441	-0.000441885	  -6.90441	  -11.0471	
  -6.82912	-0.000433289	  -6.85385	-0.00044061	  -6.84406	-0.0004503	  -6.84234	-0.000441399	  -6.84234	   -11.035	
   -6.7669	-0.00043281	  -6.79136	-0.000439966	  -6.78192	-0.000449951	  -6.78006	-0.000440909	  -6.78006	  -11.0227	
  -6.70431	-0.000432318	   -6.7285	-0.000439218	  -6.71942	-0.000449618	  -6.71741	-0.000440385	  -6.71741	  -11.0096	
  -6.64168	-0.000431791	  -6.66544	-0.000438476	  -6.65672	-0.000449187	  -6.65461	-0.000439818	  -6.65461	  -10.9955	
  -6.57873	-0.000431335	  -6.60206	-0.000437746	  -6.59368	-0.000448824	  -6.59149	-0.000439302	  -6.59149	  -10.9825	
  -6.51547	-0.000430792	   -6.5382	-0.000436984	  -6.53031	-0.000448432	  -6.52799	-0.000438736	  -6.52799	  -10.9684	
  -6.45182	-0.000430122	  -6.47433	-0.000436115	  -6.46675	-0.000447924	   -6.4643	-0.000438054	   -6.4643	  -10.9513	
  -6.38805	-0.000429609	  -6.41002	-0.000435356	  -6.40273	-0.000447456	  -6.40027	-0.000437474	  -6.40027	  -10.9368	
  -6.32404	-0.000428943	  -6.34549	-0.000434479	  -6.33846	-0.000446931	    -6.336	-0.000436784	    -6.336	  -10.9196	
  -6.25977	-0.000428328	  -6.28074	-0.000433559	  -6.27404	-0.000446371	  -6.27152	-0.000436086	  -6.27152	  -10.9022	
  -6.19518	-0.000427897	  -6.21564	-0.000432749	  -6.20923	-0.00044582	  -6.20668	-0.000435488	  -6.20668	  -10.8872	
  -6.13046	-0.00042733	  -6.15038	-0.000431839	  -6.14428	-0.000445242	   -6.1417	-0.000434804	   -6.1417	  -10.8701	
  -6.06537	-0.000426711	   -6.0848	-0.000430906	  -6.07911	-0.000444626	  -6.07643	-0.000434081	  -6.07643	   -10.852	
        -6	-0.000426345	  -6.01894	-0.000430041	  -6.01367	-0.000444011	  -6.01087	-0.000433466	  -6.01087	  -10.8366	
  -5.93443	-0.00042577	  -5.95295	-0.000429117	   -5.9481	-0.000443379	  -5.94516	-0.000432755	  -5.94516	  -10.8189	
  -5.86852	-0.000425103	  -5.88661	-0.000428143	  -5.88222	-0.000442757	  -5.87912	-0.000432001	  -5.87912	     -10.8	
  -5.80249	-0.00042467	  -5.82007	-0.000427146	  -5.81615	-0.000442069	   -5.8129	-0.000431295	   -5.8129	  -10.7824	
  -5.73613	-0.000424101	  -5.75334	-0.000426163	  -5.74988	-0.000441404	  -5.74645	-0.000430556	  -5.74645	  -10.7639	
  -5.66949	-0.000423421	  -5.68633	-0.000425207	  -5.68331	-0.000440709	  -5.67971	-0.000429779	  -5.67971	  -10.7445	
  -5.60267	-0.000422912	  -5.61922	-0.000424164	  -5.61666	-0.000439931	  -5.61285	-0.000429002	  -5.61285	  -10.7251	
  -5.53559	-0.00042235	   -5.5518	-0.000423149	  -5.54964	-0.000439265	  -5.54567	-0.000428255	  -5.54567	  -10.7064	
  -5.46834	-0.000421713	  -5.48419	-0.000422133	  -5.48259	-0.000438452	  -5.47837	-0.000427433	  -5.47837	  -10.6858	
  -5.40096	-0.000421178	  -5.41642	-0.000421022	  -5.41525	-0.000437617	  -5.41088	-0.000426606	  -5.41088	  -10.6651	
  -5.33332	-0.000420577	  -5.34833	-0.000419997	  -5.34757	-0.000436846	  -5.34307	-0.000425806	  -5.34307	  -10.6452	
  -5.26562	-0.000419902	  -5.28015	-0.00041896	  -5.27972	-0.000435937	  -5.27516	-0.000424933	  -5.27516	  -10.6233	
  -5.19758	-0.000419385	  -5.21171	-0.000417818	  -5.21164	-0.000434991	  -5.20697	-0.000424065	  -5.20697	  -10.6016	
  -5.12937	-0.000418797	  -5.14307	-0.000416801	  -5.14334	-0.000434063	  -5.13859	-0.00042322	  -5.13859	  -10.5805	
  -5.06103	-0.000418133	  -5.07435	-0.000415741	  -5.07485	-0.000433084	  -5.07008	-0.000422319	  -5.07008	   -10.558	
  -4.99239	-0.000417584	  -5.00533	-0.000414572	  -5.00607	-0.000432058	  -5.00126	-0.000421405	  -5.00126	  -10.5351	
  -4.92365	-0.000416963	  -4.93616	-0.000413454	  -4.93719	-0.000431028	  -4.93233	-0.000420482	  -4.93233	   -10.512	
  -4.85468	-0.000416297	  -4.86672	-0.000412303	  -4.86806	-0.000429933	  -4.86315	-0.000419511	  -4.86315	  -10.4878	
  -4.78552	-0.000415726	  -4.79711	-0.000411163	   -4.7987	-0.000428817	  -4.79378	-0.000418569	  -4.79378	  -10.4642	
  -4.71623	-0.000415062	  -4.72736	-0.000410075	  -4.72926	-0.000427668	  -4.72428	-0.000417602	  -4.72428	    -10.44	
  -4.64663	-0.000414323	  -4.65744	-0.000408957	  -4.65951	-0.000426415	  -4.65453	-0.000416565	  -4.65453	  -10.4141	
    -4.577	-0.000413741	  -4.58744	-0.000407816	  -4.58965	-0.000425114	   -4.5847	-0.000415557	   -4.5847	  -10.3889	
  -4.50709	-0.000413078	  -4.51725	-0.000406659	  -4.51962	-0.000423891	  -4.51465	-0.000414543	  -4.51465	  -10.3636	
  -4.43701	-0.000412299	   -4.4469	-0.000405513	  -4.44938	-0.00042254	  -4.44443	-0.00041345	  -4.44443	  -10.3363	
   -4.3667	-0.000411653	  -4.37651	-0.000404371	  -4.37905	-0.00042114	  -4.37409	-0.000412388	  -4.37409	  -10.3097	
  -4.29613	-0.000410966	  -4.30585	-0.00040321	  -4.30847	-0.000419777	  -4.30348	-0.000411318	  -4.30348	  -10.2829	
  -4.22551	-0.00041013	   -4.2351	-0.000402038	   -4.2378	-0.000418331	   -4.2328	-0.000410166	   -4.2328	  -10.2542	
  -4.15471	-0.000409391	  -4.16414	-0.0004008	  -4.16688	-0.000416842	  -4.16191	-0.000409011	  -4.16191	  -10.2253	
  -4.08377	-0.00040861	  -4.09302	-0.000399686	  -4.09577	-0.000415364	  -4.09085	-0.000407887	  -4.09085	  -10.1972	
   -4.0128	-0.00040765	  -4.02183	-0.000398533	  -4.02459	-0.000413835	  -4.01974	-0.000406673	  -4.01974	  -10.1668	
  -3.94155	-0.000406813	  -3.95036	-0.000397288	  -3.95315	-0.000412272	  -3.94836	-0.000405458	  -3.94836	  -10.1364	
  -3.87028	-0.000405942	  -3.87886	-0.000396142	  -3.88163	-0.000410716	  -3.87692	-0.000404267	  -3.87692	  -10.1067	
  -3.79882	-0.000404928	  -3.80714	-0.000394961	  -3.80989	-0.000409094	  -3.80528	-0.000402994	  -3.80528	  -10.0749	
  -3.72723	-0.000403998	  -3.73529	-0.000393703	  -3.73793	-0.000407477	  -3.73348	-0.000401726	  -3.73348	  -10.0432	
  -3.65553	-0.00040305	  -3.66339	-0.000392498	  -3.66577	-0.000405801	  -3.66156	-0.00040045	  -3.66156	  -10.0112	
  -3.58361	-0.000401912	  -3.59125	-0.000391289	  -3.59345	-0.000404069	  -3.58944	-0.00039909	  -3.58944	  -9.97725	
  -3.51165	-0.000400893	  -3.51913	-0.000390044	  -3.52107	-0.000402365	  -3.51728	-0.000397767	  -3.51728	  -9.94418	
  -3.43943	-0.000399878	  -3.44675	-0.00038886	  -3.44848	-0.000400584	  -3.44488	-0.000396441	  -3.44488	  -9.91102	
  -3.36708	-0.000398702	  -3.37426	-0.000387671	  -3.37579	-0.000398786	  -3.37238	-0.000395053	  -3.37238	  -9.87633	
  -3.29467	-0.000397596	  -3.30174	-0.000386401	  -3.30307	-0.000397036	  -3.29983	-0.000393678	  -3.29983	  -9.84195	
  -3.22205	-0.000396458	  -3.22902	-0.000385241	  -3.23013	-0.00039524	  -3.22707	-0.000392313	  -3.22707	  -9.80782	
   -3.1494	-0.000395214	  -3.15633	 -0.000384	  -3.15723	-0.000393449	  -3.15432	-0.000390888	  -3.15432	  -9.77219	
  -3.07656	-0.000394019	   -3.0834	-0.000382653	  -3.08415	-0.000391682	  -3.08137	-0.000389451	  -3.08137	  -9.73629	
  -3.00367	-0.000392801	  -3.01041	-0.00038148	  -3.01098	-0.00038987	  -3.00835	-0.00038805	  -3.00835	  -9.70126	
  -2.93068	-0.000391485	  -2.93728	-0.000380121	  -2.93765	-0.000388093	   -2.9352	-0.000386566	   -2.9352	  -9.66416	
  -2.85752	-0.000390179	  -2.86396	-0.00037871	  -2.86416	-0.000386327	  -2.86188	-0.000385072	  -2.86188	  -9.62681	
  -2.78431	-0.000388867	  -2.79061	-0.000377427	  -2.79068	-0.000384541	  -2.78853	-0.000383612	  -2.78853	  -9.59029	
  -2.71089	-0.000387463	  -2.71702	-0.000375997	    -2.717	-0.000382742	  -2.71497	-0.000382067	  -2.71497	  -9.55167	
  -2.63743	-0.000386069	  -2.64341	-0.000374536	  -2.64328	-0.000380916	  -2.64137	-0.000380507	  -2.64137	  -9.51267	
  -2.56377	-0.00038466	  -2.56966	-0.00037316	  -2.56945	-0.000379193	  -2.56763	-0.000379004	  -2.56763	   -9.4751	
  -2.48993	-0.000383252	  -2.49579	-0.000371699	  -2.49549	-0.000377334	  -2.49374	-0.000377429	  -2.49374	  -9.43572	
  -2.41615	-0.000381714	  -2.42189	-0.000370174	  -2.42151	-0.000375463	  -2.41985	-0.000375784	  -2.41985	  -9.39459	
  -2.34214	-0.000380209	  -2.34785	-0.000368737	   -2.3473	-0.000373676	  -2.34577	-0.000374207	  -2.34577	  -9.35519	
  -2.26809	-0.00037878	  -2.27379	-0.000367237	  -2.27307	-0.000371764	  -2.27165	-0.000372594	  -2.27165	  -9.31484	
  -2.19379	-0.000377125	   -2.1996	-0.000365655	  -2.19873	-0.000369839	  -2.19738	-0.000370873	  -2.19738	  -9.27182	
  -2.11945	-0.000375525	  -2.12531	-0.000364145	  -2.12433	-0.000367984	  -2.12303	-0.000369218	  -2.12303	  -9.23045	
    -2.045	-0.000374017	  -2.05098	-0.000362598	  -2.04997	-0.000366001	  -2.04865	-0.000367539	  -2.04865	  -9.18847	
  -1.97042	-0.000372351	  -1.97649	-0.000360955	  -1.97545	-0.000364005	  -1.97412	-0.00036577	  -1.97412	  -9.14426	
  -1.89588	-0.000370699	  -1.90207	-0.000359371	  -1.90097	-0.000362102	  -1.89964	-0.000364057	  -1.89964	  -9.10144	
  -1.82112	-0.000369179	  -1.82739	-0.000357783	  -1.82625	-0.000360122	  -1.82492	-0.000362361	  -1.82492	  -9.05903	
  -1.74634	-0.000367529	  -1.75269	-0.000356148	  -1.75152	-0.000358138	  -1.75019	-0.000360605	  -1.75019	  -9.01512	
