# User: ACHyster
# File name: C:/ACHYSTER/ACHyster SENS/SHAMS/CoFe2O4-1gl-water-80 Glycerol-Sens-08-03-2023/CoFe2O4-1gl-water-80 Glycerol- 10_100F-24 kAm -Sens-08-03-20230003#1.txt
# Saved at: mi. mar. 8 16:21:50 2023
# Hyster Loop (3 iterations). Intensity: 24.0 kA/m; Tuned frequency: 41.9 kHz
# Units x axis: (kA/m)
# Units y axis: "Repeats y" & "Average y" (10^(-3)Am^2); "Mass avg y" (Am^2/kg)
# Magnetic mass: 4e-05 g
# Parameter      	Repeat   1	Repeat   2	Repeat   3	Average   	Sigma     
# H_C (kA/m)     	      12.6	      13.3	      13.7	      13.2	       0.5
# M_R (Am^2/kg)  	      11.4	      10.0	      10.5	      10.6	       0.6
# M_max (Am^2/kg)	      18.6	      15.1	      14.8	      16.2	       1.7
# Area (mJ/kg)   	     988.3	     858.4	     897.9	     914.9	      54.4
# SAR (W/g)      	      41.4	      36.0	      37.6	      38.4	       2.3
#Repeat 1 x	Repeat 1 y	Repeat 2 x	Repeat 2 y	Repeat 3 x	Repeat 3 y	Average x 	Average y 	Mass avg x 	Mass avg y 
  -3.47347	-0.00053702	  -3.35506	-0.000461361	  -3.35149	-0.000481772	  -3.39334	-0.000493384	  -3.39334	  -12.3346	
  -3.32255	-0.000533765	  -3.20814	-0.000458855	  -3.20309	-0.00047932	  -3.24459	-0.000490647	  -3.24459	  -12.2662	
  -3.17097	-0.000530376	   -3.0611	-0.000456271	   -3.0548	-0.000476815	  -3.09562	-0.000487821	  -3.09562	  -12.1955	
  -3.01954	-0.000526902	  -2.91418	-0.000453639	  -2.90659	-0.000474285	  -2.94677	-0.000484942	  -2.94677	  -12.1235	
  -2.86825	-0.000523445	  -2.76735	-0.000451009	  -2.75842	-0.000471751	  -2.79801	-0.000482068	  -2.79801	  -12.0517	
  -2.71759	-0.000520061	  -2.62081	-0.000448415	  -2.61026	-0.00046922	  -2.64955	-0.000479232	  -2.64955	  -11.9808	
  -2.56697	-0.000516711	  -2.47373	-0.000445834	  -2.46208	-0.000466669	  -2.50093	-0.000476405	  -2.50093	  -11.9101	
  -2.41635	-0.000513304	  -2.32638	-0.00044322	  -2.31386	-0.000464074	   -2.3522	-0.000473533	   -2.3522	  -11.8383	
   -2.2652	-0.000509779	  -2.17876	-0.000440541	  -2.16531	-0.000461425	  -2.20309	-0.000470581	  -2.20309	  -11.7645	
  -2.11407	-0.00050614	  -2.03112	-0.0004378	  -2.01722	-0.000458738	  -2.05414	-0.00046756	  -2.05414	   -11.689	
  -1.96268	-0.000502467	  -1.88344	-0.000435032	  -1.86847	-0.000456035	  -1.90486	-0.000464511	  -1.90486	  -11.6128	
   -1.8105	-0.000498819	  -1.73594	-0.000432275	  -1.71988	-0.000453324	  -1.75544	-0.000461473	  -1.75544	  -11.5368	
  -1.65838	-0.000495271	  -1.58834	-0.000429537	  -1.57116	-0.000450595	  -1.60596	-0.000458467	  -1.60596	  -11.4617	
  -1.50603	-0.000491772	   -1.4398	-0.00042679	  -1.42307	-0.000447826	   -1.4563	-0.000455463	   -1.4563	  -11.3866	
  -1.35372	-0.000488144	  -1.29066	-0.000423999	    -1.275	-0.000444944	  -1.30646	-0.000452362	  -1.30646	  -11.3091	
  -1.20144	-0.000484329	  -1.14146	-0.000421141	  -1.12694	-0.000442011	  -1.15661	-0.00044916	  -1.15661	   -11.229	
  -1.04891	-0.000480362	 -0.991913	-0.000418224	 -0.978589	-0.000439085	  -1.00647	-0.00044589	  -1.00647	  -11.1473	
 -0.896122	-0.000476369	 -0.842294	-0.000415279	 -0.830202	-0.000436275	 -0.856206	-0.000442641	 -0.856206	   -11.066	
 -0.743367	-0.000472516	 -0.692324	-0.00041233	 -0.681763	-0.000433521	 -0.705818	-0.000439455	 -0.705818	  -10.9864	
 -0.590888	-0.00046883	 -0.542536	-0.000409375	 -0.531668	-0.00043072	 -0.555031	-0.000436309	 -0.555031	  -10.9077	
 -0.438384	-0.00046515	 -0.392365	-0.000406391	 -0.380294	-0.000427744	 -0.403681	-0.000433095	 -0.403681	  -10.8274	
 -0.286108	-0.000461373	 -0.242346	-0.000403352	  -0.22852	-0.000424601	 -0.252324	-0.000429776	 -0.252324	  -10.7444	
 -0.133766	-0.000457428	-0.0924507	-0.000400247	-0.0792571	-0.000421378	 -0.101824	-0.000426351	 -0.101824	  -10.6588	
 0.0189162	-0.000453313	 0.0573543	-0.000397085	 0.0711437	-0.000418218	 0.0491381	-0.000422872	 0.0491381	  -10.5718	
  0.171395	-0.000449069	  0.207359	-0.000393889	  0.218136	-0.000415209	  0.198963	-0.000419389	  0.198963	  -10.4847	
  0.323961	-0.000444811	  0.357305	-0.000390672	  0.365715	-0.000412298	  0.348994	-0.000415927	  0.348994	  -10.3982	
  0.476356	-0.00044062	  0.507485	-0.000387432	  0.513071	-0.000409329	  0.498971	-0.00041246	  0.498971	  -10.3115	
  0.628924	-0.000436474	  0.657638	-0.000384151	  0.660198	-0.000406203	   0.64892	-0.000408943	   0.64892	  -10.2236	
  0.780822	-0.00043232	  0.807783	-0.000380815	  0.807462	-0.000402923	  0.798689	-0.000405353	  0.798689	  -10.1338	
  0.932645	-0.00042811	  0.957943	-0.000377423	  0.955148	-0.000399608	  0.948579	-0.000401714	  0.948579	  -10.0428	
   1.08442	-0.000423782	   1.10814	-0.000373994	   1.10325	-0.000396385	    1.0986	-0.000398053	    1.0986	  -9.95134	
   1.23615	-0.000419355	   1.25865	-0.000370543	   1.25149	-0.000393274	   1.24876	-0.00039439	   1.24876	  -9.85976	
   1.38787	-0.000414893	   1.40894	-0.000367083	    1.3991	-0.000390155	   1.39864	-0.00039071	   1.39864	  -9.76776	
   1.53958	-0.00041051	   1.55879	-0.000363601	   1.54669	-0.000387016	   1.54835	-0.000387042	   1.54835	  -9.67606	
   1.69105	-0.000406129	   1.70851	-0.000360079	   1.69376	-0.000383804	   1.69778	-0.000383338	   1.69778	  -9.58344	
   1.84231	-0.000401633	   1.85788	-0.000356507	   1.84171	-0.000380546	    1.8473	-0.000379562	    1.8473	  -9.48904	
   1.99312	-0.000396968	   2.00748	-0.000352894	   1.99101	-0.000377233	    1.9972	-0.000375698	    1.9972	  -9.39246	
   2.14329	-0.000392224	   2.15704	-0.000349258	   2.14053	-0.000373876	   2.14695	-0.000371786	   2.14695	  -9.29466	
   2.29314	-0.000387524	   2.30659	-0.000345596	   2.28947	-0.000370463	    2.2964	-0.000367861	    2.2964	  -9.19653	
   2.44273	-0.00038295	   2.45642	-0.000341906	   2.43844	-0.000367027	   2.44586	-0.000363961	   2.44586	  -9.09902	
   2.59236	-0.000378472	   2.60626	-0.000338196	    2.5843	-0.000363604	   2.59431	-0.000360091	   2.59431	  -9.00227	
   2.74309	-0.000373959	   2.75535	-0.000334509	   2.73023	-0.000360223	   2.74289	-0.00035623	   2.74289	  -8.90575	
   2.89487	-0.000369266	   2.90377	-0.000330814	   2.87575	-0.000356841	   2.89146	-0.000352307	   2.89146	  -8.80768	
   3.04683	-0.000364428	   3.05213	-0.000327081	   3.02222	-0.000353379	   3.04039	-0.000348296	   3.04039	   -8.7074	
   3.19897	-0.000359537	   3.20045	-0.000323281	   3.16936	-0.000349756	   3.18959	-0.000344191	   3.18959	  -8.60478	
   3.35077	-0.000354682	   3.34825	-0.000319383	   3.31713	-0.000345994	   3.33872	-0.00034002	   3.33872	   -8.5005	
   3.50278	-0.000349924	   3.49586	-0.000315406	   3.46498	-0.000342153	   3.48787	-0.000335828	   3.48787	  -8.39569	
   3.65371	-0.000345247	   3.64279	-0.000311446	   3.61294	-0.00033841	   3.63648	-0.000331701	   3.63648	  -8.29252	
   3.80469	-0.000340517	   3.78966	-0.000307552	   3.75997	-0.000334859	   3.78478	-0.000327643	   3.78478	  -8.19107	
   3.95628	-0.000335636	   3.93625	-0.000303703	   3.90724	-0.000331441	   3.93326	-0.000323593	   3.93326	  -8.08983	
   4.10791	-0.000330598	   4.08234	-0.000299855	   4.05396	-0.000327968	    4.0814	-0.000319473	    4.0814	  -7.98683	
   4.25987	-0.000325484	   4.22801	-0.000295943	   4.20074	-0.000324273	   4.22954	-0.000315233	   4.22954	  -7.88083	
    4.4116	-0.000320418	   4.37359	-0.000291923	   4.34733	-0.00032029	   4.37751	-0.000310877	   4.37751	  -7.77192	
   4.56288	-0.000315465	   4.51887	-0.000287817	   4.49432	-0.000316165	   4.52536	-0.000306483	   4.52536	  -7.66206	
   4.71456	-0.000310561	   4.66395	-0.000283681	   4.64065	-0.000312116	   4.67305	-0.00030212	   4.67305	  -7.55299	
   4.86635	-0.000305561	   4.80885	-0.000279566	    4.7864	-0.000308255	   4.82053	-0.000297794	   4.82053	  -7.44485	
   5.01852	-0.000300393	   4.95308	-0.00027549	    4.9322	-0.000304505	   4.96793	-0.000293462	   4.96793	  -7.33656	
      5.17	-0.000295097	   5.09726	-0.00027142	   5.07779	-0.000300688	   5.11502	-0.000289068	   5.11502	   -7.2267	
   5.32139	-0.000289785	   5.24118	-0.0002673	   5.22325	-0.000296652	   5.26194	-0.000284579	   5.26194	  -7.11448	
    5.4722	-0.000284559	   5.38491	-0.000263106	   5.36887	-0.000292402	   5.40866	-0.000280022	   5.40866	  -7.00055	
   5.62247	-0.000279424	   5.52823	-0.000258852	   5.51416	-0.000288084	   5.55495	-0.000275453	   5.55495	  -6.88634	
   5.77202	-0.000274289	   5.67122	-0.000254586	   5.65971	-0.000283861	   5.70098	-0.000270912	   5.70098	  -6.77281	
   5.92093	-0.000269043	    5.8137	-0.00025033	     5.805	-0.000279778	   5.84654	-0.000266383	   5.84654	  -6.65959	
   6.06954	-0.00026365	   5.95627	-0.000246067	   5.94982	-0.000275732	   5.99188	-0.000261816	   5.99188	  -6.54541	
   6.21789	-0.000258171	   6.09924	-0.000241768	   6.09401	-0.000271572	   6.13705	-0.00025717	   6.13705	  -6.42926	
   6.36604	-0.00025271	   6.24183	-0.000237416	   6.23789	-0.000267215	   6.28192	-0.000252447	   6.28192	  -6.31117	
   6.51403	-0.000247336	   6.38439	-0.000233005	   6.38182	-0.000262717	   6.42675	-0.000247686	   6.42675	  -6.19215	
   6.66216	-0.000242021	   6.52695	-0.000228557	   6.52609	-0.000258221	   6.57173	-0.000242933	   6.57173	  -6.07333	
   6.80993	-0.00023667	    6.6701	-0.000224031	   6.66991	-0.000253841	   6.71665	-0.00023818	   6.71665	  -5.95451	
   6.95765	-0.000231197	   6.81303	-0.000219502	   6.81364	-0.00024956	   6.86144	-0.00023342	   6.86144	  -5.83549	
   7.10457	-0.000225611	   6.95634	-0.000215046	   6.95707	-0.000245261	   7.00599	-0.000228639	   7.00599	  -5.71599	
    7.2513	-0.000220002	   7.09926	-0.000210681	   7.10024	-0.000240828	   7.15027	-0.000223837	   7.15027	  -5.59593	
   7.39791	-0.000214458	   7.24237	-0.000206328	   7.24298	-0.000236236	   7.29442	-0.000219007	   7.29442	  -5.47518	
   7.54389	-0.000208994	   7.38783	-0.000201885	   7.38588	-0.000231565	    7.4392	-0.000214148	    7.4392	  -5.35371	
   7.68961	-0.000203544	   7.53151	-0.000197235	   7.52898	-0.000226943	   7.58337	-0.00020924	   7.58337	  -5.23101	
   7.83512	-0.000198015	   7.67652	-0.000192445	   7.67204	-0.000222418	   7.72789	-0.000204293	   7.72789	  -5.10731	
   7.97996	-0.000192365	   7.81751	-0.000187648	   7.81459	-0.000217959	   7.87068	-0.000199324	   7.87068	  -4.98311	
   8.12446	-0.000186649	   7.95802	-0.00018298	   7.95671	-0.000213466	   8.01306	-0.000194365	   8.01306	  -4.85913	
   8.26871	-0.000180943	   8.09761	-0.00017846	   8.09849	-0.000208854	   8.15494	-0.000189419	   8.15494	  -4.73547	
    8.4125	-0.000175284	   8.23696	-0.000174014	   8.23946	-0.000204115	   8.29631	-0.000184471	   8.29631	  -4.61177	
   8.55565	-0.000169639	   8.37718	-0.000169489	   8.37977	-0.000199323	   8.43753	-0.000179484	   8.43753	   -4.4871	
   8.69841	-0.00016395	   8.51725	-0.000164822	   8.51982	-0.000194572	   8.57849	-0.000174448	   8.57849	   -4.3612	
   8.84043	-0.000158159	    8.6572	-0.000160059	   8.65964	-0.000189899	   8.71909	-0.000169372	   8.71909	  -4.23431	
   8.98209	-0.000152288	   8.79709	-0.000155316	    8.7993	-0.00018525	   8.85949	-0.000164285	   8.85949	  -4.10712	
   9.12347	-0.000146427	   8.93592	-0.000150683	   8.93862	-0.000180535	   8.99934	-0.000159215	   8.99934	  -3.98037	
   9.26463	-0.000140656	   9.07489	-0.000146169	   9.07767	-0.000175699	   9.13907	-0.000154174	   9.13907	  -3.85436	
   9.40487	-0.000134965	     9.213	-0.000141689	   9.21681	-0.000170793	   9.27823	-0.000149149	   9.27823	  -3.72872	
   9.54457	-0.000129278	   9.35037	-0.000137123	   9.35528	-0.000165829	   9.41674	-0.000144077	   9.41674	  -3.60192	
   9.68383	-0.000123488	   9.48714	-0.000132428	   9.49399	-0.000160975	   9.55499	-0.000138963	   9.55499	  -3.47409	
   9.82275	-0.000117575	    9.6242	-0.000127648	   9.63194	-0.000156163	   9.69296	-0.000133796	   9.69296	  -3.34489	
   9.96088	-0.000111623	   9.76081	-0.000122882	   9.76976	-0.000151311	   9.83049	-0.000128605	   9.83049	  -3.21513	
   10.0986	-0.000105718	   9.89708	-0.00011822	   9.90754	-0.000146346	   9.96774	-0.000123428	   9.96774	   -3.0857	
   10.2366	-9.98943e-05	   10.0326	-0.000113658	   10.0445	-0.000141326	   10.1046	-0.000118293	   10.1046	  -2.95731	
   10.3745	-9.40721e-05	   10.1677	-0.000109089	   10.1809	-0.000136291	    10.241	-0.000113151	    10.241	  -2.82877	
   10.5115	-8.81892e-05	   10.3014	-0.000104423	   10.3167	-0.000131345	   10.3766	-0.000107986	   10.3766	  -2.69965	
   10.6466	-8.2193e-05	   10.4349	-9.96407e-05	   10.4519	-0.000126491	   10.5111	-0.000102775	   10.5111	  -2.56937	
   10.7811	-7.61556e-05	   10.5678	 -9.48e-05	   10.5868	-0.000121636	   10.6452	-9.75305e-05	   10.6452	  -2.43826	
   10.9153	-7.01394e-05	   10.7003	-8.99872e-05	    10.721	-0.000116667	   10.7789	-9.22646e-05	   10.7789	  -2.30661	
   11.0508	-6.42398e-05	   10.8322	-8.52459e-05	   10.8548	-0.000111591	   10.9126	-8.70255e-05	   10.9126	  -2.17564	
   11.1863	-5.84375e-05	   10.9645	-8.05493e-05	   10.9884	-0.000106464	   11.0464	-8.18169e-05	   11.0464	  -2.04542	
    11.322	-5.26139e-05	   11.0965	-7.58261e-05	   11.1217	-0.00010139	   11.1801	-7.66102e-05	   11.1801	  -1.91525	
   11.4579	-4.66769e-05	   11.2279	-7.10243e-05	   11.2538	-9.64363e-05	   11.3132	-7.13792e-05	   11.3132	  -1.78448	
   11.5936	-4.0613e-05	   11.3593	-6.61458e-05	   11.3856	-9.15667e-05	   11.4462	-6.61085e-05	   11.4462	  -1.65271	
    11.728	-3.44831e-05	     11.49	-6.12347e-05	   11.5177	-8.66416e-05	   11.5786	-6.07865e-05	   11.5786	  -1.51966	
   11.8622	-2.84185e-05	   11.6206	-5.63557e-05	   11.6493	-8.15788e-05	   11.7107	-5.5451e-05	   11.7107	  -1.38628	
   11.9952	-2.24901e-05	   11.7503	-5.15409e-05	   11.7806	-7.63873e-05	    11.842	-5.01394e-05	    11.842	  -1.25349	
   12.1273	-1.66557e-05	   11.8801	-4.67596e-05	   11.9113	-7.11516e-05	   11.9729	-4.48557e-05	   11.9729	  -1.12139	
   12.2602	-1.08019e-05	   12.0104	-4.19502e-05	    12.042	-6.59774e-05	   12.1042	-3.95765e-05	   12.1042	 -0.989413	
   12.3912	-4.84168e-06	   12.1404	-3.70733e-05	   12.1725	-6.0903e-05	   12.2347	-3.42727e-05	   12.2347	 -0.856817	
   12.5226	1.22897e-06	     12.27	-3.21453e-05	   12.3024	-5.58608e-05	    12.365	-2.89257e-05	    12.365	 -0.723143	
   12.6531	7.31163e-06	   12.3993	-2.72169e-05	   12.4322	-5.07463e-05	   12.4949	-2.35505e-05	   12.4949	 -0.588763	
    12.783	1.32995e-05	   12.5278	-2.23347e-05	   12.5616	-4.55115e-05	   12.6241	-1.81822e-05	   12.6241	 -0.454555	
   12.9123	1.91616e-05	   12.6563	-1.74995e-05	   12.6906	-4.01982e-05	   12.7531	-1.28454e-05	   12.7531	 -0.321134	
    13.041	2.49814e-05	   12.7843	-1.26676e-05	   12.8191	-3.48955e-05	   12.8815	-7.52728e-06	   12.8815	 -0.188182	
   13.1691	3.08624e-05	   12.9117	-7.79076e-06	    12.947	-2.96741e-05	   13.0093	-2.20084e-06	   13.0093	-0.0550209	
   13.2969	3.68454e-05	   13.0386	-2.85398e-06	   13.0745	-2.45333e-05	   13.1366	3.1527e-06	   13.1366	 0.0788174	
   13.4241	4.28944e-05	   13.1649	2.11576e-06	   13.2011	-1.94033e-05	   13.2634	8.53559e-06	   13.2634	   0.21339	
   13.5515	4.89204e-05	   13.2907	7.06758e-06	   13.3273	-1.42038e-05	   13.3898	1.39281e-05	   13.3898	  0.348202	
   13.6778	5.48642e-05	   13.4158	1.19702e-05	   13.4529	-8.91319e-06	   13.5155	1.93071e-05	   13.5155	  0.482677	
   13.8037	6.0744e-05	   13.5404	1.6838e-05	   13.5776	-3.58235e-06	   13.6406	2.46666e-05	   13.6406	  0.616664	
   13.9286	6.66141e-05	   13.6645	2.17194e-05	   13.7016	1.71173e-06	   13.7649	3.00151e-05	   13.7649	  0.750377	
    14.053	7.25004e-05	    13.788	2.66528e-05	    13.825	6.92275e-06	   13.8887	3.53586e-05	   13.8887	  0.883966	
   14.1766	7.84168e-05	   13.9107	3.16365e-05	   13.9474	1.20752e-05	   14.0116	4.07095e-05	   14.0116	   1.01774	
   14.2995	8.43545e-05	   14.0334	3.6633e-05	   14.0691	1.72436e-05	    14.134	4.6077e-05	    14.134	   1.15193	
   14.4218	9.03097e-05	   14.1552	4.15965e-05	     14.19	2.24864e-05	   14.2557	5.14642e-05	   14.2557	    1.2866	
   14.5431	9.6235e-05	   14.2767	4.65162e-05	   14.3104	2.77935e-05	   14.3767	5.68482e-05	   14.3767	   1.42121	
   14.6639	0.000102144	   14.3983	5.14229e-05	   14.4301	3.30998e-05	   14.4975	6.22223e-05	   14.4975	   1.55556	
   14.7839	0.000108068	   14.5195	5.63571e-05	   14.5495	3.83436e-05	   14.6176	6.75896e-05	   14.6176	   1.68974	
   14.9031	0.000114003	   14.6402	6.13351e-05	   14.6685	4.35127e-05	   14.7373	7.29503e-05	   14.7373	   1.82376	
   15.0224	0.000119949	   14.7605	6.63398e-05	   14.7867	4.86481e-05	   14.8565	7.83123e-05	   14.8565	   1.95781	
   15.1413	0.00012592	   14.8801	7.1332e-05	   14.9045	5.38127e-05	   14.9753	8.36881e-05	   14.9753	    2.0922	
   15.2595	0.000131905	   14.9994	7.62846e-05	   15.0206	5.90452e-05	   15.0932	8.90782e-05	   15.0932	   2.22695	
   15.3768	0.000137842	   15.1179	8.11958e-05	   15.1362	6.4322e-05	   15.2103	9.44534e-05	   15.2103	   2.36133	
   15.4938	0.000143706	   15.2358	8.60936e-05	   15.2511	6.95631e-05	   15.3269	9.97877e-05	   15.3269	   2.49469	
   15.6106	0.000149484	   15.3532	9.10096e-05	   15.3654	7.47142e-05	   15.4431	0.000105069	   15.4431	   2.62673	
   15.7263	0.000155252	   15.4701	9.59553e-05	   15.4786	7.98236e-05	   15.5583	0.000110344	   15.5583	   2.75859	
   15.8416	0.000161101	   15.5864	0.000100917	   15.5911	8.49949e-05	    15.673	0.000115671	    15.673	   2.89177	
   15.9562	0.000167118	    15.702	0.000105833	   15.7029	9.02596e-05	    15.787	0.00012107	    15.787	   3.02675	
   16.0705	0.00017321	   15.8168	0.000110696	   15.8136	9.55853e-05	   15.9003	0.000126497	   15.9003	   3.16243	
   16.1843	0.000179259	   15.9308	0.000115557	   15.9222	0.000100877	   16.0124	0.000131897	   16.0124	   3.29743	
   16.2971	0.000185193	   16.0438	0.00012045	     16.03	0.000106054	   16.1236	0.000137233	   16.1236	   3.43082	
   16.4092	0.000190983	   16.1558	0.000125402	   16.1381	0.000111093	   16.2344	0.000142493	   16.2344	   3.56232	
   16.5208	0.000196714	   16.2666	0.000130386	   16.2464	0.000116082	   16.3446	0.000147727	   16.3446	   3.69318	
   16.6316	0.000202516	   16.3768	0.000135314	   16.3557	0.000121119	   16.4547	0.000152983	   16.4547	   3.82458	
    16.742	0.000208467	   16.4862	0.000140137	   16.4649	0.000126249	   16.5644	0.000158284	   16.5644	   3.95711	
   16.8517	0.000214498	   16.5951	0.000144904	   16.5738	0.000131446	   16.6736	0.000163616	   16.6736	    4.0904	
   16.9614	0.000220507	   16.7038	0.000149697	   16.6814	0.000136646	   16.7822	0.00016895	   16.7822	   4.22375	
   17.0706	0.000226402	   16.8117	0.000154576	   16.7884	0.000141771	   16.8902	0.00017425	   16.8902	   4.35624	
    17.179	0.000232166	   16.9193	0.000159531	   16.8929	0.000146809	   16.9971	0.000179502	   16.9971	   4.48756	
   17.2868	0.000237873	   17.0263	0.000164493	   16.9963	0.00015177	   17.1031	0.000184712	   17.1031	   4.61781	
   17.3941	0.000243638	   17.1328	0.000169376	      17.1	0.000156753	    17.209	0.000189922	    17.209	   4.74806	
   17.5009	0.00024951	   17.2378	0.000174163	   17.2026	0.000161794	   17.3138	0.000195155	   17.3138	   4.87889	
   17.6076	0.000255444	   17.3421	0.000178915	   17.3056	0.000166856	   17.4184	0.000200405	   17.4184	   5.01012	
   17.7139	0.000261334	   17.4457	0.000183716	   17.4087	0.000171875	   17.5228	0.000205642	   17.5228	   5.14104	
   17.8192	0.000267109	   17.5482	0.000188643	   17.5107	0.000176829	    17.626	0.00021086	    17.626	   5.27151	
    17.924	0.000272765	   17.6498	0.000193648	   17.6126	0.000181705	   17.7288	0.000216039	   17.7288	   5.40098	
   18.0278	0.000278388	   17.7507	0.000198607	   17.7134	0.000186578	   17.8306	0.000221191	   17.8306	   5.52978	
   18.1307	0.00028407	    17.851	0.000203418	   17.8141	0.000191481	   17.9319	0.000226323	   17.9319	   5.65807	
   18.2328	0.000289841	   17.9501	0.000208051	   17.9136	0.000196399	   18.0322	0.00023143	   18.0322	   5.78576	
   18.3336	0.00029565	   18.0483	0.00021261	    18.012	0.000201261	   18.1313	0.000236507	   18.1313	   5.91267	
   18.4332	0.000301403	   18.1459	0.000217289	   18.1107	0.000206067	     18.23	0.000241586	     18.23	   6.03966	
   18.5324	0.000307045	   18.2428	0.000222138	   18.2085	0.000210875	   18.3279	0.000246686	   18.3279	   6.16715	
   18.6306	0.000312597	   18.3386	0.000227082	   18.3054	0.000215733	   18.4249	0.000251804	   18.4249	    6.2951	
   18.7287	0.000318136	    18.434	0.000231965	   18.4019	0.000220641	   18.5216	0.000256914	   18.5216	   6.42285	
    18.826	0.000323728	   18.5285	0.000236659	   18.4977	0.000225543	   18.6174	0.000261977	   18.6174	   6.54942	
   18.9225	0.000329374	   18.6224	0.000241174	   18.5933	0.000230352	   18.7127	0.000266967	   18.7127	   6.67417	
   19.0186	0.000335015	   18.7154	0.000245664	   18.6878	0.000235045	   18.8072	0.000271908	   18.8072	   6.79771	
   19.1138	0.000340581	    18.808	0.000250269	   18.7813	0.000239702	    18.901	0.00027685	    18.901	   6.92126	
   19.2084	0.00034604	   18.8992	0.000255021	   18.8736	0.000244409	   18.9937	0.000281823	   18.9937	   7.04559	
   19.3024	0.000351433	   18.9901	0.000259832	   18.9649	 0.0002492	   19.0858	0.000286822	   19.0858	   7.17055	
   19.3956	0.000356839	   19.0798	0.000264557	   19.0556	0.000254027	    19.177	0.000291808	    19.177	   7.29519	
   19.4884	0.000362303	   19.1691	0.000269104	   19.1454	0.000258805	   19.2676	0.000296737	   19.2676	   7.41844	
   19.5803	0.000367844	   19.2573	0.000273529	   19.2344	0.000263461	   19.3573	0.000301611	   19.3573	   7.54029	
   19.6714	0.000373337	   19.3455	0.000277969	   19.3228	  0.000268	   19.4466	0.000306436	   19.4466	   7.66089	
   19.7614	0.000378703	   19.4327	0.000282539	   19.4099	0.000272519	   19.5347	0.000311253	   19.5347	   7.78134	
   19.8506	0.000383902	   19.5195	0.000287224	   19.4963	0.00027711	   19.6221	0.000316079	   19.6221	   7.90197	
   19.9388	0.000389031	   19.6055	0.000291914	   19.5822	0.000281793	   19.7089	0.000320913	   19.7089	   8.02282	
   20.0266	0.000394204	   19.6912	0.000296485	   19.6677	0.000286495	   19.7951	0.000325728	   19.7951	    8.1432	
   20.1139	0.000399523	   19.7764	0.000300899	   19.7523	0.000291127	   19.8809	0.000330516	   19.8809	   8.26291	
   20.2003	0.000404915	   19.8607	0.000305236	    19.837	0.000295636	    19.966	0.000335263	    19.966	   8.38156	
    20.286	0.000410244	   19.9436	0.000309605	   19.9208	0.000300056	   20.0501	0.000339969	   20.0501	   8.49921	
   20.3703	0.000415402	   20.0254	0.000314061	   20.0046	0.00030448	   20.1334	0.000344648	   20.1334	    8.6162	
   20.4539	0.000420397	   20.1063	0.000318603	   20.0872	0.000308972	   20.2158	0.000349324	   20.2158	    8.7331	
   20.5372	0.000425329	   20.1869	0.000323175	   20.1687	0.000313519	   20.2976	0.000354008	   20.2976	   8.85019	
   20.6198	0.000430345	    20.266	0.000327678	   20.2493	0.000318052	   20.3784	0.000358691	   20.3784	   8.96729	
   20.7014	0.000435479	   20.3436	0.000332052	   20.3292	0.000322488	   20.4581	0.00036334	   20.4581	   9.08349	
   20.7819	0.000440666	     20.42	0.000336339	   20.4082	0.000326804	   20.5367	0.000367936	   20.5367	    9.1984	
   20.8613	0.000445783	   20.4949	0.000340597	   20.4865	0.00033104	   20.6142	0.000372473	   20.6142	   9.31183	
   20.9403	0.000450767	   20.5699	0.000344859	   20.5634	0.000335281	   20.6912	0.000376969	   20.6912	   9.42423	
   21.0187	0.000455599	   20.6447	0.000349143	     20.64	0.000339569	   20.7678	0.000381437	   20.7678	   9.53592	
   21.0965	0.000460412	   20.7189	0.000353392	   20.7154	0.000343884	   20.8436	0.000385896	   20.8436	    9.6474	
   21.1735	0.000465309	    20.793	0.000357575	   20.7898	0.000348154	   20.9188	0.000390346	   20.9188	   9.75864	
   21.2494	0.000470353	   20.8661	0.000361718	   20.8634	0.000352328	   20.9929	 0.0003948	   20.9929	   9.86999	
   21.3249	0.000475436	   20.9382	0.000365849	   20.9363	0.000356407	   21.0665	0.000399231	   21.0665	   9.98076	
   21.3994	0.000480422	   21.0094	0.000370016	   21.0085	0.000360449	   21.1391	0.000403629	   21.1391	   10.0907	
   21.4732	0.000485192	   21.0788	0.000374167	   21.0803	0.000364512	   21.2108	0.000407957	   21.2108	   10.1989	
    21.546	0.000489811	   21.1479	0.000378252	   21.1514	0.000368617	   21.2818	0.000412227	   21.2818	   10.3057	
   21.6178	0.000494415	   21.2165	0.00038221	   21.2217	0.000372723	    21.352	0.00041645	    21.352	   10.4112	
   21.6883	0.000499137	   21.2835	0.000386099	   21.2916	0.000376785	   21.4211	0.000420674	   21.4211	   10.5168	
   21.7579	0.000503978	   21.3502	0.000389992	   21.3606	0.000380756	   21.4896	0.000424909	   21.4896	   10.6227	
   21.8272	0.000508824	   21.4159	0.000393976	   21.4292	0.000384635	   21.5574	0.000429145	   21.5574	   10.7286	
   21.8952	0.000513525	   21.4813	0.000398013	   21.4974	0.000388457	   21.6246	0.000433331	   21.6246	   10.8333	
   21.9622	0.000518039	   21.5455	0.000402024	   21.5649	0.000392272	   21.6909	0.000437445	   21.6909	   10.9361	
   22.0285	0.000522457	   21.6093	0.000405932	   21.6323	0.000396103	   21.7567	0.000441497	   21.7567	   11.0374	
   22.0942	0.000526908	   21.6728	0.000409727	   21.6989	0.000399934	    21.822	0.000445523	    21.822	   11.1381	
   22.1592	0.000531453	   21.7358	0.000413454	   21.7649	0.000403738	   21.8866	0.000449548	   21.8866	   11.2387	
   22.2232	0.000536048	   21.7985	0.000417208	   21.8294	0.000407476	   21.9504	0.000453577	   21.9504	   11.3394	
   22.2866	0.000540583	   21.8604	0.000421021	   21.8929	0.00041119	   22.0133	0.000457598	   22.0133	   11.4399	
   22.3489	0.000544969	   21.9218	0.000424855	   21.9556	0.000414913	   22.0754	0.000461579	   22.0754	   11.5395	
   22.4106	0.000549213	    21.983	0.000428641	   22.0173	0.000418622	    22.137	0.000465492	    22.137	   11.6373	
    22.471	0.000553407	   22.0428	0.000432325	   22.0781	0.000422278	   22.1973	0.000469337	   22.1973	   11.7334	
   22.5305	0.000557646	   22.1017	0.000435894	   22.1375	0.000425875	   22.2566	0.000473139	   22.2566	   11.8285	
   22.5889	0.000561972	   22.1598	0.000439408	   22.1958	0.000429399	   22.3148	0.000476927	   22.3148	   11.9232	
    22.647	0.000566332	   22.2164	0.000442942	   22.2534	0.000432883	   22.3723	0.000480719	   22.3723	    12.018	
   22.7041	0.000570621	   22.2723	0.000446518	   22.3097	0.00043637	   22.4287	0.000484503	   22.4287	   12.1126	
   22.7603	0.00057477	   22.3278	0.00045012	   22.3647	0.000439868	   22.4843	0.000488253	   22.4843	   12.2063	
   22.8154	0.000578806	   22.3829	0.000453632	   22.4187	0.000443355	    22.539	0.000491931	    22.539	   12.2983	
   22.8698	0.000582822	   22.4371	0.000456986	   22.4715	0.000446806	   22.5928	0.000495538	   22.5928	   12.3884	
   22.9232	0.000586893	   22.4908	0.000460209	   22.5236	0.000450194	   22.6459	0.000499099	   22.6459	   12.4775	
   22.9758	0.000591016	   22.5439	0.000463422	   22.5748	0.000453517	   22.6981	0.000502652	   22.6981	   12.5663	
   23.0277	0.000595119	   22.5954	0.000466633	   22.6251	0.000456807	   22.7494	0.000506186	   22.7494	   12.6547	
   23.0786	0.000599118	   22.6463	0.00046995	   22.6743	0.000460102	   22.7997	0.000509724	   22.7997	   12.7431	
   23.1287	0.000602992	   22.6966	0.000473295	   22.7225	0.000463404	   22.8493	0.000513231	   22.8493	   12.8308	
   23.1781	0.000606789	   22.7461	0.000476649	   22.7701	0.000466691	   22.8981	0.00051671	   22.8981	   12.9177	
   23.2269	0.000610584	   22.7947	 0.0004799	   22.8169	0.000469928	   22.9462	0.000520137	   22.9462	   13.0034	
   23.2748	0.000614414	   22.8426	0.000483048	   22.8621	0.000473093	   22.9932	0.000523519	   22.9932	    13.088	
   23.3217	0.000618252	   22.8896	0.000486054	   22.9068	0.000476202	   23.0394	0.000526836	   23.0394	   13.1709	
   23.3673	0.000622004	   22.9358	0.000489014	   22.9504	0.000479292	   23.0845	0.000530103	   23.0845	   13.2526	
   23.4123	0.00062564	   22.9807	0.00049199	    22.993	0.000482391	   23.1287	0.00053334	   23.1287	   13.3335	
   23.4561	0.000629171	   23.0248	0.000495014	   23.0347	0.000485489	   23.1718	0.000536558	   23.1718	   13.4139	
   23.4986	0.00063268	    23.068	0.000498051	   23.0758	0.000488558	   23.2141	0.000539763	   23.2141	   13.4941	
     23.54	0.000636253	   23.1106	0.000501054	    23.116	0.000491574	   23.2555	0.00054296	   23.2555	    13.574	
   23.5803	0.000639878	   23.1524	0.000503959	   23.1553	0.000494532	    23.296	0.000546123	    23.296	   13.6531	
   23.6198	0.00064343	   23.1933	0.000506783	   23.1936	0.000497449	   23.3356	0.000549221	   23.3356	   13.7305	
   23.6583	0.000646818	   23.2336	0.000509587	   23.2308	0.000500352	   23.3743	0.000552252	   23.3743	   13.8063	
   23.6958	0.000650043	   23.2727	0.000512421	   23.2673	0.000503253	   23.4119	0.000555239	   23.4119	    13.881	
   23.7326	0.000653206	   23.3107	0.000515272	   23.3028	0.000506146	   23.4487	0.000558208	   23.4487	   13.9552	
   23.7684	0.000656419	   23.3474	0.000518102	   23.3379	0.000509016	   23.4846	0.000561179	   23.4846	   14.0295	
   23.8037	0.000659739	   23.3836	0.000520866	   23.3731	0.000511845	   23.5201	0.00056415	   23.5201	   14.1037	
    23.838	0.000663103	   23.4183	0.000523542	   23.4074	0.000514623	   23.5546	0.000567089	   23.5546	   14.1772	
   23.8716	0.00066639	   23.4519	0.000526159	   23.4418	0.000517357	   23.5884	0.000569969	   23.5884	   14.2492	
   23.9044	0.000669518	   23.4845	0.000528762	   23.4747	0.000520066	   23.6212	0.000572782	   23.6212	   14.3195	
   23.9363	0.000672499	   23.5155	0.000531379	    23.507	0.000522758	   23.6529	0.000575545	   23.6529	   14.3886	
   23.9675	0.000675421	   23.5453	0.000534005	   23.5384	0.000525435	   23.6837	0.000578287	   23.6837	   14.4572	
   23.9973	0.000678389	   23.5744	0.000536612	   23.5684	0.000528088	   23.7134	0.00058103	   23.7134	   14.5257	
   24.0261	0.000681443	   23.6021	0.000539156	   23.5978	0.000530704	    23.742	0.000583767	    23.742	   14.5942	
    24.054	0.000684524	   23.6293	0.000541618	   23.6258	0.000533275	   23.7697	0.000586472	   23.7697	   14.6618	
    24.081	0.000687525	   23.6559	0.000544026	   23.6532	0.000535805	   23.7967	0.000589119	   23.7967	    14.728	
   24.1073	0.000690377	   23.6816	0.000546427	   23.6797	0.000538302	   23.8229	0.000591702	   23.8229	   14.7925	
   24.1327	0.000693089	   23.7063	0.000548845	   23.7049	0.000540775	    23.848	0.000594236	    23.848	   14.8559	
   24.1573	0.000695754	     23.73	0.000551272	    23.729	0.000543226	   23.8721	0.00059675	   23.8721	   14.9188	
   24.1808	0.000698471	   23.7529	0.000553669	   23.7519	0.000545648	   23.8952	0.000599263	   23.8952	   14.9816	
   24.2037	0.00070125	    23.775	0.000556003	   23.7742	0.000548039	   23.9177	0.000601764	   23.9177	   15.0441	
    24.226	0.00070401	   23.7966	0.000558257	   23.7959	0.000550397	   23.9395	0.000604221	   23.9395	   15.1055	
   24.2478	0.000706681	   23.8173	0.000560463	   23.8167	0.000552717	   23.9606	0.00060662	   23.9606	   15.1655	
   24.2688	0.00070923	   23.8373	0.000562663	   23.8365	0.000555011	   23.9808	0.000608968	   23.9808	   15.2242	
   24.2892	0.000711686	   23.8561	0.000564886	   23.8554	0.000557257	   24.0002	0.000611276	   24.0002	   15.2819	
   24.3083	0.000714122	   23.8736	0.000567111	   23.8739	0.000559454	   24.0186	0.000613562	   24.0186	   15.3391	
   24.3263	0.000716589	   23.8903	0.000569306	   23.8912	0.00056166	   24.0359	0.000615852	   24.0359	   15.3963	
   24.3435	0.000719071	   23.9066	0.00057143	   23.9074	0.000563877	   24.0525	0.000618126	   24.0525	   15.4531	
   24.3596	0.000721518	   23.9218	0.000573463	   23.9227	0.000566092	   24.0681	0.000620358	   24.0681	   15.5089	
   24.3748	0.000723883	   23.9355	0.000575444	   23.9378	0.000568272	   24.0827	0.000622533	   24.0827	   15.5633	
   24.3887	0.000726149	   23.9486	0.000577425	   23.9517	0.000570372	   24.0963	0.000624649	   24.0963	   15.6162	
   24.4015	0.000728347	   23.9608	0.000579427	   23.9647	0.000572368	    24.109	0.000626714	    24.109	   15.6679	
   24.4128	0.000730533	    23.972	0.000581448	    23.977	0.000574306	   24.1206	0.000628762	   24.1206	   15.7191	
   24.4226	0.000732735	   23.9822	0.000583467	    23.988	0.000576263	    24.131	0.000630821	    24.131	   15.7705	
   24.4317	0.000734937	   23.9911	0.000585419	    23.998	0.000578268	   24.1403	0.000632875	   24.1403	   15.8219	
   24.4394	0.000737098	    23.999	0.000587269	   24.0072	0.00058031	   24.1485	0.000634892	   24.1485	   15.8723	
   24.4462	0.000739181	    24.006	0.000589037	   24.0154	0.000582339	   24.1559	0.000636853	   24.1559	   15.9213	
   24.4517	0.000741188	   24.0124	0.000590784	   24.0223	0.000584285	   24.1621	0.000638752	   24.1621	   15.9688	
   24.4562	0.000743157	    24.018	0.00059254	   24.0285	0.000586138	   24.1676	0.000640612	   24.1676	   16.0153	
   24.4598	0.000745127	   24.0228	0.000594275	   24.0338	0.000587973	   24.1721	0.000642458	   24.1721	   16.0615	
   24.4626	0.000747095	   24.0266	0.000596012	   24.0379	0.000589836	   24.1757	0.000644314	   24.1757	   16.1079	
   24.4646	0.000749034	   24.0295	0.000597737	   24.0412	0.000591755	   24.1784	0.000646175	   24.1784	   16.1544	
   24.4657	0.000750911	   24.0318	0.000599439	   24.0434	0.000593654	   24.1803	0.000648002	   24.1803	      16.2	
   24.4661	0.000752717	    24.033	0.000601108	   24.0449	0.000595431	   24.1813	0.000649752	   24.1813	   16.2438	
   24.4653	0.000754471	   24.0329	0.000602734	   24.0453	0.000597066	   24.1812	0.000651423	   24.1812	   16.2856	
   24.4639	0.000756201	   24.0319	0.000604278	   24.0444	0.000598654	   24.1801	0.000653044	   24.1801	   16.3261	
   24.4612	0.000757924	   24.0299	0.000605771	   24.0422	0.000600304	   24.1777	0.000654666	   24.1777	   16.3667	
   24.4573	0.000759629	   24.0273	0.00060725	   24.0389	0.000602072	   24.1745	0.000656317	   24.1745	   16.4079	
   24.4523	0.000761292	   24.0233	0.000608736	   24.0346	0.000603895	   24.1701	0.000657974	   24.1701	   16.4494	
   24.4468	0.000762881	   24.0185	0.000610223	   24.0299	0.000605634	   24.1651	0.000659579	   24.1651	   16.4895	
   24.4403	0.000764402	   24.0125	0.000611695	   24.0238	0.000607197	   24.1588	0.000661098	   24.1588	   16.5274	
   24.4327	0.000765899	   24.0058	0.000613117	   24.0164	0.000608629	   24.1516	0.000662549	   24.1516	   16.5637	
   24.4245	0.00076742	   23.9984	0.000614476	   24.0082	0.000610044	   24.1437	0.00066398	   24.1437	   16.5995	
   24.4156	0.000768973	   23.9905	0.000615794	   23.9989	0.000611544	    24.135	0.000665437	    24.135	   16.6359	
   24.4062	0.000770487	   23.9816	0.000617101	    23.989	0.000613147	   24.1256	0.000666912	   24.1256	   16.6728	
   24.3956	0.00077194	   23.9715	0.000618402	   23.9783	0.000614772	   24.1151	0.000668371	   24.1151	   16.7093	
   24.3842	0.000773273	   23.9602	0.000619692	   23.9665	0.000616288	   24.1036	0.000669751	   24.1036	   16.7438	
   24.3719	0.000774473	   23.9478	0.00062095	   23.9534	0.000617646	   24.0911	0.000671023	   24.0911	   16.7756	
   24.3586	0.000775618	   23.9346	0.000622155	   23.9393	0.000618905	   24.0775	0.000672226	   24.0775	   16.8056	
   24.3443	0.000776821	   23.9207	0.000623307	   23.9241	0.000620167	    24.063	0.000673431	    24.063	   16.8358	
   24.3292	0.000778104	   23.9059	0.00062443	   23.9079	0.000621491	   24.0477	0.000674675	   24.0477	   16.8669	
   24.3133	0.000779444	   23.8906	0.000625544	   23.8909	0.000622915	   24.0316	0.000675968	   24.0316	   16.8992	
   24.2964	0.000780742	   23.8739	0.000626664	   23.8727	0.00062439	   24.0143	0.000677265	   24.0143	   16.9316	
   24.2782	0.000781893	   23.8567	0.000627782	   23.8539	0.000625816	   23.9963	0.000678497	   23.9963	   16.9624	
    24.259	0.000782897	   23.8382	0.000628875	   23.8336	0.000627124	   23.9769	0.000679632	   23.9769	   16.9908	
   24.2386	0.000783853	   23.8187	0.00062992	   23.8127	0.00062833	   23.9567	0.000680701	   23.9567	   17.0175	
   24.2167	0.000784872	   23.7982	0.000630921	   23.7914	0.000629485	   23.9355	0.000681759	   23.9355	    17.044	
   24.1942	0.000785977	    23.777	0.000631896	   23.7694	0.000630661	   23.9135	0.000682845	   23.9135	   17.0711	
   24.1705	0.000787092	   23.7545	0.000632859	   23.7463	0.000631895	   23.8904	0.000683949	   23.8904	   17.0987	
   24.1458	0.000788101	    23.731	0.000633821	   23.7223	0.000633157	   23.8664	0.000685026	   23.8664	   17.1257	
   24.1199	0.000788955	   23.7064	0.00063477	   23.6976	0.000634377	   23.8413	0.000686034	   23.8413	   17.1509	
   24.0928	0.000789705	   23.6806	0.000635691	   23.6716	0.000635515	    23.815	0.00068697	    23.815	   17.1743	
   24.0649	0.000790488	   23.6541	0.000636574	   23.6457	0.000636582	   23.7882	0.000687881	   23.7882	    17.197	
   24.0357	0.000791361	   23.6266	0.000637426	   23.6187	0.000637621	   23.7603	0.000688803	   23.7603	   17.2201	
   24.0058	0.000792305	   23.5979	0.000638254	   23.5904	0.000638677	   23.7314	0.000689745	   23.7314	   17.2436	
   23.9753	0.000793229	   23.5682	0.000639063	   23.5612	0.000639767	   23.7016	0.000690686	   23.7016	   17.2672	
   23.9437	0.000794026	   23.5374	0.000639814	    23.531	0.000640853	   23.6707	0.000691565	   23.6707	   17.2891	
   23.9115	0.000794678	   23.5056	0.000640486	   23.4998	0.000641883	    23.639	0.000692349	    23.639	   17.3087	
   23.8784	0.000795272	   23.4729	0.00064127	   23.4675	0.000642842	   23.6063	0.000693128	   23.6063	   17.3282	
   23.8448	0.00079591	   23.4391	0.000642187	   23.4335	0.000643752	   23.5724	0.000693949	   23.5724	   17.3487	
   23.8102	0.000796627	   23.4044	0.00064316	   23.3988	0.000644649	   23.5378	0.000694812	   23.5378	   17.3703	
   23.7748	0.000797384	   23.3687	0.000644029	   23.3626	0.000645558	    23.502	0.000695657	    23.502	   17.3914	
   23.7382	0.000798079	   23.3323	0.000644682	   23.3258	0.000646468	   23.4655	0.000696409	   23.4655	   17.4102	
   23.7006	0.000798633	   23.2954	0.000645078	   23.2877	0.000647345	   23.4279	0.000697019	   23.4279	   17.4255	
   23.6622	0.000799062	   23.2578	0.00064544	   23.2486	0.000648161	   23.3895	0.000697554	   23.3895	   17.4389	
   23.6233	0.00079946	   23.2197	0.000645976	   23.2089	0.000648921	   23.3506	0.000698119	   23.3506	    17.453	
   23.5825	0.000799912	   23.1805	0.000646737	   23.1682	0.000649646	   23.3104	0.000698765	   23.3104	   17.4691	
   23.5404	0.000800439	   23.1413	0.00064757	   23.1261	0.000650365	   23.2693	0.000699458	   23.2693	   17.4865	
   23.4977	0.000800984	   23.1013	0.000648288	   23.0835	0.00065109	   23.2275	0.000700121	   23.2275	    17.503	
   23.4544	0.000801446	     23.06	0.000648717	   23.0397	0.000651816	   23.1847	0.00070066	   23.1847	   17.5165	
   23.4104	0.00080178	   23.0173	0.000648926	   22.9958	0.000652507	   23.1411	0.000701071	   23.1411	   17.5268	
   23.3658	0.000802026	    22.974	0.000649116	   22.9512	0.000653146	    23.097	0.000701429	    23.097	   17.5357	
   23.3202	0.00080227	     22.93	0.000649459	   22.9062	0.000653732	   23.0521	0.000701821	   23.0521	   17.5455	
   23.2737	0.000802576	   22.8848	0.000649941	     22.86	0.00065429	   23.0062	0.000702269	   23.0062	   17.5567	
   23.2263	0.000802931	   22.8388	0.00065044	   22.8137	0.000654848	   22.9596	0.00070274	   22.9596	   17.5685	
    23.178	0.000803263	   22.7924	0.000650777	   22.7665	0.000655414	   22.9123	0.000703151	   22.9123	   17.5788	
   23.1291	0.000803502	   22.7451	0.000650862	   22.7187	0.000655969	   22.8643	0.000703444	   22.8643	   17.5861	
   23.0796	0.000803638	    22.697	0.000650791	   22.6699	0.000656481	   22.8155	0.000703637	   22.8155	   17.5909	
   23.0294	0.000803719	   22.6475	0.000650774	     22.62	0.000656935	   22.7656	0.000703809	   22.7656	   17.5952	
   22.9783	0.00080382	   22.5969	0.000650935	   22.5689	0.000657344	   22.7147	0.000704033	   22.7147	   17.6008	
   22.9259	0.000803977	   22.5456	0.000651234	   22.5176	0.000657734	   22.6631	0.000704315	   22.6631	   17.6079	
   22.8722	0.000804162	    22.493	0.000651504	   22.4654	0.000658125	   22.6102	0.000704597	   22.6102	   17.6149	
   22.8174	0.000804305	   22.4394	0.000651583	   22.4128	0.000658514	   22.5565	0.000704801	   22.5565	     17.62	
   22.7618	0.000804342	   22.3847	0.000651458	   22.3589	0.000658881	   22.5018	0.000704894	   22.5018	   17.6223	
   22.7055	0.000804264	   22.3291	0.000651307	   22.3044	0.000659202	   22.4463	0.000704924	   22.4463	   17.6231	
    22.648	0.000804133	   22.2724	0.000651278	   22.2489	0.00065947	   22.3898	0.00070496	   22.3898	    17.624	
   22.5898	0.00080403	   22.2149	0.000651364	   22.1924	 0.0006597	   22.3324	0.000705031	   22.3324	   17.6258	
   22.5303	0.000803999	   22.1565	0.000651484	   22.1347	0.000659913	   22.2738	0.000705132	   22.2738	   17.6283	
   22.4693	0.000803984	   22.0975	0.000651537	   22.0758	0.000660126	   22.2142	0.000705216	   22.2142	   17.6304	
    22.407	0.000803919	   22.0373	0.000651353	    22.016	0.000660331	   22.1535	0.000705201	   22.1535	     17.63	
   22.3436	0.000803759	   21.9764	0.000651031	   21.9551	0.000660505	   22.0917	0.000705098	   22.0917	   17.6275	
   22.2794	0.000803509	   21.9149	0.000650715	   21.8931	0.000660629	   22.0291	0.000704951	   22.0291	   17.6238	
   22.2143	0.000803235	   21.8541	0.000650583	     21.83	0.000660704	   21.9661	0.000704841	   21.9661	    17.621	
   22.1485	0.000803003	   21.7916	0.000650676	   21.7661	0.000660751	    21.902	0.00070481	    21.902	   17.6203	
   22.0813	0.000802804	   21.7279	0.000650884	   21.7009	0.000660797	   21.8367	0.000704828	   21.8367	   17.6207	
   22.0132	0.000802605	   21.6632	0.000650963	   21.6345	0.00066085	   21.7703	0.000704806	   21.7703	   17.6201	
   21.9439	0.000802359	   21.5951	0.000650756	   21.5675	0.000660896	   21.7021	0.00070467	   21.7021	   17.6168	
   21.8739	0.00080203	   21.5264	0.000650327	   21.4993	0.000660911	   21.6332	0.000704423	   21.6332	   17.6106	
   21.8032	0.000801633	   21.4564	0.000649883	     21.43	0.000660878	   21.5632	0.000704131	   21.5632	   17.6033	
   21.7321	0.000801227	    21.387	0.000649631	   21.3596	0.000660803	   21.4929	0.000703887	   21.4929	   17.5972	
   21.6611	0.000800856	   21.3173	0.000649595	   21.2882	0.000660711	   21.4222	0.000703721	   21.4222	    17.593	
   21.5895	0.00080051	    21.247	0.000649605	   21.2165	0.000660623	    21.351	0.000703579	    21.351	   17.5895	
   21.5171	0.000800152	   21.1763	0.000649445	   21.1436	0.000660541	    21.279	0.000703379	    21.279	   17.5845	
   21.4439	0.000799734	   21.1041	0.000649028	   21.0702	0.000660448	    21.206	0.00070307	    21.206	   17.5767	
   21.3698	0.000799239	   21.0309	0.000648471	   20.9962	0.000660317	   21.1323	0.000702676	   21.1323	   17.5669	
   21.2946	0.000798697	   20.9571	0.000647979	    20.922	0.000660139	   21.0579	0.000702272	   21.0579	   17.5568	
   21.2188	0.000798161	   20.8826	0.000647676	    20.847	0.000659932	   20.9828	0.000701923	   20.9828	   17.5481	
   21.1422	0.000797652	    20.807	0.000647507	   20.7719	0.000659749	    20.907	0.000701636	    20.907	   17.5409	
   21.0649	0.000797152	   20.7299	0.000647302	   20.6958	0.000659568	   20.8302	0.000701341	   20.8302	   17.5335	
   20.9864	0.000796621	    20.652	0.000646913	   20.6191	0.000659322	   20.7525	0.000700952	   20.7525	   17.5238	
   20.9068	0.00079603	   20.5736	0.000646333	   20.5418	0.000658989	   20.6741	0.000700451	   20.6741	   17.5113	
   20.8265	0.000795384	   20.4943	0.000645697	   20.4632	 0.0006586	   20.5946	0.000699894	   20.5946	   17.4973	
   20.7455	0.000794719	   20.4137	0.000645167	   20.3841	0.000658208	   20.5144	0.000699365	   20.5144	   17.4841	
   20.6634	0.000794076	   20.3329	0.000644796	   20.3041	0.000657879	   20.4335	0.000698917	   20.4335	   17.4729	
   20.5811	0.00079346	   20.2511	0.000644498	   20.2234	0.000657621	   20.3518	0.000698526	   20.3518	   17.4632	
    20.498	0.00079281	   20.1686	0.000644117	   20.1413	0.00065735	   20.2693	0.000698092	   20.2693	   17.4523	
   20.4143	0.000792123	   20.0847	0.000643565	    20.058	0.000656977	   20.1857	0.000697555	   20.1857	   17.4389	
   20.3297	0.000791462	   19.9998	0.000642885	   19.9738	0.000656493	   20.1011	0.000696947	   20.1011	   17.4237	
   20.2442	0.000790832	   19.9143	0.000642218	   19.8888	0.000655955	   20.0158	0.000696335	   20.0158	   17.4084	
   20.1575	0.000790204	    19.828	0.000641675	   19.8035	0.00065545	   19.9297	0.000695776	   19.9297	   17.3944	
     20.07	0.000789492	   19.7404	0.000641254	   19.7166	0.000655025	   19.8423	0.000695257	   19.8423	   17.3814	
   19.9815	0.00078863	   19.6518	0.000640852	    19.629	0.000654669	   19.7541	0.000694717	   19.7541	   17.3679	
   19.8925	0.000787681	   19.5624	0.000640343	   19.5406	0.000654292	   19.6652	0.000694105	   19.6652	   17.3526	
   19.8019	0.000786733	   19.4721	0.000639678	   19.4515	0.000653834	   19.5752	0.000693415	   19.5752	   17.3354	
     19.71	0.000785876	   19.3813	0.000638919	   19.3613	0.000653295	   19.4842	0.000692697	   19.4842	   17.3174	
   19.6171	0.000785132	   19.2896	0.00063818	   19.2702	0.000652703	   19.3923	0.000692005	   19.3923	   17.3001	
   19.5239	0.000784404	   19.1973	0.000637535	   19.1786	0.000652121	      19.3	0.000691353	      19.3	   17.2838	
     19.43	0.000783534	   19.1049	0.000636963	   19.0869	0.000651593	   19.2073	0.000690697	   19.2073	   17.2674	
   19.3349	0.000782444	   19.0115	0.000636371	    18.995	0.000651105	   19.1138	0.000689973	   19.1138	   17.2493	
   19.2388	0.000781232	   18.9173	0.000635664	   18.9022	0.00065059	   19.0194	0.000689162	   19.0194	    17.229	
   19.1422	0.000780053	   18.8221	0.000634836	   18.8079	0.000649996	   18.9241	0.000688295	   18.9241	   17.2074	
   19.0442	0.000779026	   18.7259	0.000633963	   18.7127	0.000649324	   18.8276	0.000687438	   18.8276	   17.1859	
   18.9456	0.000778133	    18.629	0.000633147	   18.6165	0.00064862	   18.7304	0.000686633	   18.7304	   17.1658	
   18.8466	0.000777251	   18.5313	0.000632429	   18.5196	0.000647937	   18.6325	0.000685872	   18.6325	   17.1468	
   18.7473	0.00077622	   18.4329	0.000631787	   18.4219	0.000647296	    18.534	0.000685101	    18.534	   17.1275	
   18.6474	0.000774987	   18.3331	0.000631103	   18.3235	0.000646671	   18.4347	0.000684254	   18.4347	   17.1063	
   18.5471	0.000773669	   18.2325	0.000630323	   18.2243	0.00064602	   18.3346	0.000683337	   18.3346	   17.0834	
   18.4457	0.000772425	   18.1316	0.00062941	   18.1245	0.000645319	   18.2339	0.000682385	   18.2339	   17.0596	
   18.3434	0.000771286	   18.0296	 0.0006284	   18.0241	0.000644582	   18.1324	0.000681423	   18.1324	   17.0356	
   18.2401	0.000770205	   17.9271	0.000627404	   17.9233	0.000643852	   18.0301	0.000680487	   18.0301	   17.0122	
   18.1354	0.000769047	   17.8237	0.000626541	   17.8219	0.000643143	    17.927	0.000679577	    17.927	   16.9894	
   18.0293	0.000767744	   17.7196	0.000625787	   17.7203	0.000642421	    17.823	0.000678651	    17.823	   16.9663	
   17.9224	0.000766344	   17.6143	0.000625051	   17.6178	0.000641618	   17.7182	0.000677671	   17.7182	   16.9418	
    17.815	0.000764985	   17.5087	0.00062423	   17.5146	0.000640737	   17.6128	0.000676651	   17.6128	   16.9163	
    17.707	0.000763717	   17.4026	0.000623282	   17.4111	0.000639811	   17.5069	0.000675603	   17.5069	   16.8901	
   17.5984	0.000762501	   17.2955	0.000622252	   17.3069	0.000638919	   17.4003	0.000674557	   17.4003	   16.8639	
   17.4889	0.000761232	   17.1872	0.000621248	   17.2013	0.000638026	   17.2924	0.000673502	   17.2924	   16.8375	
   17.3785	0.000759837	    17.078	0.000620337	    17.095	0.000637198	   17.1838	0.000672457	   17.1838	   16.8114	
    17.267	0.000758309	   16.9682	0.000619497	   16.9877	0.000636351	   17.0743	0.000671386	   17.0743	   16.7846	
   17.1549	0.000756735	   16.8579	0.00061867	   16.8796	0.000635505	   16.9641	0.000670303	   16.9641	   16.7576	
   17.0429	0.00075522	   16.7466	0.000617772	   16.7708	0.000634601	   16.8534	0.000669198	   16.8534	   16.7299	
   16.9301	0.000753816	   16.6348	0.000616765	   16.6612	0.000633643	    16.742	0.000668075	    16.742	   16.7019	
   16.8166	0.000752459	   16.5223	0.000615697	   16.5507	0.000632575	   16.6299	0.00066691	   16.6299	   16.6728	
   16.7019	0.00075105	   16.4095	0.000614646	   16.4397	0.000631467	    16.517	0.000665721	    16.517	    16.643	
   16.5867	0.000749498	    16.296	0.000613655	   16.3281	0.00063033	   16.4036	0.000664494	   16.4036	   16.6124	
   16.4709	0.000747825	   16.1817	0.000612713	   16.2159	0.000629216	   16.2895	0.000663251	   16.2895	   16.5813	
   16.3538	0.000746145	   16.0668	0.000611736	    16.103	0.000628133	   16.1745	0.000662005	   16.1745	   16.5501	
    16.236	0.000744546	    15.952	0.000610658	    15.989	0.000627066	    16.059	0.000660757	    16.059	   16.5189	
   16.1179	0.000743023	   15.8369	0.00060952	   15.8741	0.000625929	   15.9429	0.000659491	   15.9429	   16.4873	
   15.9994	0.000741492	   15.7207	0.000608391	   15.7588	0.000624692	   15.8263	0.000658192	   15.8263	   16.4548	
   15.8804	0.000739888	   15.6041	0.000607333	   15.6427	0.000623416	   15.7091	0.000656879	   15.7091	    16.422	
   15.7612	0.000738229	   15.4875	0.00060633	   15.5258	0.000622195	   15.5915	0.000655585	   15.5915	   16.3896	
    15.641	0.000736556	   15.3696	0.000605296	   15.4084	0.000621068	    15.473	0.000654307	    15.473	   16.3577	
   15.5198	0.000734906	   15.2515	0.000604148	   15.2901	0.000619982	   15.3538	0.000653012	   15.3538	   16.3253	
   15.3976	0.000733277	   15.1327	0.000602906	    15.171	0.000618834	   15.2338	0.000651672	   15.2338	   16.2918	
   15.2746	0.000731627	   15.0136	0.000601663	   15.0512	0.000617568	   15.1131	0.000650286	   15.1131	   16.2572	
   15.1508	0.000729884	    14.894	0.000600508	   14.9306	0.000616226	   14.9918	0.000648872	   14.9918	   16.2218	
   15.0269	0.000728083	   14.7741	0.000599449	   14.8095	0.000614897	   14.8701	0.000647476	   14.8701	   16.1869	
    14.903	0.000726274	    14.653	0.000598428	   14.6876	0.000613656	   14.7479	0.00064612	   14.7479	    16.153	
   14.7792	0.000724524	   14.5314	0.000597355	   14.5651	0.000612502	   14.6252	0.000644793	   14.6252	   16.1198	
   14.6546	0.000722857	   14.4093	0.000596176	   14.4422	0.000611362	   14.5021	0.000643465	   14.5021	   16.0866	
   14.5299	0.000721224	   14.2872	0.000594895	   14.3184	0.000610149	   14.3785	0.000642089	   14.3785	   16.0522	
   14.4046	0.000719494	   14.1644	0.000593584	    14.194	0.000608834	   14.2544	0.000640637	   14.2544	   16.0159	
    14.279	0.000717614	   14.0411	0.000592335	   14.0694	0.000607462	   14.1298	0.000639137	   14.1298	   15.9784	
    14.153	0.000715633	   13.9172	0.000591215	   13.9444	0.00060612	   14.0049	0.000637656	   14.0049	   15.9414	
   14.0264	0.000713664	   13.7927	0.000590206	   13.8187	0.000604866	   13.8793	0.000636245	   13.8793	   15.9061	
   13.8994	0.000711803	   13.6678	0.000589174	   13.6922	0.000603689	   13.7531	0.000634889	   13.7531	   15.8722	
   13.7717	0.000710073	   13.5424	0.000587992	   13.5654	0.000602516	   13.6265	0.000633527	   13.6265	   15.8382	
   13.6431	0.000708376	   13.4164	0.000586679	   13.4381	0.000601278	   13.4992	0.000632111	   13.4992	   15.8028	
   13.5136	0.000706594	   13.2896	0.000585334	     13.31	0.000599959	   13.3711	0.000630629	   13.3711	   15.7657	
   13.3833	0.000704671	   13.1629	0.000584036	   13.1815	0.000598619	   13.2426	0.000629109	   13.2426	   15.7277	
   13.2526	0.000702672	   13.0355	0.000582846	   13.0516	0.000597328	   13.1133	0.000627615	   13.1133	   15.6904	
   13.1212	0.000700676	   12.9073	0.000581732	   12.9216	0.000596114	   12.9833	0.000626174	   12.9833	   15.6544	
   12.9895	0.000698759	   12.7786	0.000580586	   12.7918	0.000594936	   12.8533	0.00062476	   12.8533	    15.619	
   12.8574	0.000696962	   12.6495	0.000579348	   12.6616	0.000593702	   12.7228	0.000623337	   12.7228	   15.5834	
   12.7248	0.000695199	   12.5192	0.000578019	   12.5309	0.000592394	   12.5916	0.00062187	   12.5916	   15.5468	
   12.5914	0.00069336	   12.3885	0.000576642	   12.3998	0.000591039	   12.4599	0.000620347	   12.4599	   15.5087	
   12.4572	0.000691389	   12.2572	0.000575285	   12.2676	0.000589719	   12.3273	0.000618798	   12.3273	   15.4699	
   12.3233	0.000689306	   12.1248	0.000574002	   12.1348	0.00058851	   12.1943	0.000617273	   12.1943	   15.4318	
   12.1889	0.000687183	   11.9922	0.000572771	   12.0015	0.000587388	   12.0609	0.000615781	   12.0609	   15.3945	
   12.0544	0.000685137	   11.8591	0.000571509	   11.8674	0.000586232	    11.927	0.000614292	    11.927	   15.3573	
   11.9194	0.000683204	   11.7255	0.000570158	   11.7329	0.000584948	   11.7926	0.00061277	   11.7926	   15.3193	
   11.7836	0.000681317	   11.5912	0.000568767	   11.5977	0.000583543	   11.6575	0.000611209	   11.6575	   15.2802	
   11.6478	0.00067936	   11.4566	0.000567328	   11.4627	0.000582113	   11.5224	 0.0006096	   11.5224	     15.24	
   11.5112	0.000677274	   11.3216	0.000565897	   11.3272	0.000580764	   11.3867	0.000607979	   11.3867	   15.1995	
   11.3742	0.00067509	   11.1861	0.000564449	   11.1914	0.000579534	   11.2506	0.000606358	   11.2506	   15.1589	
   11.2367	0.000672895	   11.0502	0.000562997	   11.0551	0.000578347	    11.114	0.000604746	    11.114	   15.1187	
   11.0984	0.000670775	   10.9135	0.000561549	   10.9185	0.00057708	   10.9768	0.000603135	   10.9768	   15.0784	
   10.9598	0.00066874	    10.776	0.000560161	    10.782	0.000575666	   10.8393	0.000601522	   10.8393	   15.0381	
   10.8212	0.000666711	   10.6378	0.000558797	   10.6456	0.000574153	   10.7015	0.000599887	   10.7015	   14.9972	
   10.6821	0.000664599	   10.4982	0.000557388	    10.509	0.000572645	   10.5631	0.000598211	   10.5631	   14.9553	
   10.5417	0.000662376	   10.3582	0.000555884	   10.3718	0.000571227	   10.4239	0.000596496	   10.4239	   14.9124	
   10.4009	0.000660084	   10.2183	0.000554293	   10.2335	0.000569905	   10.2842	0.000594761	   10.2842	    14.869	
   10.2597	0.000657796	   10.0787	0.000552637	   10.0944	0.000568596	   10.1442	0.00059301	   10.1442	   14.8253	
   10.1179	0.000655579	   9.93943	0.000551001	   9.95523	0.000567198	   10.0042	0.000591259	   10.0042	   14.7815	
   9.97571	0.000653424	   9.79977	0.000549444	   9.81524	0.000565668	   9.86357	0.000589512	   9.86357	   14.7378	
    9.8332	0.000651264	   9.66044	0.000547923	   9.67572	0.000564062	   9.72312	0.00058775	   9.72312	   14.6937	
   9.68985	0.000649026	   9.51967	0.000546383	   9.53589	0.000562484	   9.58181	0.000585964	   9.58181	   14.6491	
   9.54614	0.000646692	   9.37895	0.000544778	   9.39537	0.000560996	   9.44015	0.000584155	   9.44015	   14.6039	
   9.40259	0.000644308	   9.23743	0.00054308	    9.2544	0.00055957	   9.29814	0.000582319	   9.29814	    14.558	
   9.25862	0.000641945	   9.09514	0.000541327	   9.11298	0.00055811	   9.15558	0.000580461	   9.15558	   14.5115	
   9.11422	0.000639644	   8.95312	0.000539606	    8.9711	0.000556538	   9.01282	0.000578596	   9.01282	   14.4649	
   8.96966	0.000637371	   8.81054	0.000537953	   8.82821	0.00055486	   8.86947	0.000576728	   8.86947	   14.4182	
   8.82491	0.000635058	   8.66791	0.000536332	   8.68489	0.000553149	    8.7259	0.000574846	    8.7259	   14.3712	
   8.67967	0.000632656	   8.52519	0.000534679	   8.54112	0.000551484	   8.58199	0.00057294	   8.58199	   14.3235	
   8.53369	0.000630179	   8.38181	0.000532934	   8.39717	0.000549886	   8.43756	  0.000571	   8.43756	    14.275	
   8.38779	0.000627678	   8.23832	0.000531095	   8.25273	0.000548303	   8.29295	0.000569025	   8.29295	   14.2256	
   8.24139	0.00062521	    8.0939	0.000529232	   8.10808	0.000546656	   8.14779	0.000567032	   8.14779	   14.1758	
   8.09478	0.000622782	   7.94962	0.000527419	   7.96293	 0.0005449	   8.00244	0.000565034	   8.00244	   14.1258	
   7.94766	0.00062035	   7.80518	0.000525664	   7.81781	0.000543065	   7.85688	0.000563026	   7.85688	   14.0757	
   7.80005	0.000617857	   7.66108	0.000523915	   7.67268	0.000541224	   7.71127	0.000560999	   7.71127	    14.025	
    7.6517	0.000615279	   7.51671	0.000522112	   7.52724	0.00053943	   7.56522	0.00055894	   7.56522	   13.9735	
   7.50318	0.000612648	   7.37207	0.000520227	   7.38148	0.00053768	   7.41891	0.000556852	   7.41891	   13.9213	
   7.35445	0.000610033	   7.22687	0.000518289	   7.23565	0.00053589	   7.27233	0.000554737	   7.27233	   13.8684	
   7.20553	0.000607457	   7.08166	0.000516359	   7.08894	0.000533994	   7.12538	0.000552603	   7.12538	   13.8151	
   7.05667	0.000604877	   6.93585	0.000514476	   6.94217	0.000532024	   6.97823	0.000550459	   6.97823	   13.7615	
    6.9073	0.000602214	   6.79026	0.000512629	   6.79558	0.000530024	   6.83105	0.000548289	   6.83105	   13.7072	
   6.75771	0.000599453	   6.64458	0.000510771	   6.64861	0.000528078	   6.68363	0.000546101	   6.68363	   13.6525	
   6.60763	0.000596639	    6.4985	0.000508853	   6.50123	0.000526214	   6.53579	0.000543902	   6.53579	   13.5975	
   6.45761	0.000593864	   6.35178	0.000506863	   6.35347	0.000524367	   6.38762	0.000541698	   6.38762	   13.5424	
   6.30709	0.00059117	   6.20468	0.000504832	   6.20532	0.000522422	   6.23903	0.000539474	   6.23903	   13.4869	
   6.15663	0.00058855	   6.05721	0.00050281	   6.05731	0.000520346	   6.09038	0.000537236	   6.09038	   13.4309	
   6.00619	0.000585912	   5.90963	0.000500824	   5.90863	0.000518177	   5.94148	0.000534971	   5.94148	   13.3743	
   5.85577	0.000583174	   5.76192	0.000498852	   5.75981	0.000515991	    5.7925	0.000532672	    5.7925	   13.3168	
   5.70464	0.000580295	    5.6146	0.000496848	   5.61075	0.000513871	   5.64333	0.000530338	   5.64333	   13.2585	
   5.55327	0.000577336	   5.46734	0.000494786	   5.46181	0.000511813	   5.49414	0.000527978	   5.49414	   13.1995	
   5.40193	0.000574428	   5.32009	0.00049267	   5.31242	0.000509744	   5.34481	0.000525614	   5.34481	   13.1404	
    5.2506	0.000571651	   5.17257	0.000490543	   5.16313	0.000507601	   5.19543	0.000523265	   5.19543	   13.0816	
   5.09927	0.000568967	   5.02476	0.000488436	   5.01364	0.000505354	   5.04589	0.000520919	   5.04589	    13.023	
   4.94765	0.000566233	   4.87693	0.000486342	   4.86447	0.00050304	   4.89635	0.000518538	   4.89635	   12.9635	
   4.79602	0.000563347	   4.72905	0.000484226	   4.71452	0.00050073	   4.74653	0.000516101	   4.74653	   12.9025	
   4.64436	0.000560288	   4.58057	0.000482061	   4.56461	0.000498472	   4.59652	0.000513607	   4.59652	   12.8402	
   4.49214	0.000557156	   4.43178	0.000479851	   4.41395	0.000496243	   4.44595	0.000511084	   4.44595	   12.7771	
    4.3399	0.000554095	    4.2832	0.000477627	   4.26335	0.000493986	   4.29548	0.000508569	   4.29548	   12.7142	
   4.18791	0.000551152	     4.134	0.000475415	   4.11253	0.000491646	   4.14481	0.000506071	   4.14481	   12.6518	
    4.0356	0.000548264	   3.98394	0.000473214	   3.96149	0.000489219	   3.99368	0.000503566	   3.99368	   12.5891	
   3.88324	0.000545304	   3.83361	0.000470979	    3.8105	0.000486748	   3.84245	0.00050101	   3.84245	   12.5253	
   3.73057	0.000542189	   3.68299	0.000468689	   3.65927	0.000484291	   3.69095	0.00049839	   3.69095	   12.4597	
    3.5776	0.000538932	   3.53263	0.000466327	   3.50755	0.000481872	   3.53926	0.00049571	   3.53926	   12.3928	
   3.42382	0.000535644	   3.38196	 0.0004639	   3.35562	0.000479463	   3.38713	0.000493002	   3.38713	   12.3251	
   3.26955	0.000532424	   3.23099	0.000461492	   3.20322	0.000477009	   3.23458	0.000490308	   3.23458	   12.2577	
   3.11534	0.000529294	   3.07998	0.000459156	   3.05063	0.000474476	   3.08199	0.000487642	   3.08199	    12.191	
   2.96146	0.000526191	   2.92867	0.000456858	   2.89788	0.000471882	   2.92933	0.000484977	   2.92933	   12.1244	
    2.8076	0.000523011	   2.77731	0.000454514	   2.74494	0.00046927	   2.77662	0.000482265	   2.77662	   12.0566	
   2.65349	0.000519686	   2.62591	0.000452047	    2.5921	0.000466684	   2.62383	0.000479473	   2.62383	   11.9868	
   2.49915	0.000516225	   2.47444	0.000449432	   2.43907	0.000464118	   2.47089	0.000476592	   2.47089	   11.9148	
   2.34431	0.000512727	   2.32263	0.000446749	   2.28586	0.000461525	    2.3176	0.000473667	    2.3176	   11.8417	
   2.18929	0.000509285	   2.17103	0.000444116	   2.13246	0.000458855	   2.16426	0.000470752	   2.16426	   11.7688	
   2.03409	0.000505918	    2.0188	0.00044159	   1.97915	0.000456119	   2.01068	0.000467876	   2.01068	   11.6969	
   1.87873	0.000502568	   1.86678	0.000439125	   1.82591	0.000453366	   1.85714	0.00046502	   1.85714	   11.6255	
   1.72374	0.00049915	   1.71468	0.000436617	   1.67246	0.00045062	   1.70363	0.000462129	   1.70363	   11.5532	
   1.56877	0.000495611	   1.56306	0.000433979	   1.51903	0.000447838	   1.55028	0.000459143	   1.55028	   11.4786	
   1.41413	0.000491994	   1.41076	0.00043121	   1.36591	0.000444991	   1.39693	0.000456065	   1.39693	   11.4016	
   1.25979	0.000488381	   1.25888	0.000428404	   1.21306	0.000442063	   1.24391	0.000452949	   1.24391	   11.3237	
   1.10546	0.000484807	   1.10684	0.000425664	   1.06046	0.000439056	   1.09092	0.000449842	   1.09092	   11.2461	
  0.951388	0.000481251	  0.954384	0.000423006	  0.907814	0.000436016	  0.937862	0.000446758	  0.937862	   11.1689	
  0.797548	0.000477662	  0.802053	0.000420363	  0.755369	0.000433011	   0.78499	0.000443679	   0.78499	    11.092	
  0.643909	0.000473987	  0.649564	0.000417642	  0.603624	0.000430041	  0.632366	0.000440557	  0.632366	   11.0139	
  0.490452	0.000470233	  0.496916	0.000414794	  0.451719	0.000427054	  0.479696	0.00043736	  0.479696	    10.934	
  0.337149	0.00046643	  0.344372	0.00041186	  0.299914	0.000423974	  0.327145	0.000434088	  0.327145	   10.8522	
  0.183453	0.000462607	   0.19165	0.000408933	  0.147662	0.000420777	  0.174255	0.000430772	  0.174255	   10.7693	
 0.0301785	0.000458763	 0.0395381	0.000406073	-0.00475148	0.000417514	  0.021655	0.00042745	  0.021655	   10.6863	
 -0.122985	0.000454897	 -0.112288	0.000403243	   -0.1568	0.000414272	 -0.130691	0.000424137	 -0.130691	   10.6034	
 -0.275795	0.000450983	 -0.264133	0.000400357	  -0.30853	0.000411095	  -0.28282	0.000420812	  -0.28282	   10.5203	
 -0.428288	0.000447017	 -0.415743	0.000397353	 -0.459457	0.000407932	 -0.434496	0.000417434	 -0.434496	   10.4358	
 -0.581033	0.000442974	 -0.567417	0.000394253	 -0.610187	0.000404712	 -0.586212	0.00041398	 -0.586212	   10.3495	
 -0.734281	0.000438892	 -0.719427	0.000391112	 -0.760759	0.000401382	 -0.738156	0.000410462	 -0.738156	   10.2615	
 -0.887476	0.000434802	 -0.871232	0.000388009	 -0.911199	0.00039796	 -0.889969	0.000406924	 -0.889969	   10.1731	
   -1.0409	0.000430692	   -1.0234	0.00038497	  -1.06154	0.000394508	  -1.04194	0.00040339	  -1.04194	   10.0847	
  -1.19427	0.000426546	   -1.1759	0.000381931	  -1.21208	0.00039112	  -1.19408	0.000399866	  -1.19408	   9.99664	
  -1.34788	0.000422354	  -1.32846	0.000378811	  -1.36229	0.000387767	  -1.34621	0.000396311	  -1.34621	   9.90777	
  -1.50144	0.000418097	  -1.48083	0.000375574	  -1.51301	0.000384371	  -1.49843	0.000392681	  -1.49843	   9.81702	
  -1.65524	0.000413789	   -1.6333	0.000372238	  -1.66342	0.000380861	  -1.65065	0.000388963	  -1.65065	   9.72407	
  -1.80872	0.00040948	  -1.78561	0.000368874	  -1.81437	0.000377249	   -1.8029	0.000385201	   -1.8029	   9.63002	
  -1.96247	0.000405149	  -1.93858	0.000365569	  -1.96528	0.000373597	  -1.95544	0.000381439	  -1.95544	   9.53596	
  -2.11566	0.000400784	  -2.09084	0.000362332	  -2.11646	0.000369959	  -2.10766	0.000377691	  -2.10766	   9.44228	
   -2.2689	0.000396379	  -2.24326	0.000359093	  -2.26738	0.000366389	  -2.25984	0.000373954	  -2.25984	   9.34884	
  -2.42191	0.000391932	  -2.39558	0.000355774	  -2.41805	0.000362835	  -2.41185	0.000370181	  -2.41185	   9.25451	
  -2.57467	0.00038745	  -2.54807	0.000352336	  -2.56844	0.000359262	  -2.56373	0.000366349	  -2.56373	   9.15873	
  -2.72702	0.000382952	  -2.70075	0.000348812	  -2.71841	0.000355616	  -2.71539	0.00036246	  -2.71539	    9.0615	
  -2.88004	0.000378433	  -2.85307	0.000345288	  -2.86828	0.000351898	  -2.86713	0.00035854	  -2.86713	    8.9635	
  -3.03265	0.000373863	  -3.00561	0.000341822	  -3.01809	0.00034812	  -3.01878	0.000354602	  -3.01878	   8.86504	
  -3.18567	0.000369226	  -3.15758	0.000338398	   -3.1676	0.000344342	  -3.17028	0.000350655	  -3.17028	   8.76638	
  -3.33803	0.000364538	  -3.30955	0.000334939	  -3.31739	0.000340584	  -3.32166	0.000346687	  -3.32166	   8.66718	
  -3.49085	0.000359818	  -3.46102	0.000331383	  -3.46665	0.000336837	  -3.47284	0.00034268	  -3.47284	   8.56699	
  -3.64305	0.000355092	  -3.61205	0.000327716	  -3.61599	0.000333086	   -3.6237	0.000338631	   -3.6237	   8.46578	
  -3.79575	0.000350364	  -3.76269	0.000323985	   -3.7649	0.000329297	  -3.77445	0.000334549	  -3.77445	   8.36371	
  -3.94866	0.000345601	  -3.91324	0.000320259	   -3.9137	0.000325432	   -3.9252	0.00033043	   -3.9252	   8.26076	
  -4.10177	0.000340789	  -4.06401	0.000316578	   -4.0619	0.000321502	  -4.07589	0.00032629	  -4.07589	   8.15725	
  -4.25428	0.000335938	  -4.21473	0.000312915	  -4.21009	0.00031756	  -4.22637	0.000322138	  -4.22637	   8.05345	
  -4.40731	0.000331038	  -4.36516	0.000309204	  -4.35804	0.000313649	  -4.37683	0.000317963	  -4.37683	   7.94909	
  -4.55977	0.000326161	  -4.51534	0.000305393	  -4.50581	0.00030976	  -4.52697	0.000313771	  -4.52697	   7.84429	
  -4.71199	0.000321303	  -4.66478	0.000301489	  -4.65343	0.000305853	  -4.67674	0.000309548	  -4.67674	   7.73871	
  -4.86401	0.000316385	  -4.81437	0.000297542	  -4.80095	 0.0003019	  -4.82644	0.000305276	  -4.82644	   7.63189	
  -5.01558	0.000311366	  -4.96306	0.000293615	  -4.94787	0.000297886	   -4.9755	0.000300955	   -4.9755	   7.52388	
  -5.16624	0.000306218	  -5.11147	0.000289704	  -5.09481	0.000293816	  -5.12418	0.000296579	  -5.12418	   7.41448	
  -5.31529	0.000300984	  -5.25966	0.000285782	  -5.24153	0.00028973	  -5.27216	0.000292165	  -5.27216	   7.30413	
  -5.46367	0.000295804	  -5.40766	0.000281816	  -5.38861	0.000285648	  -5.41998	0.000287756	  -5.41998	    7.1939	
  -5.61094	0.00029076	  -5.55526	 0.0002778	  -5.53553	0.000281558	  -5.56724	0.000283372	  -5.56724	   7.08431	
  -5.75985	0.000285765	  -5.70279	0.00027374	  -5.68284	0.000277438	  -5.71516	0.000278981	  -5.71516	   6.97452	
  -5.91004	0.000280684	     -5.85	0.000269664	  -5.82977	0.00027327	  -5.86327	0.000274539	  -5.86327	   6.86348	
  -6.06062	0.000275408	  -5.99671	0.000265572	   -5.9769	0.00026904	  -6.01141	0.000270007	  -6.01141	   6.75017	
   -6.2121	0.000269925	  -6.14299	0.000261472	  -6.12373	0.000264764	  -6.15961	0.000265387	  -6.15961	   6.63467	
  -6.36233	0.000264354	  -6.28889	0.000257317	  -6.27029	0.000260468	  -6.30717	0.000260713	  -6.30717	   6.51782	
  -6.51275	0.000258844	  -6.43475	0.000253123	  -6.41692	0.000256162	  -6.45481	0.000256043	  -6.45481	   6.40108	
   -6.6623	0.000253447	  -6.58098	0.000248906	   -6.5637	0.000251834	  -6.60233	0.000251396	  -6.60233	   6.28489	
  -6.81134	0.000248084	  -6.72642	0.000244621	  -6.71005	0.000247474	  -6.74927	0.000246726	  -6.74927	   6.16815	
  -6.96047	0.000242631	  -6.87092	0.000240243	  -6.85553	0.000243075	  -6.89564	0.000241983	  -6.89564	   6.04957	
  -7.10917	0.000237033	  -7.01457	0.00023582	  -7.00103	0.000238639	  -7.04159	0.000237164	  -7.04159	    5.9291	
  -7.25804	0.00023128	  -7.15856	0.000231388	  -7.14633	0.000234182	  -7.18764	0.000232283	  -7.18764	   5.80709	
  -7.40655	0.000225438	  -7.30184	0.000226943	  -7.29121	0.000229712	   -7.3332	0.000227364	   -7.3332	   5.68411	
  -7.55477	0.000219619	  -7.44451	0.000222552	  -7.43574	0.000225225	  -7.47834	0.000222465	  -7.47834	   5.56163	
  -7.70221	0.000213876	   -7.5872	0.000218176	  -7.57974	0.000220713	  -7.62305	0.000217588	  -7.62305	   5.43971	
  -7.84949	0.000208175	  -7.72968	0.000213774	  -7.72355	0.000216164	  -7.76757	0.000212705	  -7.76757	   5.31761	
  -7.99641	0.000202455	   -7.8715	0.000209299	  -7.86696	0.000211577	  -7.91162	0.000207777	  -7.91162	   5.19442	
  -8.14302	0.00019665	  -8.01275	0.00020475	  -8.01005	0.000206955	  -8.05527	0.000202785	  -8.05527	   5.06962	
  -8.28937	0.000190739	   -8.1538	0.000200104	  -8.15316	0.000202314	  -8.19878	0.000197719	  -8.19878	   4.94297	
  -8.43605	0.000184771	  -8.29498	0.000195427	  -8.29605	0.000197669	  -8.34236	0.000192622	  -8.34236	   4.81556	
  -8.58254	0.000178815	  -8.43633	0.000190774	  -8.43907	0.000193014	  -8.48598	0.000187534	  -8.48598	   4.68836	
  -8.72914	0.000172876	  -8.57788	0.000186148	  -8.58146	0.000188334	  -8.62949	0.000182453	  -8.62949	   4.56132	
  -8.87563	0.000166972	  -8.71888	0.000181513	  -8.72383	0.000183617	  -8.77278	0.000177367	  -8.77278	   4.43418	
  -9.02177	0.000161103	  -8.85969	0.000176845	  -8.86572	0.000178859	  -8.91572	0.000172269	  -8.91572	   4.30673	
  -9.16736	0.000155216	  -9.00011	0.00017211	   -9.0072	0.000174075	  -9.05822	0.000167134	  -9.05822	   4.17834	
  -9.31223	0.000149267	  -9.14023	0.000167313	  -9.14863	0.000169289	  -9.20036	0.000161956	  -9.20036	   4.04891	
  -9.45647	0.000143347	  -9.27934	 0.0001625	  -9.28979	0.000164505	  -9.34187	0.000156784	  -9.34187	    3.9196	
  -9.59939	0.000137363	  -9.41863	0.000157704	  -9.43024	0.000159701	  -9.48275	0.000151589	  -9.48275	   3.78974	
  -9.74166	0.000131309	  -9.55709	0.00015292	   -9.5706	0.000154851	  -9.62312	0.00014636	  -9.62312	     3.659	
  -9.88338	0.000125125	   -9.6959	0.000148127	  -9.71068	0.00014994	  -9.76332	0.000141064	  -9.76332	   3.52659	
  -10.0239	0.000118898	  -9.83404	0.000143294	  -9.85056	0.000144991	  -9.90282	0.000135728	  -9.90282	    3.3932	
  -10.1614	0.000112686	  -9.97241	0.000138402	  -9.98951	0.000140052	  -10.0411	0.00013038	  -10.0411	    3.2595	
  -10.2992	0.000106612	    -10.11	0.000133469	  -10.1285	0.000135136	  -10.1792	0.000125072	  -10.1792	   3.12681	
  -10.4353	0.000100624	  -10.2467	0.000128524	  -10.2672	0.000130224	  -10.3164	0.000119791	  -10.3164	   2.99476	
  -10.5758	9.46316e-05	  -10.3827	0.000123582	  -10.4055	0.000125296	  -10.4546	0.000114503	  -10.4546	   2.86258	
  -10.7149	8.85214e-05	  -10.5183	0.000118637	  -10.5429	0.000120324	   -10.592	0.00010916	   -10.592	   2.72901	
   -10.856	8.22604e-05	  -10.6537	0.00011367	  -10.6802	0.000115293	    -10.73	0.000103741	    -10.73	   2.59353	
  -10.9961	7.59147e-05	  -10.7888	0.000108667	  -10.8174	0.000110237	  -10.8674	9.82729e-05	  -10.8674	   2.45682	
  -11.1347	6.96209e-05	  -10.9236	0.000103627	  -10.9538	0.000105184	   -11.004	9.28108e-05	   -11.004	   2.32027	
  -11.2726	6.34354e-05	  -11.0581	9.85695e-05	  -11.0895	0.000100149	  -11.1401	8.73846e-05	  -11.1401	   2.18461	
  -11.4093	5.73176e-05	  -11.1924	9.35124e-05	  -11.2249	9.51244e-05	  -11.2756	8.19848e-05	  -11.2756	   2.04962	
  -11.5454	5.11734e-05	  -11.3259	8.84621e-05	  -11.3597	9.00807e-05	  -11.4103	7.6572e-05	  -11.4103	    1.9143	
  -11.6816	4.49315e-05	  -11.4589	8.34036e-05	  -11.4946	8.49938e-05	   -11.545	7.11096e-05	   -11.545	   1.77774	
  -11.8171	3.85844e-05	  -11.5921	7.83216e-05	  -11.6285	7.98703e-05	  -11.6792	6.55921e-05	  -11.6792	    1.6398	
  -11.9524	3.21693e-05	   -11.725	7.32121e-05	   -11.762	7.47435e-05	  -11.8131	6.00416e-05	  -11.8131	   1.50104	
  -12.0874	2.58339e-05	  -11.8577	6.80807e-05	  -11.8944	6.96368e-05	  -11.9465	5.45171e-05	  -11.9465	   1.36293	
  -12.2219	1.95583e-05	  -11.9901	6.29417e-05	  -12.0263	6.45531e-05	  -12.0794	4.90177e-05	  -12.0794	   1.22544	
  -12.3555	1.33734e-05	  -12.1217	5.78049e-05	  -12.1576	5.94722e-05	  -12.2116	4.35501e-05	  -12.2116	   1.08875	
  -12.4887	7.2621e-06	  -12.2532	5.2664e-05	  -12.2886	5.43681e-05	  -12.3435	3.80981e-05	  -12.3435	  0.952452	
  -12.6214	1.13115e-06	   -12.384	4.75049e-05	  -12.4188	4.92316e-05	  -12.4747	3.26226e-05	  -12.4747	  0.815564	
  -12.7537	-5.158e-06	  -12.5146	4.23101e-05	   -12.549	4.40791e-05	  -12.6057	2.7077e-05	  -12.6057	  0.676926	
  -12.8858	-1.15814e-05	  -12.6449	3.70848e-05	  -12.6783	3.89375e-05	  -12.7363	2.14803e-05	  -12.7363	  0.537008	
  -13.0168	-1.80451e-05	  -12.7743	3.18525e-05	   -12.807	3.3818e-05	   -12.866	1.58751e-05	   -12.866	  0.396878	
  -13.1477	-2.44233e-05	  -12.9028	2.66385e-05	  -12.9352	2.87128e-05	  -12.9952	1.03093e-05	  -12.9952	  0.257734	
   -13.278	-3.06557e-05	  -13.0315	2.14547e-05	  -13.0633	2.36022e-05	  -13.1243	4.80041e-06	  -13.1243	   0.12001	
  -13.4072	-3.67816e-05	  -13.1595	1.6273e-05	  -13.1906	1.84687e-05	  -13.2524	-6.79972e-07	  -13.2524	-0.0169993	
  -13.5355	-4.29521e-05	  -13.2872	1.10576e-05	  -13.3171	1.33049e-05	  -13.3799	-6.19654e-06	  -13.3799	 -0.154913	
  -13.6633	-4.9269e-05	  -13.4142	5.77846e-06	  -13.4436	8.12275e-06	   -13.507	-1.17892e-05	   -13.507	 -0.294731	
  -13.7903	-5.57338e-05	  -13.5408	4.08562e-07	  -13.5695	2.94554e-06	  -13.6335	-1.74599e-05	  -13.6335	 -0.436498	
  -13.9167	-6.22507e-05	  -13.6663	-4.96769e-06	   -13.695	-2.21485e-06	  -13.7594	-2.31444e-05	  -13.7594	  -0.57861	
   -14.043	-6.87094e-05	  -13.7907	-1.02912e-05	  -13.8201	-7.35927e-06	  -13.8846	-2.87866e-05	  -13.8846	 -0.719665	
  -14.1688	-7.50438e-05	  -13.9149	-1.54924e-05	  -13.9447	-1.2507e-05	  -14.0095	-3.43477e-05	  -14.0095	 -0.858693	
  -14.2938	-8.13044e-05	  -14.0386	-2.06542e-05	  -14.0684	-1.76787e-05	  -14.1336	-3.98791e-05	  -14.1336	 -0.996978	
  -14.4189	-8.76085e-05	  -14.1611	-2.58555e-05	  -14.1914	-2.28816e-05	  -14.2572	-4.54485e-05	  -14.2572	  -1.13621	
  -14.5436	-9.40289e-05	  -14.2829	-3.11899e-05	  -14.3138	-2.81001e-05	  -14.3801	-5.11063e-05	  -14.3801	  -1.27766	
  -14.6674	-0.000100544	  -14.4042	-3.66413e-05	  -14.4355	-3.33061e-05	  -14.5024	-5.68304e-05	  -14.5024	  -1.42076	
  -14.7906	-0.000107066	  -14.5254	-4.21202e-05	  -14.5568	-3.84872e-05	  -14.6243	-6.2558e-05	  -14.6243	  -1.56395	
  -14.9134	-0.000113499	  -14.6456	-4.75067e-05	  -14.6771	-4.36485e-05	  -14.7454	-6.82181e-05	  -14.7454	  -1.70545	
  -15.0356	-0.000119819	  -14.7655	-5.27622e-05	  -14.7969	-4.88146e-05	   -14.866	-7.37987e-05	   -14.866	  -1.84497	
  -15.1568	-0.000126092	   -14.885	-5.79486e-05	  -14.9159	-5.40019e-05	  -14.9859	-7.93473e-05	  -14.9859	  -1.98368	
  -15.2778	-0.000132443	  -15.0045	-6.31861e-05	  -15.0345	-5.92056e-05	  -15.1056	-8.49448e-05	  -15.1056	  -2.12362	
  -15.3982	-0.000138897	   -15.123	-6.8541e-05	  -15.1527	-6.44041e-05	  -15.2247	-9.06141e-05	  -15.2247	  -2.26535	
  -15.5179	-0.000145393	  -15.2414	-7.39757e-05	  -15.2703	-6.95759e-05	  -15.3432	-9.63148e-05	  -15.3432	  -2.40787	
  -15.6369	-0.000151826	  -15.3587	-7.93903e-05	  -15.3876	-7.47162e-05	  -15.4611	-0.000101977	  -15.4611	  -2.54943	
  -15.7552	-0.000158201	  -15.4759	-8.4701e-05	  -15.5045	-7.9838e-05	  -15.5786	-0.00010758	  -15.5786	   -2.6895	
  -15.8734	-0.000164438	  -15.5927	-8.99025e-05	  -15.6205	-8.4963e-05	  -15.6955	-0.000113101	  -15.6955	  -2.82753	
  -15.9907	-0.000170644	  -15.7086	-9.50762e-05	  -15.7363	-9.0098e-05	  -15.8118	-0.000118606	  -15.8118	  -2.96515	
  -16.1075	-0.000176846	  -15.8238	-0.000100315	  -15.8522	-9.52394e-05	  -15.9278	-0.000124133	  -15.9278	  -3.10333	
  -16.2236	-0.000183086	  -15.9384	-0.000105646	  -15.9673	-0.000100367	  -16.0431	-0.0001297	  -16.0431	  -3.24249	
  -16.3392	-0.000189338	  -16.0527	-0.000111014	  -16.0819	-0.000105466	  -16.1579	-0.000135273	  -16.1579	  -3.38182	
  -16.4547	-0.000195651	  -16.1662	-0.000116325	  -16.1959	-0.000110535	  -16.2723	-0.000140837	  -16.2723	  -3.52092	
  -16.5695	-0.000201932	   -16.279	-0.000121523	  -16.3095	-0.000115585	   -16.386	-0.000146347	   -16.386	  -3.65867	
  -16.6841	-0.000208145	  -16.3914	-0.000126638	  -16.4222	-0.000120633	  -16.4992	-0.000151806	  -16.4992	  -3.79514	
  -16.7981	-0.000214282	  -16.5032	-0.000131749	  -16.5341	-0.000125702	  -16.6118	-0.000157244	  -16.6118	  -3.93111	
  -16.9119	-0.000220362	  -16.6147	-0.000136927	  -16.6452	-0.000130792	  -16.7239	-0.000162694	  -16.7239	  -4.06734	
  -17.0247	-0.00022641	  -16.7253	-0.000142186	  -16.7556	-0.000135878	  -16.8352	-0.000168158	  -16.8352	  -4.20395	
  -17.1366	-0.000232486	  -16.8354	-0.000147465	   -16.865	-0.000140918	  -16.9457	-0.000173623	  -16.9457	  -4.34058	
   -17.248	-0.000238576	   -16.945	-0.000152687	  -16.9732	-0.000145901	  -17.0554	-0.000179055	  -17.0554	  -4.47637	
  -17.3593	-0.000244625	  -17.0544	-0.000157823	  -17.0806	-0.000150841	  -17.1648	-0.00018443	  -17.1648	  -4.61074	
  -17.4699	-0.000250604	  -17.1628	-0.000162903	  -17.1876	-0.000155813	  -17.2734	-0.000189773	  -17.2734	  -4.74433	
  -17.5793	-0.000256531	  -17.2701	-0.000167997	  -17.2934	-0.000160829	  -17.3809	-0.000195119	  -17.3809	  -4.87798	
  -17.6882	-0.000262406	  -17.3766	-0.000173148	  -17.3987	-0.000165846	  -17.4878	-0.000200467	  -17.4878	  -5.01167	
   -17.797	-0.000268285	  -17.4824	-0.000178344	  -17.5037	-0.000170837	  -17.5944	-0.000205822	  -17.5944	  -5.14555	
  -17.9048	-0.000274154	  -17.5871	-0.000183529	  -17.6079	-0.000175773	     -17.7	-0.000211152	     -17.7	  -5.27879	
  -18.0119	-0.000280029	  -17.6909	-0.000188646	  -17.7107	-0.000180628	  -17.8045	-0.000216434	  -17.8045	  -5.41086	
  -18.1179	-0.000285905	  -17.7938	-0.000193688	  -17.8128	-0.000185562	  -17.9082	-0.000221718	  -17.9082	  -5.54295	
  -18.2231	-0.000291761	  -17.8957	-0.000198696	  -17.9136	-0.000190631	  -18.0108	-0.000227029	  -18.0108	  -5.67574	
   -18.328	-0.000297528	  -17.9968	-0.000203732	  -18.0141	-0.000195792	   -18.113	-0.000232351	   -18.113	  -5.80877	
  -18.4321	-0.0003032	  -18.0976	-0.000208815	  -18.1122	-0.000200869	   -18.214	-0.000237628	   -18.214	  -5.94071	
   -18.535	-0.0003088	  -18.1981	-0.000213917	  -18.2098	-0.000205749	  -18.3143	-0.000242822	  -18.3143	  -6.07055	
  -18.6375	-0.000314396	  -18.2979	-0.00021898	  -18.3075	-0.00021043	  -18.4143	-0.000247935	  -18.4143	  -6.19838	
  -18.7391	-0.000320037	  -18.3963	-0.000223966	  -18.4051	-0.000215081	  -18.5135	-0.000253028	  -18.5135	  -6.32569	
  -18.8401	-0.000325723	  -18.4941	-0.000228886	  -18.5049	-0.000219878	   -18.613	-0.000258162	   -18.613	  -6.45406	
    -18.94	-0.000331393	  -18.5912	-0.000233787	  -18.6036	-0.000224876	  -18.7116	-0.000263352	  -18.7116	  -6.58381	
  -19.0388	-0.00033699	   -18.688	-0.000238714	  -18.7019	-0.000229936	  -18.8096	-0.000268547	  -18.8096	  -6.71367	
  -19.1366	-0.000342499	  -18.7839	-0.000243667	  -18.7994	-0.000234874	  -18.9066	-0.00027368	  -18.9066	  -6.84201	
  -19.2341	-0.000347957	   -18.879	-0.000248609	  -18.8962	-0.000239596	  -19.0031	-0.000278721	  -19.0031	  -6.96802	
  -19.3308	-0.000353433	   -18.973	-0.000253498	  -18.9917	-0.000244205	  -19.0985	-0.000283712	  -19.0985	   -7.0928	
  -19.4263	-0.000358975	  -19.0661	-0.000258317	  -19.0863	-0.000248825	  -19.1929	-0.000288706	  -19.1929	  -7.21764	
  -19.5212	-0.000364537	  -19.1589	-0.000263087	  -19.1801	-0.000253565	  -19.2868	-0.00029373	  -19.2868	  -7.34324	
  -19.6154	-0.000370033	  -19.2506	-0.000267853	   -19.273	-0.000258384	  -19.3797	-0.000298757	  -19.3797	  -7.46892	
   -19.709	-0.000375384	  -19.3417	-0.000272647	  -19.3645	-0.000263178	  -19.4717	-0.000303737	  -19.4717	  -7.59341	
  -19.8032	-0.000380595	  -19.4322	-0.000277466	  -19.4554	-0.000267757	  -19.5636	-0.000308606	  -19.5636	  -7.71515	
  -19.8972	-0.000385754	  -19.5221	-0.000282264	  -19.5457	-0.000272223	   -19.655	-0.000313414	   -19.655	  -7.83534	
  -19.9907	-0.000390966	  -19.6113	-0.000286984	  -19.6347	-0.000276725	  -19.7455	-0.000318225	  -19.7455	  -7.95562	
  -20.0827	-0.000396286	  -19.6999	-0.000291625	  -19.7222	-0.000281405	  -19.8349	-0.000323106	  -19.8349	  -8.07764	
  -20.1729	-0.000401618	  -19.7874	-0.000296232	  -19.8088	-0.00028623	   -19.923	-0.000328027	   -19.923	  -8.20067	
  -20.2609	-0.000406844	  -19.8743	-0.000300897	  -19.8913	-0.000291026	  -20.0088	-0.000332922	  -20.0088	  -8.32306	
  -20.3473	-0.000411933	  -19.9599	-0.000305583	  -19.9743	-0.000295538	  -20.0939	-0.000337685	  -20.0939	  -8.44212	
  -20.4331	-0.000416916	  -20.0446	-0.000310239	  -20.0554	-0.000299778	  -20.1777	-0.000342311	  -20.1777	  -8.55778	
  -20.5183	-0.000421853	  -20.1283	-0.000314831	  -20.1392	-0.000303914	  -20.2619	-0.000346866	  -20.2619	  -8.67165	
  -20.6022	-0.00042682	  -20.2117	-0.000319374	  -20.2225	-0.000308174	  -20.3455	-0.000351456	  -20.3455	   -8.7864	
   -20.686	-0.000431841	  -20.2946	-0.000323875	  -20.3059	-0.000312641	  -20.4288	-0.000356119	  -20.4288	  -8.90297	
  -20.7688	-0.000436856	  -20.3768	-0.000328376	  -20.3889	-0.000317237	  -20.5115	-0.000360823	  -20.5115	  -9.02058	
  -20.8501	-0.000441786	  -20.4585	-0.000332869	  -20.4698	-0.000321735	  -20.5928	-0.000365464	  -20.5928	  -9.13659	
  -20.9311	-0.00044661	  -20.5399	-0.00033733	  -20.5494	-0.000325988	  -20.6735	-0.000369976	  -20.6735	   -9.2494	
  -21.0102	-0.000451365	  -20.6206	-0.000341735	  -20.6283	-0.000330039	   -20.753	-0.00037438	   -20.753	  -9.35949	
  -21.0888	-0.000456107	  -20.7009	-0.0003461	  -20.7053	-0.000334066	  -20.8317	-0.000378758	  -20.8317	  -9.46894	
  -21.1663	-0.000460894	  -20.7802	-0.000350421	  -20.7822	-0.00033822	  -20.9096	-0.000383178	  -20.9096	  -9.57946	
   -21.243	-0.000465689	  -20.8592	-0.000354717	  -20.8577	-0.000342537	  -20.9866	-0.000387648	  -20.9866	  -9.69119	
  -21.3183	-0.000470408	  -20.9375	-0.000358932	  -20.9336	-0.000346897	  -21.0631	-0.000392079	  -21.0631	  -9.80198	
  -21.3928	-0.000475021	  -21.0148	-0.000363168	  -21.0088	-0.000351126	  -21.1388	-0.000396438	  -21.1388	  -9.91096	
  -21.4665	-0.00047958	  -21.0908	-0.000367427	   -21.083	-0.000355139	  -21.2134	-0.000400715	  -21.2134	  -10.0179	
  -21.5399	-0.000484135	  -21.1657	-0.000371758	  -21.1561	-0.000359016	  -21.2873	-0.00040497	  -21.2873	  -10.1242	
  -21.6127	-0.000488723	  -21.2395	-0.000376084	  -21.2284	-0.000362923	  -21.3602	-0.000409244	  -21.3602	  -10.2311	
  -21.6851	-0.000493348	  -21.3101	-0.000380333	  -21.3001	-0.000366979	  -21.4318	-0.000413554	  -21.4318	  -10.3388	
  -21.7569	-0.000497951	  -21.3805	-0.000384363	  -21.3713	-0.000371161	  -21.5029	-0.000417825	  -21.5029	  -10.4456	
   -21.829	-0.000502414	   -21.449	-0.000388255	  -21.4413	-0.000375333	  -21.5731	-0.000422001	  -21.5731	    -10.55	
  -21.8998	-0.000506698	  -21.5202	-0.000392103	  -21.5105	-0.00037933	  -21.6435	-0.000426044	  -21.6435	  -10.6511	
  -21.9697	-0.000510848	  -21.5901	-0.000396037	   -21.579	-0.000383157	  -21.7129	-0.000430014	  -21.7129	  -10.7504	
  -22.0396	-0.000514993	  -21.6607	-0.000400105	  -21.6468	-0.000386881	  -21.7824	-0.000433993	  -21.7824	  -10.8498	
  -22.1098	-0.000519204	  -21.7304	-0.000404251	  -21.7139	-0.000390579	  -21.8514	-0.000438011	  -21.8514	  -10.9503	
  -22.1796	-0.000523501	  -21.7978	-0.00040831	  -21.7797	-0.000394304	   -21.919	-0.000442038	   -21.919	   -11.051	
  -22.2489	-0.000527777	  -21.8641	-0.000412198	  -21.8449	-0.000398029	   -21.986	-0.000446001	   -21.986	    -11.15	
  -22.3165	-0.000531928	  -21.9295	-0.000415962	  -21.9102	-0.000401729	  -22.0521	-0.000449873	  -22.0521	  -11.2468	
  -22.3826	-0.000535948	  -21.9931	-0.000419714	  -21.9742	-0.000405424	  -22.1167	-0.000453695	  -22.1167	  -11.3424	
  -22.4466	-0.000539878	  -22.0567	-0.000423535	  -22.0372	-0.000409125	  -22.1802	-0.000457513	  -22.1802	  -11.4378	
  -22.5097	-0.000543783	  -22.1186	-0.000427446	   -22.099	-0.000412795	  -22.2424	-0.000461341	  -22.2424	  -11.5335	
  -22.5715	-0.000547758	  -22.1805	-0.000431362	  -22.1606	-0.000416386	  -22.3042	-0.000465169	  -22.3042	  -11.6292	
   -22.633	-0.000551774	  -22.2414	-0.000435168	  -22.2214	-0.000419877	  -22.3653	-0.00046894	  -22.3653	  -11.7235	
  -22.6938	-0.000555735	  -22.3014	-0.000438835	  -22.2817	-0.000423289	  -22.4256	-0.000472619	  -22.4256	  -11.8155	
  -22.7536	-0.000559587	  -22.3601	-0.000442424	  -22.3409	-0.000426677	  -22.4849	-0.000476229	  -22.4849	  -11.9057	
  -22.8132	-0.000563361	  -22.4173	-0.000446028	  -22.4001	-0.000430101	  -22.5435	-0.00047983	  -22.5435	  -11.9958	
  -22.8708	-0.000567128	  -22.4737	-0.000449704	   -22.458	-0.000433568	  -22.6008	-0.000483467	  -22.6008	  -12.0867	
  -22.9281	-0.000570953	  -22.5297	-0.00045342	   -22.515	-0.000437032	  -22.6576	-0.000487135	  -22.6576	  -12.1784	
  -22.9849	-0.000574837	  -22.5849	-0.000457091	  -22.5708	-0.000440431	  -22.7135	-0.000490786	  -22.7135	  -12.2697	
  -23.0401	-0.000578668	  -22.6397	-0.000460637	  -22.6262	-0.000443743	  -22.7687	-0.00049435	  -22.7687	  -12.3587	
  -23.0949	-0.000582383	  -22.6935	-0.000464064	  -22.6807	-0.000446983	   -22.823	-0.00049781	   -22.823	  -12.4453	
  -23.1491	-0.000585995	  -22.7469	-0.000467436	  -22.7346	-0.000450214	  -22.8768	-0.000501215	  -22.8768	  -12.5304	
  -23.2021	-0.000589545	  -22.7992	-0.000470831	  -22.7881	-0.000453479	  -22.9298	-0.000504618	  -22.9298	  -12.6155	
  -23.2542	-0.000593101	  -22.8501	-0.000474278	  -22.8404	-0.000456773	  -22.9816	-0.000508051	  -22.9816	  -12.7013	
  -23.3048	-0.000596747	  -22.8996	-0.000477733	  -22.8914	-0.000460036	  -23.0319	-0.000511505	  -23.0319	  -12.7876	
  -23.3547	-0.000600433	  -22.9483	-0.000481121	  -22.9418	-0.000463215	  -23.0816	-0.000514923	  -23.0816	  -12.8731	
   -23.404	-0.000604063	   -22.996	-0.000484397	  -22.9917	-0.000466302	  -23.1306	-0.000518254	  -23.1306	  -12.9564	
   -23.452	-0.000607578	  -23.0436	-0.000487581	  -23.0412	-0.000469336	  -23.1789	-0.000521498	  -23.1789	  -13.0375	
  -23.4989	-0.000610959	  -23.0904	-0.000490737	  -23.0893	-0.000472378	  -23.2262	-0.000524691	  -23.2262	  -13.1173	
  -23.5446	-0.000614274	  -23.1363	-0.000493924	  -23.1368	-0.000475457	  -23.2726	-0.000527885	  -23.2726	  -13.1971	
  -23.5894	-0.000617629	  -23.1817	-0.000497149	  -23.1827	-0.00047855	   -23.318	-0.000531109	   -23.318	  -13.2777	
  -23.6323	-0.000621058	  -23.2264	-0.000500361	  -23.2279	-0.000481608	  -23.3622	-0.000534342	  -23.3622	  -13.3586	
  -23.6745	-0.000624494	  -23.2702	-0.000503496	  -23.2717	-0.000484589	  -23.4055	-0.000537526	  -23.4055	  -13.4382	
  -23.7161	-0.000627856	  -23.3128	-0.000506534	   -23.314	-0.00048749	  -23.4476	-0.000540627	  -23.4476	  -13.5157	
  -23.7559	-0.000631096	  -23.3541	-0.000509513	  -23.3547	-0.000490348	  -23.4882	-0.000543653	  -23.4882	  -13.5913	
  -23.7948	-0.000634233	  -23.3951	-0.000512499	  -23.3939	-0.000493209	   -23.528	-0.000546647	   -23.528	  -13.6662	
  -23.8328	-0.000637353	  -23.4348	-0.000515522	   -23.433	-0.000496095	  -23.5668	-0.000549657	  -23.5668	  -13.7414	
  -23.8702	-0.000640536	   -23.474	-0.000518559	   -23.471	-0.000498988	  -23.6051	-0.000552695	  -23.6051	  -13.8174	
  -23.9073	-0.000643781	  -23.5114	-0.000521537	  -23.5085	-0.000501843	  -23.6424	-0.00055572	  -23.6424	   -13.893	
  -23.9434	-0.000647004	  -23.5486	-0.00052443	  -23.5446	-0.000504631	  -23.6789	-0.000558688	  -23.6789	  -13.9672	
  -23.9785	-0.000650131	  -23.5849	-0.000527268	    -23.58	-0.000507359	  -23.7145	-0.000561586	  -23.7145	  -14.0397	
  -24.0126	-0.000653139	  -23.6209	-0.000530113	  -23.6145	-0.000510055	  -23.7493	-0.000564435	  -23.7493	  -14.1109	
  -24.0457	-0.0006561	  -23.6559	-0.000532988	  -23.6479	-0.000512731	  -23.7832	-0.000567273	  -23.7832	  -14.1818	
  -24.0776	-0.000659093	  -23.6899	-0.000535888	  -23.6806	-0.00051543	   -23.816	-0.000570137	   -23.816	  -14.2534	
  -24.1085	-0.000662153	  -23.7225	-0.000538735	  -23.7121	-0.000518167	  -23.8477	-0.000573018	  -23.8477	  -14.3255	
  -24.1384	-0.00066521	  -23.7541	-0.000541496	  -23.7426	-0.000520898	  -23.8784	-0.000575868	  -23.8784	  -14.3967	
  -24.1675	-0.000668189	  -23.7847	-0.000544161	  -23.7717	-0.000523564	   -23.908	-0.000578638	   -23.908	  -14.4659	
  -24.1952	-0.00067102	  -23.8143	-0.000546769	  -23.7997	-0.000526137	  -23.9364	-0.000581309	  -23.9364	  -14.5327	
  -24.2217	-0.000673748	  -23.8429	-0.000549389	  -23.8268	-0.000528625	  -23.9638	-0.000583921	  -23.9638	   -14.598	
  -24.2479	-0.000676497	  -23.8706	-0.00055203	  -23.8534	-0.000531068	  -23.9906	-0.000586532	  -23.9906	  -14.6633	
  -24.2733	-0.000679377	  -23.8977	-0.000554672	  -23.8788	-0.000533532	  -24.0166	-0.000589194	  -24.0166	  -14.7298	
  -24.2981	-0.000682333	  -23.9239	-0.000557259	  -23.9033	-0.000536035	  -24.0417	-0.000591876	  -24.0417	  -14.7969	
  -24.3216	-0.000685259	  -23.9493	-0.000559769	  -23.9269	-0.000538536	  -24.0659	-0.000594521	  -24.0659	   -14.863	
  -24.3444	-0.00068802	  -23.9738	-0.000562226	  -23.9495	-0.000540976	  -24.0893	-0.000597074	  -24.0893	  -14.9269	
  -24.3662	-0.000690593	  -23.9974	-0.000564675	   -23.971	-0.000543325	  -24.1115	-0.000599531	  -24.1115	  -14.9883	
   -24.387	-0.000693038	  -24.0202	-0.000567108	  -23.9919	-0.00054559	  -24.1331	-0.000601912	  -24.1331	  -15.0478	
  -24.4064	-0.000695497	  -24.0415	-0.000569515	  -24.0122	-0.000547824	  -24.1533	-0.000604279	  -24.1533	   -15.107	
  -24.4253	-0.00069806	  -24.0616	-0.000571866	  -24.0318	-0.000550074	  -24.1729	-0.000606666	  -24.1729	  -15.1667	
  -24.4433	-0.000700704	  -24.0803	-0.000574163	  -24.0504	-0.000552338	  -24.1913	-0.000609068	  -24.1913	  -15.2267	
  -24.4601	-0.000703323	  -24.0986	-0.000576431	   -24.068	-0.00055458	  -24.2089	-0.000611445	  -24.2089	  -15.2861	
  -24.4761	-0.00070581	  -24.1161	-0.000578698	  -24.0844	-0.000556765	  -24.2255	-0.000613758	  -24.2255	  -15.3439	
  -24.4909	-0.000708109	  -24.1319	-0.000580963	  -24.0994	-0.000558863	  -24.2408	-0.000615978	  -24.2408	  -15.3995	
  -24.5052	-0.000710326	  -24.1464	-0.000583195	  -24.1134	-0.000560898	   -24.255	-0.00061814	   -24.255	  -15.4535	
  -24.5186	-0.000712567	  -24.1596	-0.000585365	  -24.1264	-0.000562927	  -24.2682	-0.000620286	  -24.2682	  -15.5072	
  -24.5309	-0.000714935	  -24.1719	-0.000587468	  -24.1387	-0.00056499	  -24.2805	-0.000622464	  -24.2805	  -15.5616	
  -24.5428	-0.000717407	  -24.1833	-0.000589526	    -24.15	-0.000567076	   -24.292	-0.00062467	   -24.292	  -15.6167	
  -24.5533	-0.000719859	  -24.1932	-0.00059157	  -24.1604	-0.000569131	  -24.3023	-0.000626853	  -24.3023	  -15.6713	
  -24.5629	-0.000722119	  -24.2022	-0.000593615	  -24.1699	-0.000571111	  -24.3117	-0.000628948	  -24.3117	  -15.7237	
  -24.5716	-0.000724176	  -24.2099	-0.00059564	   -24.178	-0.000573016	  -24.3198	-0.000630944	  -24.3198	  -15.7736	
  -24.5794	-0.000726139	  -24.2164	-0.00059762	  -24.1852	-0.00057488	   -24.327	-0.00063288	   -24.327	   -15.822	
  -24.5859	-0.000728169	   -24.222	-0.000599538	  -24.1916	-0.000576727	  -24.3332	-0.000634811	  -24.3332	  -15.8703	
  -24.5914	-0.000730319	  -24.2269	-0.000601399	  -24.1969	-0.000578546	  -24.3384	-0.000636755	  -24.3384	  -15.9189	
  -24.5952	-0.000732516	   -24.231	-0.000603226	  -24.2016	-0.000580335	  -24.3426	-0.000638692	  -24.3426	  -15.9673	
  -24.5982	-0.000734611	  -24.2342	-0.000605042	   -24.206	-0.000582101	  -24.3461	-0.000640585	  -24.3461	  -16.0146	
  -24.5996	-0.000736529	  -24.2365	-0.000606852	  -24.2096	-0.000583843	  -24.3485	-0.000642408	  -24.3485	  -16.0602	
  -24.6004	-0.000738311	  -24.2371	-0.000608629	  -24.2119	-0.000585582	  -24.3498	-0.000644174	  -24.3498	  -16.1044	
  -24.6004	-0.000740092	  -24.2368	-0.000610372	  -24.2125	-0.000587302	  -24.3499	-0.000645922	  -24.3499	   -16.148	
  -24.5994	-0.00074196	  -24.2351	-0.000612074	  -24.2113	-0.000588973	  -24.3486	-0.000647669	  -24.3486	  -16.1917	
  -24.5971	-0.000743863	  -24.2324	-0.000613696	  -24.2087	-0.000590612	  -24.3461	-0.00064939	  -24.3461	  -16.2348	
  -24.5942	-0.000745746	   -24.229	-0.000615247	   -24.204	-0.000592213	  -24.3424	-0.000651069	  -24.3424	  -16.2767	
  -24.5904	-0.000747516	  -24.2253	-0.000616755	  -24.1993	-0.000593776	  -24.3383	-0.000652682	  -24.3383	  -16.3171	
  -24.5855	-0.000749189	  -24.2205	-0.000618247	  -24.1932	-0.000595349	  -24.3331	-0.000654262	  -24.3331	  -16.3565	
  -24.5796	-0.000750819	  -24.2153	-0.000619767	  -24.1874	-0.000596919	  -24.3274	-0.000655835	  -24.3274	  -16.3959	
  -24.5724	-0.000752473	  -24.2088	-0.000621328	  -24.1797	-0.000598415	  -24.3203	-0.000657406	  -24.3203	  -16.4351	
  -24.5648	-0.00075417	  -24.2013	-0.000622874	  -24.1712	-0.000599833	  -24.3124	-0.000658959	  -24.3124	   -16.474	
  -24.5561	-0.000755861	  -24.1929	-0.000624351	   -24.162	-0.000601215	  -24.3037	-0.000660476	  -24.3037	  -16.5119	
  -24.5462	-0.000757467	  -24.1837	-0.000625739	  -24.1514	-0.000602608	  -24.2938	-0.000661938	  -24.2938	  -16.5485	
  -24.5355	-0.000758967	   -24.173	-0.000627061	  -24.1399	-0.000604038	  -24.2828	-0.000663355	  -24.2828	  -16.5839	
  -24.5238	-0.000760409	  -24.1614	-0.000628364	  -24.1275	-0.000605556	  -24.2709	-0.000664776	  -24.2709	  -16.6194	
  -24.5112	-0.000761865	  -24.1486	-0.0006297	  -24.1144	-0.000607101	  -24.2581	-0.000666222	  -24.2581	  -16.6555	
  -24.4976	-0.000763369	  -24.1349	-0.000631066	  -24.1009	-0.000608575	  -24.2445	-0.00066767	  -24.2445	  -16.6917	
  -24.4834	-0.000764899	  -24.1202	-0.000632411	  -24.0866	-0.000609902	  -24.2301	-0.000669071	  -24.2301	  -16.7268	
  -24.4681	-0.000766388	  -24.1046	-0.000633677	   -24.071	-0.000611107	  -24.2146	-0.000670391	  -24.2146	  -16.7598	
  -24.4517	-0.000767777	  -24.0877	-0.000634861	  -24.0546	-0.000612282	   -24.198	-0.00067164	   -24.198	   -16.791	
  -24.4342	-0.000769066	    -24.07	-0.000636007	  -24.0376	-0.000613561	  -24.1806	-0.000672878	  -24.1806	  -16.8219	
  -24.4161	-0.000770316	  -24.0512	-0.000637176	    -24.02	-0.000614952	  -24.1624	-0.000674148	  -24.1624	  -16.8537	
  -24.3969	-0.000771587	  -24.0317	-0.000638393	  -24.0011	-0.000616327	  -24.1432	-0.000675436	  -24.1432	  -16.8859	
  -24.3764	-0.000772898	  -24.0106	-0.000639624	  -23.9813	-0.000617552	  -24.1228	-0.000676691	  -24.1228	  -16.9173	
  -24.3551	-0.000774215	  -23.9887	-0.000640793	  -23.9612	-0.000618619	  -24.1017	-0.000677875	  -24.1017	  -16.9469	
   -24.333	-0.000775471	  -23.9657	-0.000641845	  -23.9415	-0.000619603	  -24.0801	-0.000678973	  -24.0801	  -16.9743	
  -24.3097	-0.000776627	  -23.9414	-0.000642822	  -23.9209	-0.000620653	  -24.0574	-0.000680034	  -24.0574	  -17.0008	
  -24.2859	-0.000777708	  -23.9158	-0.000643785	  -23.8994	-0.000621849	  -24.0337	-0.000681114	  -24.0337	  -17.0279	
  -24.2614	-0.000778809	  -23.8898	-0.000644748	  -23.8761	-0.00062313	  -24.0091	-0.000682229	  -24.0091	  -17.0557	
  -24.2356	-0.000779949	  -23.8626	-0.000645739	  -23.8508	-0.000624365	   -23.983	-0.000683351	   -23.983	  -17.0838	
  -24.2093	-0.000781098	  -23.8345	-0.000646758	  -23.8234	-0.00062543	  -23.9557	-0.000684429	  -23.9557	  -17.1107	
  -24.1816	-0.00078215	  -23.8049	-0.000647744	  -23.7952	-0.000626308	  -23.9272	-0.000685401	  -23.9272	   -17.135	
   -24.153	-0.000783081	  -23.7747	-0.0006487	  -23.7662	-0.000627131	   -23.898	-0.000686304	   -23.898	  -17.1576	
  -24.1232	-0.000783932	  -23.7436	-0.000649604	   -23.737	-0.000628056	  -23.8679	-0.000687197	  -23.8679	  -17.1799	
  -24.0924	-0.000784802	  -23.7117	-0.000650389	  -23.7074	-0.000629139	  -23.8372	-0.00068811	  -23.8372	  -17.2027	
  -24.0604	-0.000785759	  -23.6787	-0.000651027	  -23.6759	-0.000630306	   -23.805	-0.000689031	   -23.805	  -17.2258	
  -24.0274	-0.0007868	  -23.6452	-0.000651605	  -23.6433	-0.000631419	   -23.772	-0.000689942	   -23.772	  -17.2485	
  -23.9932	-0.00078783	  -23.6119	-0.000652194	  -23.6094	-0.000632356	  -23.7381	-0.000690793	  -23.7381	  -17.2698	
  -23.9586	-0.000788754	   -23.578	-0.000652854	  -23.5737	-0.000633137	  -23.7034	-0.000691582	  -23.7034	  -17.2895	
  -23.9228	-0.000789557	  -23.5438	-0.000653567	  -23.5377	-0.00063389	  -23.6681	-0.000692338	  -23.6681	  -17.3085	
  -23.8864	-0.000790305	  -23.5075	-0.000654286	  -23.5001	-0.000634736	  -23.6314	-0.000693109	  -23.6314	  -17.3277	
  -23.8486	-0.000791079	  -23.4703	-0.000654925	  -23.4625	-0.000635717	  -23.5938	-0.000693907	  -23.5938	  -17.3477	
  -23.8099	-0.00079192	  -23.4312	-0.000655444	   -23.423	-0.000636773	  -23.5547	-0.000694712	  -23.5547	  -17.3678	
  -23.7707	-0.000792791	  -23.3908	-0.000655889	  -23.3829	-0.000637773	  -23.5148	-0.000695484	  -23.5148	  -17.3871	
  -23.7305	-0.000793614	   -23.349	-0.000656311	  -23.3418	-0.000638634	  -23.4738	-0.000696186	  -23.4738	  -17.4047	
  -23.6891	-0.000794324	  -23.3075	-0.000656774	  -23.2999	-0.000639349	  -23.4322	-0.000696816	  -23.4322	  -17.4204	
  -23.6465	-0.00079493	  -23.2646	-0.00065728	  -23.2568	-0.000640029	  -23.3893	-0.000697413	  -23.3893	  -17.4353	
  -23.6031	-0.000795503	  -23.2217	-0.000657793	  -23.2123	-0.000640786	  -23.3457	-0.000698027	  -23.3457	  -17.4507	
  -23.5584	-0.000796109	  -23.1781	-0.000658232	  -23.1667	-0.000641617	  -23.3011	-0.000698653	  -23.3011	  -17.4663	
  -23.5125	-0.000796765	  -23.1325	-0.000658531	  -23.1208	-0.000642455	  -23.2553	-0.00069925	  -23.2553	  -17.4813	
  -23.4656	-0.000797421	  -23.0867	-0.000658767	  -23.0735	-0.000643257	  -23.2086	-0.000699815	  -23.2086	  -17.4954	
  -23.4183	-0.000798001	  -23.0391	-0.000659061	  -23.0258	-0.000643955	  -23.1611	-0.000700339	  -23.1611	  -17.5085	
  -23.3706	-0.000798473	  -22.9907	-0.000659465	  -22.9769	-0.000644554	  -23.1127	-0.000700831	  -23.1127	  -17.5208	
  -23.3224	-0.000798865	  -22.9414	-0.000659938	  -22.9269	-0.000645121	  -23.0636	-0.000701308	  -23.0636	  -17.5327	
  -23.2735	-0.000799276	  -22.8912	-0.00066035	  -22.8758	-0.000645721	  -23.0135	-0.000701782	  -23.0135	  -17.5446	
  -23.2233	-0.000799704	  -22.8406	-0.000660569	  -22.8236	-0.000646351	  -22.9625	-0.000702208	  -22.9625	  -17.5552	
  -23.1724	-0.000800113	  -22.7889	-0.00066062	  -22.7708	-0.000646998	  -22.9107	-0.000702577	  -22.9107	  -17.5644	
  -23.1206	-0.000800456	  -22.7363	-0.000660651	  -22.7167	-0.000647619	  -22.8579	-0.000702909	  -22.8579	  -17.5727	
  -23.0677	-0.000800736	   -22.683	-0.000660791	  -22.6621	-0.000648168	  -22.8042	-0.000703232	  -22.8042	  -17.5808	
  -23.0141	-0.000800982	   -22.628	-0.000661057	   -22.607	-0.000648661	  -22.7497	-0.000703567	  -22.7497	  -17.5892	
  -22.9594	-0.000801253	  -22.5724	-0.000661361	  -22.5508	-0.000649136	  -22.6942	-0.000703917	  -22.6942	  -17.5979	
  -22.9037	-0.000801557	  -22.5157	-0.000661555	  -22.4939	-0.000649598	  -22.6378	-0.000704237	  -22.6378	  -17.6059	
  -22.8468	-0.000801852	  -22.4581	-0.000661566	  -22.4359	-0.000650069	  -22.5803	-0.000704496	  -22.5803	  -17.6124	
  -22.7891	-0.00080208	  -22.3995	-0.000661444	  -22.3777	-0.000650533	  -22.5221	-0.000704686	  -22.5221	  -17.6171	
  -22.7299	-0.000802224	    -22.34	-0.000661309	  -22.3183	-0.000650967	  -22.4627	-0.000704833	  -22.4627	  -17.6208	
  -22.6694	-0.000802306	  -22.2797	-0.000661244	  -22.2579	-0.000651363	  -22.4024	-0.000704971	  -22.4024	  -17.6243	
   -22.608	-0.000802384	  -22.2178	-0.000661255	  -22.1964	-0.000651731	  -22.3407	-0.000705123	  -22.3407	  -17.6281	
  -22.5457	-0.000802505	  -22.1547	-0.000661254	  -22.1335	-0.000652079	   -22.278	-0.000705279	   -22.278	   -17.632	
  -22.4822	-0.000802661	  -22.0909	-0.000661137	  -22.0697	-0.000652409	  -22.2143	-0.000705403	  -22.2143	  -17.6351	
  -22.4177	-0.000802789	  -22.0259	-0.000660873	  -22.0056	-0.000652726	  -22.1497	-0.000705463	  -22.1497	  -17.6366	
  -22.3517	-0.000802843	  -21.9602	-0.00066053	  -21.9405	-0.000653021	  -22.0841	-0.000705465	  -22.0841	  -17.6366	
  -22.2844	-0.00080282	   -21.894	-0.000660211	  -21.8743	-0.000653287	  -22.0176	-0.000705439	  -22.0176	   -17.636	
  -22.2163	-0.000802753	  -21.8268	-0.000659979	  -21.8069	-0.000653523	    -21.95	-0.000705418	    -21.95	  -17.6355	
  -22.1473	-0.000802699	  -21.7592	-0.000659798	  -21.7385	-0.000653738	  -21.8817	-0.000705411	  -21.8817	  -17.6353	
   -22.078	-0.000802687	  -21.6907	-0.000659569	  -21.6689	-0.000653938	  -21.8125	-0.000705398	  -21.8125	  -17.6349	
  -22.0079	-0.000802688	  -21.6214	-0.000659209	  -21.5988	-0.000654125	  -21.7427	-0.000705341	  -21.7427	  -17.6335	
  -21.9366	-0.000802647	  -21.5502	-0.000658735	  -21.5281	-0.000654292	  -21.6716	-0.000705225	  -21.6716	  -17.6306	
  -21.8643	-0.000802534	  -21.4783	-0.000658234	  -21.4565	-0.000654429	  -21.5997	-0.000705065	  -21.5997	  -17.6266	
  -21.7905	-0.000802359	  -21.4049	-0.000657793	  -21.3844	-0.000654532	  -21.5266	-0.000704895	  -21.5266	  -17.6224	
   -21.716	-0.000802163	  -21.3314	-0.000657432	  -21.3119	-0.000654611	  -21.4531	-0.000704735	  -21.4531	  -17.6184	
  -21.6405	-0.000801982	   -21.257	-0.000657095	  -21.2389	-0.000654677	  -21.3788	-0.000704584	  -21.3788	  -17.6146	
  -21.5643	-0.000801821	  -21.1813	-0.000656692	  -21.1649	-0.00065473	  -21.3035	-0.000704415	  -21.3035	  -17.6104	
   -21.487	-0.000801651	  -21.1043	-0.000656194	  -21.0902	-0.000654766	  -21.2272	-0.000704204	  -21.2272	  -17.6051	
  -21.4089	-0.000801432	   -21.027	-0.000655632	  -21.0148	-0.000654774	  -21.1502	-0.000703946	  -21.1502	  -17.5987	
  -21.3295	-0.000801151	  -20.9488	-0.000655077	  -20.9388	-0.000654755	  -21.0724	-0.000703661	  -21.0724	  -17.5915	
  -21.2495	-0.000800822	  -20.8698	-0.000654562	   -20.862	-0.000654729	  -20.9938	-0.000703371	  -20.9938	  -17.5843	
  -21.1685	-0.000800481	  -20.7899	-0.000654076	  -20.7844	-0.000654695	  -20.9142	-0.000703084	  -20.9142	  -17.5771	
  -21.0872	-0.000800147	  -20.7096	-0.000653574	  -20.7063	-0.000654628	  -20.8344	-0.000702783	  -20.8344	  -17.5696	
  -21.0045	-0.000799818	  -20.6284	-0.000653014	  -20.6276	-0.000654495	  -20.7535	-0.000702442	  -20.7535	  -17.5611	
  -20.9209	-0.000799467	  -20.5467	-0.000652389	  -20.5475	-0.0006543	  -20.6717	-0.000702052	  -20.6717	  -17.5513	
  -20.8369	-0.00079906	  -20.4641	-0.000651754	  -20.4666	-0.000654061	  -20.5892	-0.000701625	  -20.5892	  -17.5406	
  -20.7524	-0.000798593	  -20.3813	-0.000651141	  -20.3847	-0.000653817	  -20.5062	-0.000701184	  -20.5062	  -17.5296	
  -20.6668	-0.000798088	  -20.2979	-0.000650563	  -20.3018	-0.000653589	  -20.4222	-0.000700746	  -20.4222	  -17.5187	
   -20.581	-0.000797577	  -20.2136	  -0.00065	  -20.2179	-0.000653377	  -20.3375	-0.000700318	  -20.3375	  -17.5079	
  -20.4943	-0.000797075	  -20.1288	-0.000649403	  -20.1336	-0.00065317	  -20.2522	-0.000699883	  -20.2522	  -17.4971	
  -20.4072	-0.000796564	   -20.043	-0.000648736	  -20.0484	-0.000652934	  -20.1662	-0.000699411	  -20.1662	  -17.4853	
  -20.3193	-0.000796018	  -19.9565	-0.000648084	  -19.9627	-0.000652603	  -20.0795	-0.000698902	  -20.0795	  -17.4725	
  -20.2307	-0.000795416	  -19.8696	-0.000647437	  -19.8761	-0.000652186	  -19.9921	-0.000698346	  -19.9921	  -17.4587	
  -20.1409	-0.000794765	   -19.782	-0.000646711	  -19.7889	-0.000651731	  -19.9039	-0.000697735	  -19.9039	  -17.4434	
  -20.0503	-0.000794092	  -19.6936	-0.000645908	  -19.7003	-0.000651304	  -19.8147	-0.000697101	  -19.8147	  -17.4275	
  -19.9591	-0.000793429	  -19.6047	-0.000645081	  -19.6114	-0.000650955	  -19.7251	-0.000696489	  -19.7251	  -17.4122	
  -19.8668	-0.000792776	  -19.5152	-0.000644286	  -19.5217	-0.000650671	  -19.6346	-0.000695911	  -19.6346	  -17.3978	
  -19.7736	-0.000792095	  -19.4252	-0.000643597	  -19.4318	-0.000650365	  -19.5435	-0.000695352	  -19.5435	  -17.3838	
  -19.6795	-0.000791343	  -19.3346	-0.00064302	  -19.3406	-0.000649962	  -19.4516	-0.000694775	  -19.4516	  -17.3694	
  -19.5851	-0.000790516	  -19.2435	-0.000642441	  -19.2487	-0.000649452	  -19.3591	-0.000694136	  -19.3591	  -17.3534	
    -19.49	-0.000789647	  -19.1507	-0.000641757	  -19.1553	-0.000648903	  -19.2653	-0.000693436	  -19.2653	  -17.3359	
  -19.3936	-0.000788796	  -19.0575	-0.000640959	  -19.0617	-0.000648389	  -19.1709	-0.000692715	  -19.1709	  -17.3179	
  -19.2969	-0.000787986	  -18.9635	-0.000640118	  -18.9671	-0.000647953	  -19.0758	-0.000692019	  -19.0758	  -17.3005	
  -19.1997	-0.000787183	  -18.8694	-0.00063932	  -18.8714	-0.000647559	  -18.9802	-0.000691354	  -18.9802	  -17.2839	
  -19.1018	-0.000786348	  -18.7746	-0.000638622	  -18.7745	-0.000647131	  -18.8837	-0.0006907	  -18.8837	  -17.2675	
  -19.0034	-0.000785456	  -18.6791	-0.000637988	  -18.6771	-0.000646608	  -18.7865	-0.000690017	  -18.7865	  -17.2504	
  -18.9043	-0.000784498	  -18.5826	-0.000637336	  -18.5783	 -0.000646	  -18.6884	-0.000689278	  -18.6884	   -17.232	
  -18.8046	-0.000783516	  -18.4853	-0.000636595	  -18.4789	-0.000645376	  -18.5896	-0.000688496	  -18.5896	  -17.2124	
  -18.7042	-0.000782571	  -18.3874	-0.000635771	  -18.3787	-0.000644801	  -18.4901	-0.000687715	  -18.4901	  -17.1929	
   -18.603	-0.000781674	  -18.2886	-0.000634911	  -18.2782	-0.000644284	    -18.39	-0.000686957	    -18.39	  -17.1739	
  -18.5011	-0.000780781	  -18.1895	-0.000634078	  -18.1763	-0.000643781	   -18.289	-0.000686213	   -18.289	  -17.1553	
  -18.3983	-0.000779826	   -18.089	-0.000633323	  -18.0737	-0.000643223	   -18.187	-0.000685457	   -18.187	  -17.1364	
  -18.2947	-0.000778772	  -17.9879	-0.00063264	  -17.9702	-0.000642565	  -18.0843	-0.000684659	  -18.0843	  -17.1165	
    -18.19	-0.000777653	  -17.8858	-0.00063196	  -17.8668	-0.000641816	  -17.9809	-0.00068381	  -17.9809	  -17.0952	
  -18.0847	-0.000776527	  -17.7827	-0.000631214	  -17.7626	-0.000641039	  -17.8767	-0.000682927	  -17.8767	  -17.0732	
  -17.9779	-0.000775455	  -17.6796	-0.000630388	  -17.6576	-0.000640313	  -17.7717	-0.000682052	  -17.7717	  -17.0513	
  -17.8706	-0.000774438	  -17.5751	-0.000629526	  -17.5523	-0.000639665	   -17.666	-0.00068121	   -17.666	  -17.0302	
  -17.7621	-0.00077341	  -17.4699	-0.000628684	  -17.4463	-0.000639044	  -17.5594	-0.000680379	  -17.5594	  -17.0095	
   -17.653	-0.000772314	  -17.3641	-0.000627911	  -17.3394	-0.000638371	  -17.4522	-0.000679532	  -17.4522	  -16.9883	
  -17.5433	-0.000771123	  -17.2577	-0.000627178	  -17.2319	-0.00063761	  -17.3443	-0.000678637	  -17.3443	  -16.9659	
   -17.433	-0.00076986	  -17.1508	-0.000626409	  -17.1237	-0.000636768	  -17.2358	-0.000677679	  -17.2358	   -16.942	
   -17.323	-0.000768593	  -17.0433	-0.000625569	  -17.0151	-0.000635879	  -17.1271	-0.000676681	  -17.1271	   -16.917	
  -17.2121	-0.000767375	  -16.9347	-0.000624679	  -16.9058	-0.000635009	  -17.0175	-0.000675688	  -17.0175	  -16.8922	
  -17.1007	-0.00076619	  -16.8259	-0.000623777	  -16.7956	-0.000634174	  -16.9074	-0.000674714	  -16.9074	  -16.8678	
  -16.9887	-0.000764987	  -16.7155	-0.000622897	  -16.6845	-0.000633388	  -16.7962	-0.000673758	  -16.7962	  -16.8439	
  -16.8758	-0.000763716	  -16.6047	-0.000622049	   -16.573	-0.000632571	  -16.6845	-0.000672779	  -16.6845	  -16.8195	
  -16.7623	-0.000762363	  -16.4933	-0.000621198	  -16.4611	-0.000631689	  -16.5722	-0.00067175	  -16.5722	  -16.7938	
  -16.6486	-0.000760959	  -16.3812	-0.0006203	  -16.3482	-0.000630781	  -16.4593	-0.00067068	  -16.4593	   -16.767	
  -16.5344	-0.000759568	  -16.2684	-0.000619353	  -16.2349	-0.000629881	  -16.3459	-0.0006696	  -16.3459	    -16.74	
  -16.4196	-0.000758221	  -16.1554	-0.00061838	  -16.1212	-0.000629022	  -16.2321	-0.000668541	  -16.2321	  -16.7135	
  -16.3039	-0.000756895	   -16.041	-0.000617407	  -16.0078	-0.000628201	  -16.1176	-0.000667501	  -16.1176	  -16.6875	
  -16.1878	-0.000755533	  -15.9258	-0.000616431	  -15.8935	-0.00062734	  -16.0024	-0.000666434	  -16.0024	  -16.6609	
  -16.0708	-0.00075408	  -15.8097	-0.000615438	  -15.7786	-0.000626377	  -15.8864	-0.000665298	  -15.8864	  -16.6325	
  -15.9533	-0.00075254	  -15.6933	-0.000614409	  -15.6638	-0.000625349	  -15.7701	-0.000664099	  -15.7701	  -16.6025	
   -15.835	-0.000750989	  -15.5765	-0.000613354	  -15.5487	-0.000624334	  -15.6534	-0.000662892	  -15.6534	  -16.5723	
  -15.7163	-0.000749512	  -15.4587	-0.000612282	  -15.4325	-0.00062338	  -15.5359	-0.000661725	  -15.5359	  -16.5431	
  -15.5967	-0.000748108	  -15.3404	-0.000611214	  -15.3161	-0.000622491	  -15.4177	-0.000660605	  -15.4177	  -16.5151	
  -15.4767	-0.000746707	  -15.2214	-0.000610153	  -15.1992	-0.000621621	  -15.2991	-0.000659494	  -15.2991	  -16.4873	
  -15.3558	-0.000745234	  -15.1018	-0.000609078	   -15.082	-0.000620691	  -15.1799	-0.000658335	  -15.1799	  -16.4584	
  -15.2345	-0.000743636	  -14.9819	-0.000607977	  -14.9639	-0.000619695	  -15.0601	-0.000657103	  -15.0601	  -16.4276	
   -15.113	-0.00074194	  -14.8611	-0.000606835	  -14.8452	-0.000618659	  -14.9398	-0.000655811	  -14.9398	  -16.3953	
  -14.9913	-0.000740227	  -14.7401	-0.00060565	   -14.726	-0.000617613	  -14.8191	-0.000654497	  -14.8191	  -16.3624	
  -14.8688	-0.000738533	  -14.6187	-0.000604452	  -14.6064	-0.000616548	   -14.698	-0.000653178	   -14.698	  -16.3294	
  -14.7462	-0.000736888	  -14.4966	-0.000603276	  -14.4859	-0.000615478	  -14.5763	-0.000651881	  -14.5763	   -16.297	
   -14.623	-0.000735243	  -14.3741	-0.000602116	  -14.3649	-0.0006144	   -14.454	-0.000650586	   -14.454	  -16.2647	
  -14.4993	-0.000733553	  -14.2513	-0.000600948	  -14.2432	-0.00061331	  -14.3313	-0.00064927	  -14.3313	  -16.2318	
   -14.375	-0.000731816	  -14.1282	-0.000599756	  -14.1206	-0.000612213	  -14.2079	-0.000647928	  -14.2079	  -16.1982	
  -14.2498	-0.000730045	  -14.0041	-0.000598537	  -13.9976	-0.000611121	  -14.0838	-0.000646568	  -14.0838	  -16.1642	
  -14.1238	-0.000728226	  -13.8798	-0.00059727	  -13.8747	-0.000610025	  -13.9594	-0.000645174	  -13.9594	  -16.1293	
  -13.9976	-0.000726374	  -13.7555	-0.000595943	   -13.751	-0.000608899	  -13.8347	-0.000643739	  -13.8347	  -16.0935	
  -13.8708	-0.000724504	  -13.6308	-0.000594595	  -13.6269	-0.000607738	  -13.7095	-0.000642279	  -13.7095	   -16.057	
  -13.7436	-0.000722629	  -13.5056	-0.000593268	  -13.5024	-0.000606548	  -13.5838	-0.000640815	  -13.5838	  -16.0204	
  -13.6154	-0.000720746	  -13.3806	-0.000591984	  -13.3774	-0.000605341	  -13.4578	-0.000639357	  -13.4578	  -15.9839	
  -13.4869	-0.000718859	  -13.2547	-0.00059073	  -13.2516	-0.000604125	  -13.3311	-0.000637904	  -13.3311	  -15.9476	
  -13.3583	-0.000716943	  -13.1281	-0.000589469	  -13.1255	-0.000602902	   -13.204	-0.000636438	   -13.204	  -15.9109	
  -13.2293	 -0.000715	  -13.0013	-0.000588148	  -12.9984	-0.000601673	  -13.0764	-0.00063494	  -13.0764	  -15.8735	
  -13.0998	-0.000713047	  -12.8742	-0.000586767	  -12.8709	-0.000600426	  -12.9483	-0.000633413	  -12.9483	  -15.8353	
  -12.9702	-0.000711099	  -12.7465	-0.000585342	   -12.743	-0.000599168	  -12.8199	-0.00063187	  -12.8199	  -15.7967	
  -12.8394	-0.000709142	  -12.6186	-0.000583899	  -12.6149	-0.000597901	   -12.691	-0.000630314	   -12.691	  -15.7578	
  -12.7086	-0.000707147	    -12.49	-0.000582531	  -12.4858	-0.000596626	  -12.5615	-0.000628768	  -12.5615	  -15.7192	
  -12.5771	-0.000705126	  -12.3609	-0.000581221	  -12.3565	-0.000595339	  -12.4315	-0.000627229	  -12.4315	  -15.6807	
  -12.4453	-0.000703076	  -12.2303	-0.000579932	  -12.2268	-0.000594043	  -12.3008	-0.000625684	  -12.3008	  -15.6421	
  -12.3132	-0.000700999	  -12.0982	-0.000578513	  -12.0968	-0.000592734	  -12.1694	-0.000624082	  -12.1694	   -15.602	
  -12.1812	-0.000698914	  -11.9659	-0.000577025	  -11.9662	-0.000591412	  -12.0378	-0.00062245	  -12.0378	  -15.5613	
  -12.0487	-0.000696827	  -11.8338	-0.000575466	  -11.8359	-0.00059008	  -11.9061	-0.000620791	  -11.9061	  -15.5198	
  -11.9156	-0.000694729	  -11.7015	-0.00057393	  -11.7045	-0.000588739	  -11.7739	-0.000619133	  -11.7739	  -15.4783	
  -11.7818	-0.000692625	  -11.5717	-0.000572481	  -11.5727	-0.000587389	  -11.6421	-0.000617498	  -11.6421	  -15.4375	
  -11.6482	-0.000690501	  -11.4409	-0.000571079	  -11.4402	-0.00058603	  -11.5097	-0.00061587	  -11.5097	  -15.3967	
  -11.5142	-0.000688339	  -11.3103	-0.000569603	  -11.3079	-0.000584658	  -11.3775	-0.0006142	  -11.3775	   -15.355	
  -11.3797	-0.00068615	  -11.1779	-0.000568079	   -11.175	-0.000583273	  -11.2442	-0.0006125	  -11.2442	  -15.3125	
  -11.2447	-0.000683954	  -11.0447	-0.000566548	  -11.0415	-0.000581876	  -11.1103	-0.000610793	  -11.1103	  -15.2698	
  -11.1087	-0.000681754	   -10.911	-0.000565025	  -10.9074	-0.000580468	  -10.9757	-0.000609082	  -10.9757	  -15.2271	
  -10.9724	-0.000679545	  -10.7773	-0.000563532	  -10.7731	-0.000579048	  -10.8409	-0.000607375	  -10.8409	  -15.1844	
  -10.8361	-0.000677317	  -10.6434	-0.000562065	  -10.6385	-0.000577614	   -10.706	-0.000605665	   -10.706	  -15.1416	
  -10.6995	-0.000675068	  -10.5096	-0.000560546	  -10.5037	-0.000576164	  -10.5709	-0.000603926	  -10.5709	  -15.0982	
  -10.5623	-0.000672795	   -10.375	-0.000558958	  -10.3688	-0.000574701	  -10.4353	-0.000602151	  -10.4353	  -15.0538	
  -10.4249	-0.000670509	  -10.2404	-0.000557344	  -10.2335	-0.00057323	  -10.2996	-0.000600361	  -10.2996	   -15.009	
  -10.2873	-0.000668213	  -10.1046	-0.000555748	  -10.0975	-0.000571756	  -10.1631	-0.000598572	  -10.1631	  -14.9643	
  -10.1495	-0.0006659	  -9.96884	-0.00055418	  -9.96077	-0.000570276	  -10.0264	-0.000596785	  -10.0264	  -14.9196	
  -10.0112	-0.000663568	  -9.83211	-0.000552632	  -9.82386	-0.000568783	  -9.88904	-0.000594994	  -9.88904	  -14.8749	
  -9.87255	-0.000661219	  -9.69526	-0.000551065	   -9.6867	-0.000567275	  -9.75151	-0.000593186	  -9.75151	  -14.8297	
  -9.73282	-0.000658854	  -9.55824	-0.000549429	  -9.54952	-0.000565747	  -9.61353	-0.000591343	  -9.61353	  -14.7836	
  -9.59307	-0.000656469	  -9.42074	-0.000547731	    -9.412	-0.000564206	  -9.47527	-0.000589469	  -9.47527	  -14.7367	
  -9.45271	-0.000654063	  -9.28246	-0.000546017	  -9.27356	-0.000562657	  -9.33624	-0.000587579	  -9.33624	  -14.6895	
  -9.31174	-0.000651634	   -9.1442	-0.000544328	  -9.13501	-0.000561098	  -9.19698	-0.000585687	  -9.19698	  -14.6422	
  -9.17042	-0.000649179	   -9.0059	-0.000542677	  -8.99657	-0.000559521	  -9.05763	-0.000583792	  -9.05763	  -14.5948	
    -9.029	-0.000646705	  -8.86723	-0.000541037	   -8.8579	-0.000557925	  -8.91804	-0.000581889	  -8.91804	  -14.5472	
  -8.88716	-0.000644216	  -8.72765	-0.000539368	  -8.71896	-0.000556312	  -8.77792	-0.000579965	  -8.77792	  -14.4991	
  -8.74569	-0.000641712	  -8.58821	-0.000537678	  -8.57999	-0.000554684	  -8.63796	-0.000578025	  -8.63796	  -14.4506	
  -8.60372	-0.000639188	  -8.44834	-0.00053593	  -8.44092	-0.000553048	  -8.49766	-0.000576055	  -8.49766	  -14.4014	
  -8.46202	-0.000636634	    -8.308	-0.000534158	  -8.30065	-0.000551398	  -8.35689	-0.000574064	  -8.35689	  -14.3516	
  -8.32001	-0.000634046	  -8.16666	-0.000532333	  -8.16028	-0.000549721	  -8.21565	-0.000572033	  -8.21565	  -14.3008	
  -8.17818	-0.000631423	  -8.02541	-0.000530487	  -8.01924	-0.000548008	  -8.07428	-0.000569973	  -8.07428	  -14.2493	
  -8.03567	-0.000628747	  -7.88338	-0.000528635	  -7.87806	-0.000546258	  -7.93237	-0.00056788	  -7.93237	   -14.197	
   -7.8933	-0.000626061	  -7.74113	-0.000526809	  -7.73669	-0.000544484	  -7.79038	-0.000565785	  -7.79038	  -14.1446	
  -7.75021	-0.000623422	  -7.59863	-0.000524998	  -7.59538	-0.000542694	  -7.64807	-0.000563705	  -7.64807	  -14.0926	
  -7.60642	-0.00062083	  -7.45559	-0.00052318	  -7.45326	-0.00054089	  -7.50509	-0.000561633	  -7.50509	  -14.0408	
  -7.46199	-0.00061825	  -7.31232	-0.000521307	  -7.31126	-0.00053906	  -7.36186	-0.000559539	  -7.36186	  -13.9885	
  -7.31794	-0.000615635	  -7.16848	-0.000519349	  -7.16922	-0.000537189	  -7.21855	-0.000557391	  -7.21855	  -13.9348	
  -7.17341	-0.000612884	  -7.02408	-0.000517335	  -7.02682	-0.00053528	  -7.07477	-0.000555166	  -7.07477	  -13.8792	
  -7.02865	-0.000609975	  -6.87938	-0.00051529	  -6.88458	-0.000533354	  -6.93087	-0.000552873	  -6.93087	  -13.8218	
  -6.88339	-0.000607005	  -6.73464	-0.000513291	  -6.74243	-0.000531431	  -6.78682	-0.000550576	  -6.78682	  -13.7644	
   -6.7379	-0.000604102	  -6.58878	-0.00051135	  -6.59979	-0.000529517	  -6.64215	-0.000548323	  -6.64215	  -13.7081	
  -6.59189	-0.000601311	  -6.44288	-0.000509422	   -6.4564	-0.000527591	  -6.49706	-0.000546108	  -6.49706	  -13.6527	
  -6.44562	-0.000598599	  -6.29694	-0.000507418	   -6.3128	-0.000525619	  -6.35179	-0.000543878	  -6.35179	   -13.597	
  -6.29884	-0.000595814	  -6.15091	-0.00050529	  -6.16896	-0.000523588	  -6.20624	-0.000541564	  -6.20624	  -13.5391	
  -6.15207	-0.0005929	  -6.00477	-0.000503019	   -6.0246	-0.000521533	  -6.06048	-0.000539151	  -6.06048	  -13.4788	
  -6.00502	-0.000589856	  -5.85849	-0.00050072	  -5.87946	-0.000519473	  -5.91433	-0.000536683	  -5.91433	  -13.4171	
  -5.85794	-0.000586829	  -5.71232	-0.00049853	  -5.73356	-0.000517415	  -5.76794	-0.000534258	  -5.76794	  -13.3564	
  -5.71081	-0.000583889	  -5.56595	-0.000496501	  -5.58746	-0.000515366	  -5.62141	-0.000531919	  -5.62141	   -13.298	
   -5.5636	-0.000581029	  -5.41935	-0.000494515	  -5.44035	-0.000513308	  -5.47443	-0.000529617	  -5.47443	  -13.2404	
  -5.41628	-0.000578116	  -5.27306	-0.000492444	   -5.2936	-0.00051121	  -5.32765	-0.000527256	  -5.32765	  -13.1814	
   -5.2691	-0.000575073	  -5.12646	-0.000490161	  -5.14636	-0.000509057	  -5.18064	-0.000524764	  -5.18064	  -13.1191	
  -5.12202	-0.000571891	  -4.97983	-0.000487735	  -4.99863	-0.000506874	   -5.0335	-0.000522167	   -5.0335	  -13.0542	
  -4.97499	-0.000568658	  -4.83288	-0.000485277	  -4.85096	-0.000504686	  -4.88628	-0.00051954	  -4.88628	  -12.9885	
  -4.82772	-0.000565483	  -4.68585	-0.000482905	  -4.70305	-0.00050251	  -4.73887	-0.000516966	  -4.73887	  -12.9242	
  -4.68098	-0.000562412	  -4.53846	-0.00048067	  -4.55515	-0.000500338	  -4.59153	-0.000514473	  -4.59153	  -12.8618	
  -4.53392	-0.000559371	  -4.39124	-0.00047848	   -4.4075	-0.000498139	  -4.44422	-0.000511997	  -4.44422	  -12.7999	
  -4.38679	-0.000556259	  -4.24362	-0.000476207	    -4.259	-0.000495882	  -4.29647	-0.000509449	  -4.29647	  -12.7362	
   -4.2393	-0.000553099	  -4.09534	-0.000473768	  -4.11074	-0.000493567	  -4.14846	-0.000506812	  -4.14846	  -12.6703	
  -4.09119	-0.00054982	  -3.94668	-0.000471253	  -3.96241	-0.000491218	  -4.00009	-0.000504097	  -4.00009	  -12.6024	
  -3.94249	-0.000546523	  -3.79792	-0.000468727	  -3.81452	-0.000488864	  -3.85164	-0.000501371	  -3.85164	  -12.5343	
  -3.79346	-0.000543309	   -3.6493	-0.000466246	  -3.66621	-0.000486518	  -3.70299	-0.000498691	  -3.70299	  -12.4673	
  -3.64335	-0.000540172	  -3.50053	-0.000463807	  -3.51803	-0.000484165	  -3.55397	-0.000496048	  -3.55397	  -12.4012	
