# User: ACHyster
# File name: C:/ACHYSTER/ACHyster SENS/SHAMS/CoFe2O4-1gl-water-80 Glycerol-Sens-08-03-2023/CoFe2O4-1gl-water-80 Glycerol- 10_100F-24 kAm -Sens-08-03-20230004#1.txt
# Saved at: mi. mar. 8 16:24:34 2023
# Hyster Loop (3 iterations). Intensity: 24.0 kA/m; Tuned frequency: 50.0 kHz
# Units x axis: (kA/m)
# Units y axis: "Repeats y" & "Average y" (10^(-3)Am^2); "Mass avg y" (Am^2/kg)
# Magnetic mass: 4e-05 g
# Parameter      	Repeat   1	Repeat   2	Repeat   3	Average   	Sigma     
# H_C (kA/m)     	      13.3	      13.4	      14.1	      13.6	       0.4
# M_R (Am^2/kg)  	       9.9	       9.3	      10.0	       9.8	       0.3
# M_max (Am^2/kg)	      14.7	      13.7	      13.9	      14.1	       0.4
# Area (mJ/kg)   	     851.9	     802.6	     872.8	     842.5	      29.5
# SAR (W/g)      	      42.6	      40.1	      43.6	      42.1	       1.5
#Repeat 1 x	Repeat 1 y	Repeat 2 x	Repeat 2 y	Repeat 3 x	Repeat 3 y	Average x 	Average y 	Mass avg x 	Mass avg y 
  -3.21435	-0.000458417	  -3.24952	-0.000429099	  -3.25081	-0.00045589	  -3.23823	-0.000447802	  -3.23823	  -11.1951	
  -3.06427	-0.000455865	  -3.09893	-0.000426739	  -3.10188	-0.000453635	  -3.08836	-0.000445413	  -3.08836	  -11.1353	
  -2.91477	-0.000453356	   -2.9483	-0.00042438	  -2.95351	-0.00045137	  -2.93886	-0.000443035	  -2.93886	  -11.0759	
  -2.76448	-0.000450884	  -2.79745	-0.000421964	  -2.80463	-0.00044907	  -2.78885	-0.000440639	  -2.78885	   -11.016	
  -2.61407	-0.000448406	  -2.64674	-0.000419471	  -2.65594	-0.000446736	  -2.63892	-0.000438204	  -2.63892	  -10.9551	
  -2.46342	-0.000445871	  -2.49566	-0.000416909	  -2.50761	-0.000444387	   -2.4889	-0.000435722	   -2.4889	  -10.8931	
  -2.31258	-0.000443249	  -2.34421	-0.000414325	  -2.36067	-0.000442008	  -2.33915	-0.000433194	  -2.33915	  -10.8298	
  -2.16183	-0.000440549	   -2.1931	-0.000411761	  -2.21382	-0.000439659	  -2.18958	-0.000430656	  -2.18958	  -10.7664	
  -2.01146	-0.000437808	  -2.04159	-0.000409238	  -2.06605	-0.000437321	   -2.0397	-0.000428122	   -2.0397	  -10.7031	
  -1.86099	-0.000435069	  -1.88993	-0.000406749	  -1.91661	-0.000434993	  -1.88918	-0.000425604	  -1.88918	  -10.6401	
  -1.71035	-0.000432362	  -1.73715	-0.000404259	  -1.76651	-0.000432634	    -1.738	-0.000423085	    -1.738	  -10.5771	
  -1.55912	-0.000429698	  -1.58416	-0.00040173	   -1.6158	-0.000430229	  -1.58636	-0.000420552	  -1.58636	  -10.5138	
  -1.40811	-0.00042702	  -1.43179	-0.000399124	  -1.46392	-0.000427749	  -1.43461	-0.000417964	  -1.43461	  -10.4491	
  -1.25684	-0.000424312	  -1.27982	-0.000396435	  -1.31119	-0.000425186	  -1.28262	-0.000415311	  -1.28262	  -10.3828	
  -1.10595	-0.000421498	  -1.12854	-0.000393686	  -1.15772	-0.00042255	  -1.13073	-0.000412578	  -1.13073	  -10.3144	
  -0.95525	-0.000418572	 -0.977142	-0.000390915	  -1.00412	-0.000419925	 -0.978838	-0.000409804	 -0.978838	  -10.2451	
 -0.804869	-0.00041556	 -0.825333	-0.000388145	 -0.850114	-0.000417313	 -0.826772	-0.000407006	 -0.826772	  -10.1751	
 -0.654978	-0.000412508	 -0.673696	-0.000385403	 -0.696968	-0.000414725	 -0.675214	-0.000404212	 -0.675214	  -10.1053	
 -0.505395	-0.000409509	 -0.522338	-0.00038266	 -0.543631	-0.00041209	 -0.523788	-0.00040142	 -0.523788	  -10.0355	
 -0.355498	-0.000406587	 -0.371074	-0.000379901	 -0.390673	-0.00040935	 -0.372415	-0.000398612	 -0.372415	  -9.96531	
  -0.20597	-0.000403725	 -0.220217	-0.000377113	 -0.236738	-0.000406497	 -0.220975	-0.000395778	 -0.220975	  -9.89446	
-0.0562961	-0.000400857	-0.0692541	-0.000374294	 -0.083485	-0.000403559	-0.0696784	-0.000392904	-0.0696784	  -9.82259	
 0.0939046	-0.000397897	 0.0822872	-0.00037146	 0.0707182	-0.000400637	 0.0823033	-0.000389998	 0.0823033	  -9.74996	
  0.244476	-0.000394817	  0.232955	-0.000368584	   0.22481	-0.000397776	   0.23408	-0.000387059	   0.23408	  -9.67647	
  0.394843	-0.000391627	  0.384156	-0.000365659	  0.378243	-0.000394989	  0.385747	-0.000384092	  0.385747	   -9.6023	
   0.54584	-0.000388387	  0.534616	-0.00036268	  0.530857	-0.000392224	  0.537104	-0.000381097	  0.537104	  -9.52742	
  0.696781	-0.00038516	  0.685221	-0.000359646	  0.683537	-0.000389387	  0.688513	-0.000378065	  0.688513	  -9.45162	
  0.847835	-0.000381988	  0.835693	-0.000356598	  0.835725	-0.000386417	  0.839751	-0.000375001	  0.839751	  -9.37502	
  0.998846	-0.000378865	  0.985897	-0.000353529	  0.988274	-0.000383304	  0.991006	-0.000371899	  0.991006	  -9.29748	
   1.14995	-0.000375728	     1.136	-0.000350446	   1.14026	-0.000380092	   1.14207	-0.000368755	   1.14207	  -9.21888	
   1.30052	-0.000372577	   1.28581	-0.000347338	   1.29188	-0.000376863	   1.29273	-0.000365593	   1.29273	  -9.13982	
   1.45075	-0.00036936	   1.43565	-0.000344175	   1.44287	-0.000373711	   1.44309	-0.000362416	   1.44309	  -9.06039	
   1.60054	-0.000366064	   1.58585	-0.000340959	   1.59419	-0.000370688	   1.59353	-0.000359237	   1.59353	  -8.98092	
   1.75041	-0.000362674	   1.73549	-0.000337683	   1.74592	-0.000367775	   1.74394	-0.000356044	   1.74394	   -8.9011	
   1.90065	-0.000359185	   1.88483	-0.000334362	   1.89767	-0.000364867	   1.89438	-0.000352804	   1.89438	  -8.82011	
   2.05098	-0.000355655	   2.03465	-0.00033102	   2.04859	-0.000361865	   2.04474	-0.000349513	   2.04474	  -8.73784	
   2.20108	-0.000352156	   2.18402	-0.00032768	   2.19935	-0.000358721	   2.19482	-0.000346186	   2.19482	  -8.65464	
   2.35076	-0.000348757	   2.33415	-0.000324339	   2.34976	-0.00035544	   2.34489	-0.000342845	   2.34489	  -8.57113	
   2.49995	-0.000345472	   2.48433	-0.000321004	   2.50068	-0.000352091	   2.49499	-0.000339523	   2.49499	  -8.48807	
   2.64886	-0.000342199	   2.63446	-0.00031761	   2.65122	-0.000348765	   2.64485	-0.000336191	   2.64485	  -8.40478	
   2.79754	-0.000338827	   2.78501	-0.000314136	   2.80184	-0.000345505	    2.7948	-0.000332823	    2.7948	  -8.32057	
   2.94548	-0.000335273	   2.93575	-0.000310556	   2.95233	-0.000342316	   2.94452	-0.000329382	   2.94452	  -8.23455	
   3.09221	-0.000331524	   3.08689	-0.000306886	   3.10284	-0.00033914	   3.09398	-0.00032585	   3.09398	  -8.14626	
   3.23871	-0.000327677	    3.2377	-0.000303219	   3.25283	-0.000335907	   3.24308	-0.000322268	   3.24308	  -8.05669	
   3.38511	-0.000323867	   3.38806	-0.000299608	   3.40282	-0.000332555	   3.39199	-0.000318676	   3.39199	  -7.96691	
   3.53156	-0.000320187	   3.53883	-0.000296095	   3.55227	-0.00032909	   3.54088	-0.000315124	   3.54088	   -7.8781	
   3.67821	-0.00031664	   3.68951	-0.000292636	   3.70094	-0.000325581	   3.68955	-0.000311619	   3.68955	  -7.79048	
   3.82537	-0.000313151	   3.83972	-0.000289138	   3.84935	-0.000322091	   3.83815	-0.000308127	   3.83815	  -7.70317	
   3.97366	-0.000309607	   3.99009	-0.000285531	   3.99778	-0.000318656	   3.98718	-0.000304598	   3.98718	  -7.61495	
    4.1221	-0.000305927	   4.14041	-0.000281775	   4.14638	-0.00031526	    4.1363	-0.000300987	    4.1363	  -7.52468	
   4.27057	-0.000302086	   4.29021	-0.000277913	   4.29511	-0.000311844	    4.2853	-0.000297281	    4.2853	  -7.43202	
   4.41839	-0.000298119	   4.43942	-0.000274023	   4.44371	-0.00030836	   4.43384	-0.0002935	   4.43384	  -7.33751	
   4.56548	-0.000294055	   4.58842	-0.000270182	   4.59187	-0.000304805	   4.58192	-0.000289681	   4.58192	  -7.24202	
   4.71273	-0.00029002	   4.73702	-0.000266403	   4.73978	-0.000301203	   4.72984	-0.000285875	   4.72984	  -7.14688	
   4.85926	-0.000286094	   4.88481	-0.000262686	   4.88744	-0.000297602	   4.87717	-0.000282128	   4.87717	  -7.05319	
   5.00573	-0.000282312	   5.03259	-0.000258986	    5.0349	-0.000294042	   5.02441	-0.000278447	   5.02441	  -6.96116	
   5.15117	-0.000278569	   5.18086	-0.000255281	   5.18262	-0.000290502	   5.17155	-0.000274784	   5.17155	   -6.8696	
    5.2965	-0.000274752	   5.32905	-0.000251533	   5.33003	-0.00028695	   5.31853	-0.000271078	   5.31853	  -6.77695	
   5.44214	-0.000270717	   5.47644	-0.000247718	   5.47681	-0.000283317	   5.46513	-0.000267251	   5.46513	  -6.68126	
   5.58797	-0.00026642	   5.62343	-0.000243847	   5.62304	-0.000279599	   5.61148	-0.000263289	   5.61148	  -6.58222	
    5.7331	-0.000261947	   5.76953	-0.000239918	   5.76956	-0.000275807	    5.7574	-0.000259224	    5.7574	   -6.4806	
   5.87776	-0.000257452	    5.9153	-0.000235974	   5.91546	-0.000271995	   5.90284	-0.000255141	   5.90284	  -6.37851	
   6.02154	-0.000253079	   6.06093	-0.000232041	   6.06129	-0.000268225	   6.04792	-0.000251115	   6.04792	  -6.27787	
   6.16584	-0.000248869	   6.20618	-0.000228121	   6.20655	-0.000264504	   6.19286	-0.000247165	   6.19286	  -6.17911	
   6.30988	-0.000244794	   6.35165	-0.000224211	   6.35141	-0.00026081	   6.33765	-0.000243272	   6.33765	  -6.08179	
   6.45417	-0.000240724	   6.49678	-0.000220285	   6.49575	-0.000257074	   6.48223	-0.000239361	   6.48223	  -5.98403	
   6.59895	-0.000236517	   6.64142	-0.000216322	   6.63977	-0.000253188	   6.62671	-0.000235342	   6.62671	  -5.88356	
   6.74322	-0.00023212	   6.78595	-0.000212316	   6.78382	-0.000249186	     6.771	-0.000231207	     6.771	  -5.78019	
   6.88752	-0.000227549	   6.92935	-0.00020828	   6.92756	-0.000245129	   6.91481	-0.000226986	   6.91481	  -5.67466	
   7.03168	-0.00022292	   7.07322	-0.000204233	   7.07082	-0.000241147	   7.05857	-0.000222767	   7.05857	  -5.56917	
   7.17553	-0.000218351	   7.21677	-0.000200193	   7.21305	-0.000237281	   7.20178	-0.000218608	   7.20178	  -5.46521	
   7.31914	-0.000213895	   7.35992	-0.000196151	   7.35481	-0.000233495	   7.34462	-0.000214514	   7.34462	  -5.36284	
   7.46212	-0.000209543	   7.50304	-0.000192098	    7.4961	-0.000229717	   7.48709	-0.000210452	   7.48709	  -5.26131	
   7.60537	-0.000205196	   7.64528	-0.000188017	   7.63745	-0.000225794	   7.62937	-0.000206336	   7.62937	  -5.15839	
   7.74803	-0.000200751	   7.78655	-0.000183901	   7.77802	-0.000221682	   7.77087	-0.000202111	   7.77087	  -5.05278	
   7.88989	-0.000196171	   7.92726	-0.000179759	   7.91822	-0.000217404	   7.91179	-0.000197778	   7.91179	  -4.94445	
   8.03127	-0.000191478	   8.06712	-0.000175601	   8.05842	-0.000213067	   8.05227	-0.000193382	   8.05227	  -4.83455	
   8.17237	-0.000186759	   8.20706	-0.000171441	   8.19846	-0.000208801	   8.19263	 -0.000189	   8.19263	    -4.725	
   8.31355	-0.000182104	   8.34675	-0.000167283	   8.33835	-0.000204687	   8.33289	-0.000184691	   8.33289	  -4.61728	
   8.45459	-0.000177554	   8.48627	-0.000163124	   8.47818	-0.000200676	   8.47301	-0.000180451	   8.47301	  -4.51128	
   8.59521	-0.000173087	   8.62575	-0.000158957	   8.61738	-0.000196686	   8.61278	-0.000176244	   8.61278	  -4.40609	
   8.73563	-0.000168622	   8.76538	-0.000154769	   8.75653	-0.000192572	   8.75251	-0.000171988	   8.75251	  -4.29969	
   8.87586	-0.000164081	   8.90404	-0.000150536	   8.89487	-0.000188256	   8.89159	-0.000167624	   8.89159	  -4.19061	
   9.01598	-0.000159435	   9.04315	-0.000146267	   9.03326	-0.000183771	    9.0308	-0.000163158	    9.0308	  -4.07894	
   9.15544	-0.000154702	   9.18162	-0.000141994	   9.17186	-0.000179218	   9.16964	-0.000158638	   9.16964	  -3.96594	
   9.29481	-0.000149953	   9.32002	-0.000137749	   9.31051	-0.000174755	   9.30845	-0.000154152	   9.30845	   -3.8538	
   9.43377	-0.00014526	   9.45896	-0.000133539	   9.44852	-0.000170468	   9.44708	-0.000149756	   9.44708	  -3.74389	
   9.57242	-0.000140649	   9.59719	-0.000129342	   9.58631	-0.000166329	    9.5853	-0.00014544	    9.5853	    -3.636	
   9.71057	-0.000136095	   9.73488	-0.00012511	    9.7234	-0.000162216	   9.72295	-0.00014114	   9.72295	   -3.5285	
   9.84879	-0.000131535	   9.87228	-0.00012082	   9.86071	-0.000157974	   9.86059	-0.000136776	   9.86059	  -3.41941	
   9.98725	-0.000126912	   10.0092	-0.000116465	   9.99721	-0.000153516	   9.99787	-0.000132297	   9.99787	  -3.30744	
   10.1246	-0.000122204	   10.1455	-0.000112064	   10.1333	-0.00014887	   10.1345	-0.000127713	   10.1345	  -3.19282	
   10.2612	-0.000117431	   10.2812	-0.000107648	   10.2697	-0.000144153	   10.2707	-0.000123078	   10.2707	  -3.07694	
   10.3971	-0.000112653	   10.4158	-0.000103241	   10.4053	-0.00013952	   10.4061	-0.000118472	   10.4061	  -2.96179	
   10.5327	-0.000107922	   10.5507	-9.88625e-05	   10.5405	-0.000135055	   10.5413	-0.000113947	   10.5413	  -2.84866	
   10.6675	-0.000103248	    10.685	-9.44974e-05	   10.6748	-0.000130733	   10.6758	-0.000109493	   10.6758	  -2.73732	
   10.8019	-9.86134e-05	    10.819	-9.01317e-05	   10.8086	-0.000126435	   10.8098	-0.00010506	   10.8098	   -2.6265	
   10.9361	-9.39602e-05	   10.9524	-8.57331e-05	   10.9417	-0.000122017	   10.9434	-0.00010057	   10.9434	  -2.51425	
   11.0699	-8.92418e-05	   11.0852	-8.12839e-05	   11.0747	-0.000117402	   11.0766	-9.5976e-05	   11.0766	   -2.3994	
   11.2034	-8.44523e-05	   11.2178	-7.67934e-05	   11.2071	-0.000112615	   11.2094	-9.12869e-05	   11.2094	  -2.28217	
   11.3361	-7.9623e-05	     11.35	-7.22693e-05	   11.3392	-0.00010777	   11.3418	-8.65541e-05	   11.3418	  -2.16385	
   11.4681	-7.48085e-05	   11.4817	-6.77359e-05	   11.4706	-0.000102999	   11.4735	-8.18478e-05	   11.4735	   -2.0462	
   11.5998	-7.00497e-05	    11.613	-6.32149e-05	   11.6014	-9.83712e-05	   11.6047	-7.7212e-05	   11.6047	   -1.9303	
   11.7311	-6.53456e-05	   11.7439	-5.87109e-05	   11.7313	-9.38681e-05	   11.7354	-7.26415e-05	   11.7354	  -1.81604	
   11.8625	-6.06606e-05	    11.875	-5.42251e-05	    11.861	-8.93879e-05	   11.8661	-6.80912e-05	   11.8661	  -1.70228	
   11.9933	-5.59405e-05	   12.0054	-4.97349e-05	   11.9902	-8.48092e-05	   11.9963	-6.34949e-05	   11.9963	  -1.58737	
   12.1231	-5.11497e-05	   12.1346	-4.52168e-05	   12.1189	-8.00681e-05	   12.1255	-5.88115e-05	   12.1255	  -1.47029	
   12.2528	-4.62946e-05	   12.2633	-4.06638e-05	    12.247	-7.51421e-05	   12.2544	-5.40335e-05	   12.2544	  -1.35084	
   12.3823	-4.14076e-05	   12.3912	-3.60701e-05	   12.3745	-7.01783e-05	   12.3827	-4.92187e-05	   12.3827	  -1.23047	
   12.5114	-3.65335e-05	   12.5192	-3.14538e-05	   12.5014	-6.53068e-05	   12.5107	-4.44314e-05	   12.5107	  -1.11078	
   12.6401	-3.17051e-05	   12.6469	-2.68407e-05	   12.6277	-6.06411e-05	   12.6382	-3.9729e-05	   12.6382	 -0.993224	
   12.7679	-2.69158e-05	   12.7735	-2.22515e-05	   12.7529	-5.61583e-05	   12.7648	-3.51085e-05	   12.7648	 -0.877713	
   12.8952	-2.21417e-05	   12.8997	-1.769e-05	   12.8773	-5.17166e-05	   12.8908	-3.05161e-05	   12.8908	 -0.762902	
   13.0226	-1.73396e-05	   13.0254	-1.31409e-05	   13.0018	-4.71647e-05	   13.0166	-2.58818e-05	   13.0166	 -0.647044	
   13.1494	-1.24831e-05	   13.1504	-8.59624e-06	   13.1255	-4.23742e-05	   13.1418	-2.11512e-05	   13.1418	 -0.528779	
   13.2755	-7.57835e-06	   13.2753	-4.02411e-06	   13.2489	-3.73831e-05	   13.2666	-1.63285e-05	   13.2666	 -0.408213	
   13.4011	-2.65075e-06	   13.3994	5.6307e-07	   13.3718	-3.23077e-05	   13.3908	-1.14651e-05	   13.3908	 -0.286628	
   13.5257	2.26095e-06	   13.5224	5.15992e-06	   13.4939	-2.73176e-05	    13.514	-6.63225e-06	    13.514	 -0.165806	
   13.6499	7.13419e-06	   13.6449	9.75036e-06	   13.6152	-2.25266e-05	   13.6367	-1.88067e-06	   13.6367	-0.0470166	
   13.7729	1.19725e-05	   13.7669	1.4319e-05	   13.7361	-1.79101e-05	   13.7586	2.79381e-06	   13.7586	 0.0698453	
   13.8952	1.67991e-05	   13.8886	1.88788e-05	   13.8567	-1.33584e-05	   13.8801	7.43983e-06	   13.8801	  0.185996	
   14.0167	2.16486e-05	   14.0096	2.34383e-05	   13.9769	-8.71292e-06	   14.0011	1.21246e-05	   14.0011	  0.303116	
   14.1381	2.65422e-05	    14.129	2.80122e-05	   14.0961	-3.87655e-06	   14.1211	1.68926e-05	   14.1211	  0.422315	
    14.259	3.1472e-05	   14.2483	3.26051e-05	    14.215	1.1287e-06	   14.2407	2.17353e-05	   14.2407	  0.543382	
   14.3796	3.64184e-05	   14.3673	3.72068e-05	   14.3334	6.19806e-06	   14.3601	2.66077e-05	   14.3601	  0.665194	
      14.5	4.13474e-05	   14.4858	4.1812e-05	   14.4519	1.11899e-05	   14.4792	3.14498e-05	   14.4792	  0.786244	
   14.6189	4.62397e-05	   14.6036	4.6407e-05	   14.5696	1.60193e-05	   14.5974	3.6222e-05	   14.5974	   0.90555	
   14.7375	5.11015e-05	    14.721	5.09862e-05	   14.6862	2.0705e-05	   14.7149	4.09309e-05	   14.7149	   1.02327	
   14.8558	5.59528e-05	   14.8385	5.5557e-05	   14.8021	2.53374e-05	   14.8321	4.56157e-05	   14.8321	   1.14039	
   14.9732	6.08265e-05	   14.9553	6.01293e-05	   14.9178	3.00409e-05	   14.9488	5.03322e-05	   14.9488	   1.25831	
   15.0899	 6.574e-05	   15.0717	6.47123e-05	   15.0328	3.48911e-05	   15.0648	5.51145e-05	   15.0648	   1.37786	
   15.2062	7.0682e-05	    15.188	6.93021e-05	   15.1482	3.98717e-05	   15.1808	5.99519e-05	   15.1808	    1.4988	
    15.322	7.56306e-05	   15.3035	7.3894e-05	   15.2631	4.48954e-05	   15.2962	6.48067e-05	   15.2962	   1.62017	
   15.4365	8.05589e-05	   15.4188	7.84841e-05	   15.3778	4.98485e-05	    15.411	6.96305e-05	    15.411	   1.74076	
   15.5501	8.54512e-05	   15.5339	8.30654e-05	   15.4916	5.46574e-05	   15.5252	7.43913e-05	   15.5252	   1.85978	
   15.6631	9.03155e-05	    15.649	8.76356e-05	   15.6052	5.93356e-05	   15.6391	7.90956e-05	   15.6391	   1.97739	
   15.7755	9.51723e-05	   15.7631	9.21952e-05	   15.7176	6.3965e-05	   15.7521	8.37775e-05	   15.7521	   2.09444	
   15.8878	0.000100049	    15.877	9.6697e-05	   15.8298	6.86519e-05	   15.8648	8.8466e-05	   15.8648	   2.21165	
   15.9994	0.000104956	   15.9906	0.000101152	   15.9409	7.34586e-05	   15.9769	9.31888e-05	   15.9769	   2.32972	
   16.1106	0.000109884	   16.1032	0.000105614	   16.0513	7.83733e-05	   16.0883	9.79571e-05	   16.0883	   2.44893	
   16.2211	0.000114814	   16.2146	0.000110156	   16.1618	8.33189e-05	   16.1992	0.000102763	   16.1992	   2.56908	
   16.3303	0.000119715	   16.3254	0.000114845	   16.2717	8.81968e-05	   16.3091	0.000107586	   16.3091	   2.68964	
   16.4384	0.00012458	   16.4355	0.00011962	   16.3812	9.29475e-05	   16.4184	0.000112383	   16.4184	   2.80957	
   16.5457	0.000129417	   16.5454	0.000124418	   16.4903	9.75883e-05	   16.5272	0.000117141	   16.5272	   2.92853	
   16.6521	0.00013425	   16.6546	0.000129108	   16.5994	0.000102194	   16.6354	0.000121851	   16.6354	   3.04627	
   16.7581	0.000139101	   16.7624	0.000133621	   16.7085	0.000106867	    16.743	0.00012653	    16.743	   3.16324	
   16.8633	0.000143982	   16.8695	0.000137976	   16.8161	0.000111663	   16.8496	0.000131207	   16.8496	   3.28018	
   16.9681	0.000148882	   16.9759	0.000142287	   16.9222	0.000116548	   16.9554	0.000135906	   16.9554	   3.39764	
   17.0722	0.000153775	   17.0814	0.000146699	   17.0276	0.000121428	   17.0604	0.000140634	   17.0604	   3.51585	
   17.1757	0.00015863	   17.1867	0.000151279	   17.1325	0.000126201	    17.165	0.00014537	    17.165	   3.63425	
   17.2782	0.000163423	   17.2907	0.000156009	   17.2373	0.00013083	   17.2687	0.000150087	   17.2687	   3.75219	
   17.3804	0.000168167	   17.3943	0.000160767	   17.3409	0.00013536	   17.3719	0.000154765	   17.3719	   3.86912	
   17.4818	0.000172889	    17.497	0.000165429	    17.444	0.00013987	   17.4743	0.000159396	   17.4743	   3.98491	
    17.583	0.000177644	   17.5992	0.000169933	   17.5466	0.000144474	   17.5763	0.000164017	   17.5763	   4.10042	
   17.6834	0.000182452	   17.7012	0.000174298	   17.6482	0.000149202	   17.6776	0.00016865	   17.6776	   4.21626	
   17.7835	0.000187312	   17.8022	0.000178632	   17.7492	0.000154031	   17.7783	0.000173325	   17.7783	   4.33312	
   17.8825	0.000192146	   17.9021	0.000183019	   17.8498	0.000158868	   17.8781	0.000178011	   17.8781	   4.45028	
    17.981	0.000196892	    18.001	0.000187523	   17.9492	0.000163615	   17.9771	0.000182677	   17.9771	   4.56691	
   18.0793	0.000201523	   18.0997	0.000192116	   18.0486	0.00016823	   18.0759	0.00018729	   18.0759	   4.68224	
   18.1771	0.000206069	   18.1983	0.000196713	   18.1476	0.000172717	   18.1743	0.000191833	   18.1743	   4.79582	
   18.2741	0.000210608	   18.2952	0.000201225	   18.2462	0.000177167	   18.2718	0.000196333	   18.2718	   4.90834	
   18.3699	0.000215215	    18.391	0.000205599	   18.3441	0.000181674	   18.3683	0.00020083	   18.3683	   5.02074	
   18.4648	0.000219927	   18.4859	0.000209859	   18.4416	0.000186289	   18.4641	0.000205358	   18.4641	   5.13395	
   18.5589	0.000224702	   18.5802	0.000214083	    18.538	0.000190988	    18.559	0.000209925	    18.559	   5.24811	
   18.6528	0.000229479	   18.6739	0.00021836	   18.6338	0.000195693	   18.6535	0.000214511	   18.6535	   5.36276	
   18.7459	0.000234184	    18.767	0.000222745	   18.7291	0.000200316	   18.7473	0.000219082	   18.7473	   5.47704	
   18.8377	0.000238777	   18.8602	0.000227208	   18.8228	0.000204809	   18.8402	0.000223598	   18.8402	   5.58995	
   18.9294	0.000243273	   18.9524	0.000231652	   18.9155	0.000209188	   18.9324	0.000228038	   18.9324	   5.70094	
     19.02	0.000247707	   19.0436	0.000235984	   19.0073	0.000213527	   19.0236	0.000232406	   19.0236	   5.81015	
   19.1098	0.000252136	   19.1334	0.000240156	   19.0989	0.000217914	    19.114	0.000236735	    19.114	   5.91839	
   19.1991	0.000256614	   19.2227	0.000244216	   19.1892	0.000222395	   19.2036	0.000241075	   19.2036	   6.02688	
   19.2879	0.000261133	   19.3114	0.000248269	   19.2786	0.000226951	   19.2926	0.000245451	   19.2926	   6.13628	
   19.3764	0.000265744	   19.3995	0.000252393	    19.367	0.000231506	   19.3809	0.000249881	   19.3809	   6.24702	
   19.4633	0.000270333	   19.4868	0.000256632	   19.4546	0.000235978	   19.4682	0.000254314	   19.4682	   6.35786	
    19.549	0.00027487	   19.5735	0.000260922	   19.5417	0.000240319	   19.5547	0.000258703	   19.5547	   6.46758	
   19.6342	0.000279303	   19.6591	0.000265186	   19.6282	0.000244525	   19.6405	0.000263005	   19.6405	   6.57512	
   19.7184	0.000283657	   19.7447	0.000269337	   19.7141	0.000248709	   19.7258	0.000267234	   19.7258	   6.68086	
   19.8022	0.00028804	   19.8297	0.000273345	   19.7992	0.000252955	   19.8104	0.000271447	   19.8104	   6.78616	
   19.8856	0.000292477	   19.9141	0.000277227	   19.8836	0.000257353	   19.8944	0.000275686	   19.8944	   6.89214	
   19.9682	0.000297026	   19.9974	0.000281091	    19.967	0.00026188	   19.9776	0.000279999	   19.9776	   6.99998	
   20.0504	0.000301631	   20.0793	0.000284979	   20.0496	0.000266434	   20.0597	0.000284348	   20.0597	    7.1087	
    20.132	0.000306204	   20.1603	0.000288968	    20.131	0.000270903	   20.1411	0.000288692	   20.1411	   7.21729	
   20.2127	0.000310701	   20.2408	0.000293038	   20.2117	0.000275185	   20.2217	0.000292974	   20.2217	   7.32436	
   20.2926	0.000315074	    20.321	0.000297142	   20.2914	0.000279299	   20.3017	0.000297172	   20.3017	   7.42929	
   20.3713	0.000319374	   20.4003	0.000301196	   20.3708	0.000283311	   20.3808	0.000301294	   20.3808	   7.53234	
   20.4493	0.000323673	   20.4787	0.000305058	   20.4495	0.000287354	   20.4592	0.000305362	   20.4592	   7.63404	
   20.5273	0.000328009	   20.5562	0.000308721	    20.527	0.000291528	   20.5368	0.000309419	   20.5368	   7.73547	
   20.6044	0.000332408	   20.6327	0.000312221	    20.604	0.000295824	   20.6137	0.000313484	   20.6137	    7.8371	
   20.6808	0.000336808	   20.7072	0.000315693	   20.6798	0.000300164	   20.6893	0.000317555	   20.6893	   7.93888	
   20.7563	0.000341159	   20.7805	0.000319288	   20.7539	0.000304423	   20.7635	0.000321623	   20.7635	   8.04058	
   20.8308	0.000345424	   20.8526	0.000323056	   20.8272	0.000308537	   20.8368	0.000325672	   20.8368	    8.1418	
   20.9048	0.000349574	   20.9239	0.000326954	   20.8994	0.000312515	   20.9094	0.000329681	   20.9094	   8.24202	
   20.9779	0.000353677	    20.995	0.000330836	   20.9717	0.000316439	   20.9816	0.000333651	   20.9816	   8.34126	
   21.0498	0.000357767	   21.0649	0.000334574	   21.0432	0.000320404	   21.0526	0.000337581	   21.0526	   8.43953	
   21.1206	0.000361902	   21.1349	0.000338127	    21.114	0.000324454	   21.1232	0.000341494	   21.1232	   8.53736	
   21.1903	0.000366096	   21.2048	0.000341528	    21.184	0.00032858	    21.193	0.000345401	    21.193	   8.63503	
   21.2588	0.000370348	   21.2735	0.00034489	   21.2529	0.000332715	   21.2617	0.000349318	   21.2617	   8.73294	
   21.3267	0.000374597	   21.3412	0.000348319	   21.3214	0.000336781	   21.3297	0.000353232	   21.3297	    8.8308	
   21.3943	0.000378773	   21.4082	0.000351871	   21.3888	0.000340731	   21.3971	0.000357125	   21.3971	   8.92813	
   21.4608	0.000382859	   21.4744	0.000355514	   21.4549	0.000344578	   21.4634	0.000360983	   21.4634	   9.02458	
   21.5264	0.000386864	   21.5395	0.000359142	   21.5204	0.000348383	   21.5288	0.000364797	   21.5288	   9.11991	
   21.5911	0.000390838	   21.6032	0.000362648	   21.5851	0.000352207	   21.5931	0.000368564	   21.5931	    9.2141	
   21.6552	0.000394819	   21.6669	0.000365977	   21.6485	0.000356106	   21.6569	 0.0003723	   21.6569	   9.30751	
   21.7189	0.00039883	     21.73	0.000369176	   21.7112	0.000360007	     21.72	0.000376004	     21.72	   9.40011	
   21.7822	0.000402849	   21.7919	0.000372343	    21.774	0.000363864	   21.7827	0.000379685	   21.7827	   9.49213	
   21.8448	0.000406846	   21.8532	0.000375596	   21.8359	0.000367615	   21.8446	0.000383353	   21.8446	   9.58381	
    21.906	0.000410693	    21.913	0.000378967	   21.8968	0.000371252	   21.9053	0.000386971	   21.9053	   9.67427	
   21.9666	0.00041448	   21.9719	0.000382411	   21.9565	0.000374847	    21.965	0.000390579	    21.965	   9.76448	
   22.0267	0.000418225	   22.0308	0.000385831	   22.0147	0.000378457	   22.0241	0.000394171	   22.0241	   9.85427	
   22.0859	0.000422037	   22.0878	0.000389127	   22.0722	0.000382159	    22.082	0.000397774	    22.082	   9.94436	
   22.1448	0.000425953	   22.1441	0.000392263	   22.1286	0.000385915	   22.1392	0.000401377	   22.1392	   10.0344	
    22.203	0.000429892	   22.2001	0.000395279	   22.1838	0.000389654	   22.1956	0.000404942	   22.1956	   10.1235	
   22.2604	0.000433793	   22.2552	0.000398275	   22.2379	0.000393292	   22.2512	0.000408453	   22.2512	   10.2113	
   22.3162	0.000437484	   22.3096	0.000401346	   22.2909	0.000396775	   22.3056	0.000411868	   22.3056	   10.2967	
   22.3713	0.000440963	   22.3631	0.000404519	   22.3433	0.000400103	   22.3592	0.000415195	   22.3592	   10.3799	
   22.4257	0.000444299	   22.4158	0.000407754	   22.3945	0.000403359	    22.412	0.00041847	    22.412	   10.4618	
   22.4792	0.000447596	    22.467	0.000410957	   22.4449	0.000406639	   22.4637	0.000421731	   22.4637	   10.5433	
   22.5316	  0.000451	   22.5169	0.000414046	   22.4942	0.000410015	   22.5142	0.00042502	   22.5142	   10.6255	
   22.5837	0.000454542	   22.5663	0.000416998	   22.5428	0.000413504	   22.5643	0.000428348	   22.5643	   10.7087	
   22.6346	0.000458175	   22.6144	0.000419851	   22.5907	0.000417005	   22.6132	0.000431677	   22.6132	   10.7919	
   22.6841	0.000461776	   22.6616	0.000422686	   22.6375	0.000420426	    22.661	0.000434963	    22.661	   10.8741	
   22.7321	0.000465211	   22.7083	0.000425547	   22.6833	0.000423684	   22.7079	0.000438147	   22.7079	   10.9537	
   22.7795	0.000468444	   22.7541	0.000428491	   22.7285	0.000426787	   22.7541	0.00044124	   22.7541	    11.031	
   22.8259	0.000471528	   22.7989	0.000431498	   22.7733	0.000429832	   22.7994	0.000444286	   22.7994	   11.1072	
   22.8713	0.000474575	   22.8423	0.000434545	   22.8171	0.000432893	   22.8436	0.000447338	   22.8436	   11.1835	
   22.9163	0.000477695	   22.8839	0.000437561	   22.8603	0.000436042	   22.8868	0.000450433	   22.8868	   11.2608	
   22.9593	0.000480921	   22.9245	0.000440477	   22.9029	0.00043926	   22.9289	0.000453553	   22.9289	   11.3388	
   23.0011	0.000484205	   22.9641	0.00044328	   22.9443	0.000442478	   22.9698	0.000456654	   22.9698	   11.4164	
   23.0427	0.000487444	   23.0021	0.000445976	   22.9848	0.000445618	   23.0099	0.00045968	   23.0099	    11.492	
   23.0836	0.000490543	   23.0396	0.000448645	    23.025	0.000448622	   23.0494	0.000462604	   23.0494	   11.5651	
   23.1231	0.000493475	   23.0763	0.00045134	   23.0648	0.000451502	   23.0881	0.000465439	   23.0881	    11.636	
   23.1619	0.000496289	   23.1124	0.000454093	   23.1038	0.000454319	   23.1261	0.000468234	   23.1261	   11.7058	
   23.1995	0.000499072	   23.1477	0.000456891	   23.1416	0.000457144	   23.1629	0.000471036	   23.1629	   11.7759	
   23.2362	0.000501923	   23.1825	0.000459676	   23.1784	0.000460025	    23.199	0.000473875	    23.199	   11.8469	
   23.2722	0.000504863	   23.2166	0.000462397	   23.2141	0.000462955	   23.2343	0.000476738	   23.2343	   11.9185	
    23.307	0.000507847	   23.2498	0.000465024	   23.2485	0.000465884	   23.2684	0.000479585	   23.2684	   11.9896	
   23.3403	0.000510793	    23.282	0.000467571	    23.282	0.000468749	   23.3014	0.000482371	   23.3014	   12.0593	
   23.3726	0.000513614	   23.3131	0.00047009	    23.315	0.000471505	   23.3336	0.00048507	   23.3336	   12.1267	
   23.4041	0.000516286	   23.3434	0.000472627	   23.3466	0.000474154	   23.3647	0.000487689	   23.3647	   12.1922	
   23.4351	0.000518846	   23.3729	0.000475197	   23.3772	0.000476737	   23.3951	0.00049026	   23.3951	   12.2565	
   23.4649	0.000521372	    23.402	0.000477783	   23.4074	0.000479314	   23.4248	0.000492823	   23.4248	   12.3206	
   23.4939	0.000523941	   23.4302	0.000480342	   23.4366	0.000481926	   23.4535	0.000495403	   23.4535	   12.3851	
   23.5218	0.000526579	   23.4582	0.000482842	   23.4647	0.000484561	   23.4816	0.000497994	   23.4816	   12.4499	
   23.5483	0.000529249	   23.4855	0.000485269	    23.492	0.000487171	   23.5086	0.000500563	   23.5086	   12.5141	
   23.5746	0.00053188	   23.5115	0.000487636	   23.5186	0.00048972	   23.5349	0.000503079	   23.5349	    12.577	
      23.6	0.000534403	   23.5364	0.000489982	   23.5449	0.000492198	   23.5604	0.000505528	   23.5604	   12.6382	
   23.6242	0.000536801	   23.5602	0.000492335	   23.5705	0.000494631	    23.585	0.000507922	    23.585	   12.6981	
   23.6479	0.000539109	    23.583	0.000494706	    23.595	0.000497045	   23.6086	0.000510287	   23.6086	   12.7572	
   23.6702	0.000541399	   23.6052	0.000497088	   23.6183	0.000499463	   23.6312	0.00051265	   23.6312	   12.8163	
   23.6918	0.000543737	   23.6267	0.000499444	   23.6409	0.000501899	   23.6532	0.000515027	   23.6532	   12.8757	
   23.7128	0.000546134	   23.6474	0.000501747	   23.6628	0.000504304	   23.6743	0.000517395	   23.6743	   12.9349	
   23.7323	0.000548548	   23.6671	0.000503979	   23.6835	0.000506659	   23.6943	0.000519729	   23.6943	   12.9932	
   23.7512	0.000550908	   23.6855	0.000506152	   23.7035	0.000508925	   23.7134	0.000521995	   23.7134	   13.0499	
   23.7691	0.000553151	   23.7031	0.000508296	   23.7227	0.000511119	   23.7316	0.000524189	   23.7316	   13.1047	
   23.7855	0.000555259	   23.7197	0.000510436	   23.7412	0.000513272	   23.7488	0.000526322	   23.7488	   13.1581	
   23.8011	0.000557292	   23.7359	0.000512593	   23.7585	0.000515421	   23.7651	0.000528435	   23.7651	   13.2109	
   23.8161	0.000559295	    23.751	0.000514756	   23.7748	0.000517612	   23.7806	0.000530554	   23.7806	   13.2639	
   23.8303	0.000561375	   23.7656	0.000516893	   23.7896	0.000519836	   23.7952	0.000532701	   23.7952	   13.3175	
   23.8435	0.000563541	   23.7795	0.000518976	   23.8038	0.000522056	   23.8089	0.000534858	   23.8089	   13.3714	
   23.8562	0.000565769	   23.7925	0.000520999	    23.817	0.000524217	   23.8219	0.000536995	   23.8219	   13.4249	
   23.8685	0.00056799	   23.8049	0.000522973	   23.8297	0.000526283	   23.8343	0.000539082	   23.8343	   13.4771	
   23.8802	0.000570088	   23.8164	0.000524923	   23.8414	0.000528268	    23.846	0.000541093	    23.846	   13.5273	
   23.8906	0.000572025	   23.8273	0.000526871	    23.852	0.00053021	   23.8566	0.000543035	   23.8566	   13.5759	
   23.8995	0.00057382	   23.8373	0.000528833	   23.8616	0.000532168	   23.8661	0.00054494	   23.8661	   13.6235	
   23.9073	0.000575559	   23.8466	0.000530794	   23.8704	0.000534179	   23.8747	0.000546844	   23.8747	   13.6711	
   23.9142	0.000577352	   23.8553	0.000532729	   23.8784	0.000536232	   23.8826	0.000548771	   23.8826	   13.7193	
     23.92	0.000579248	   23.8631	0.000534621	   23.8855	0.00053828	   23.8896	0.000550716	   23.8896	   13.7679	
   23.9252	0.000581241	   23.8703	0.000536475	   23.8918	0.000540264	   23.8957	0.00055266	   23.8957	   13.8165	
   23.9295	0.000583254	    23.876	0.000538328	    23.897	0.00054215	   23.9008	0.000554577	   23.9008	   13.8644	
   23.9331	0.000585186	   23.8804	0.000540184	   23.9014	0.000543952	    23.905	0.000556441	    23.905	    13.911	
   23.9359	0.000587011	   23.8834	0.000542018	   23.9056	0.000545715	   23.9083	0.000558248	   23.9083	   13.9562	
   23.9376	 0.0005887	   23.8854	0.000543779	   23.9084	0.000547498	   23.9105	0.000559992	   23.9105	   13.9998	
   23.9381	0.000590298	   23.8861	0.000545455	   23.9102	0.000549329	   23.9115	0.000561694	   23.9115	   14.0423	
   23.9375	0.000591848	   23.8861	0.000547066	    23.911	0.000551195	   23.9115	0.00056337	   23.9115	   14.0842	
   23.9355	0.000593414	   23.8855	0.000548653	   23.9106	0.000553054	   23.9105	0.00056504	   23.9105	    14.126	
   23.9332	0.000595041	   23.8845	0.00055026	   23.9092	0.000554857	    23.909	0.000566719	    23.909	    14.168	
   23.9296	0.000596721	   23.8821	0.000551916	   23.9068	0.000556578	   23.9062	0.000568405	   23.9062	   14.2101	
    23.925	0.000598402	   23.8791	0.000553625	   23.9034	0.000558225	   23.9025	0.000570084	   23.9025	   14.2521	
   23.9194	0.000600049	   23.8752	0.00055536	   23.8988	0.000559834	   23.8978	0.000571748	   23.8978	   14.2937	
   23.9126	0.00060161	   23.8704	 0.0005571	    23.893	0.000561448	    23.892	0.000573386	    23.892	   14.3347	
   23.9048	0.000603115	   23.8649	0.000558755	   23.8863	0.000563091	   23.8853	0.000574987	   23.8853	   14.3747	
    23.896	0.000604607	   23.8584	0.000560255	   23.8791	0.000564765	   23.8778	0.000576542	   23.8778	   14.4136	
   23.8867	0.000606128	   23.8505	0.000561601	   23.8706	0.000566434	   23.8693	0.000578055	   23.8693	   14.4514	
   23.8766	0.000607693	   23.8425	0.000562892	   23.8614	0.000568059	   23.8602	0.000579548	   23.8602	   14.4887	
   23.8659	0.000609247	   23.8328	0.000564217	   23.8513	0.000569612	     23.85	0.000581025	     23.85	   14.5256	
   23.8536	0.000610727	   23.8222	0.000565624	   23.8397	0.00057109	   23.8385	0.00058248	   23.8385	    14.562	
   23.8404	0.000612099	   23.8112	0.000567129	   23.8274	0.000572522	   23.8263	0.000583917	   23.8263	   14.5979	
   23.8261	0.000613356	   23.7996	0.000568646	   23.8141	0.000573945	   23.8132	0.000585316	   23.8132	   14.6329	
   23.8109	0.000614569	    23.787	0.000570082	   23.8003	0.000575385	   23.7994	0.000586679	   23.7994	    14.667	
   23.7951	0.000615806	   23.7737	0.000571381	   23.7849	0.000576841	   23.7845	0.000588009	   23.7845	   14.7002	
   23.7785	0.000617113	   23.7595	0.000572553	   23.7684	0.000578284	   23.7688	0.000589317	   23.7688	   14.7329	
   23.7612	 0.0006185	   23.7445	0.000573694	   23.7512	0.00057968	   23.7523	0.000590624	   23.7523	   14.7656	
   23.7434	 0.0006199	   23.7281	0.000574891	    23.733	0.000581007	   23.7348	0.000591933	   23.7348	   14.7983	
   23.7246	0.00062124	   23.7111	0.000576177	   23.7135	0.000582262	   23.7164	0.000593226	   23.7164	   14.8307	
   23.7051	0.000622466	    23.693	0.000577519	   23.6936	0.000583468	   23.6972	0.000594485	   23.6972	   14.8621	
   23.6843	0.000623554	   23.6741	0.000578821	   23.6728	0.000584622	   23.6771	0.000595666	   23.6771	   14.8916	
   23.6632	0.000624571	   23.6543	   0.00058	   23.6511	0.00058576	   23.6562	0.000596777	   23.6562	   14.9194	
    23.641	0.000625583	   23.6331	0.000581038	   23.6286	0.00058691	   23.6343	0.000597844	   23.6343	   14.9461	
   23.6179	0.000626645	   23.6114	0.000581979	    23.605	0.00058812	   23.6114	0.000598915	   23.6114	   14.9729	
   23.5936	0.000627767	    23.589	0.000582914	     23.58	0.000589295	   23.5875	0.000599992	   23.5875	   14.9998	
   23.5684	0.000628893	   23.5646	0.000583905	   23.5545	0.00059048	   23.5625	0.000601093	   23.5625	   15.0273	
   23.5423	0.000629972	   23.5399	0.000584972	   23.5285	0.000591611	   23.5369	0.000602185	   23.5369	   15.0546	
   23.5162	0.000630952	   23.5136	0.000586068	   23.5011	0.000592707	   23.5103	0.000603242	   23.5103	   15.0811	
   23.4894	0.000631826	   23.4862	0.000587114	   23.4731	0.000593823	   23.4829	0.000604254	   23.4829	   15.1064	
   23.4616	0.00063263	   23.4586	0.000588061	   23.4435	0.000594975	   23.4546	0.000605222	   23.4546	   15.1305	
   23.4335	0.000633414	     23.43	0.000588897	   23.4131	0.000596195	   23.4255	0.000606169	   23.4255	   15.1542	
   23.4043	0.00063423	   23.4005	0.00058966	   23.3826	0.000597414	   23.3958	0.000607101	   23.3958	   15.1775	
   23.3744	0.000635094	     23.37	0.000590402	   23.3505	0.000598547	    23.365	0.000608014	    23.365	   15.2004	
   23.3442	0.000635991	    23.339	0.000591159	   23.3179	0.000599533	   23.3337	0.000608894	   23.3337	   15.2224	
   23.3129	0.000636869	   23.3074	0.000591937	   23.2845	0.000600375	   23.3016	0.000609727	   23.3016	   15.2432	
   23.2809	0.00063767	   23.2751	0.000592717	   23.2496	0.00060117	   23.2685	0.000610519	   23.2685	    15.263	
   23.2477	0.000638358	   23.2423	0.000593416	   23.2142	0.000602031	   23.2347	0.000611268	   23.2347	   15.2817	
   23.2136	0.000638951	   23.2086	0.000594089	   23.1781	0.000602992	   23.2001	0.000612011	   23.2001	   15.3003	
   23.1785	0.000639489	   23.1739	0.000594694	    23.142	0.000604059	   23.1648	0.000612747	   23.1648	   15.3187	
   23.1422	0.000640045	   23.1389	0.000595341	   23.1047	0.000605114	   23.1286	 0.0006135	   23.1286	   15.3375	
   23.1051	0.000640637	   23.1029	0.000596072	   23.0665	0.000606073	   23.0915	0.000614261	   23.0915	   15.3565	
   23.0672	0.000641259	   23.0662	0.000596922	   23.0276	0.000606871	   23.0537	0.000615017	   23.0537	   15.3754	
   23.0295	0.000641869	   23.0286	0.000597866	   22.9876	0.000607527	   23.0152	0.000615754	   23.0152	   15.3939	
   22.9905	0.000642418	   22.9893	0.000598738	   22.9472	0.00060814	   22.9756	0.000616432	   22.9756	   15.4108	
   22.9511	0.000642901	   22.9496	0.000599458	   22.9059	0.00060878	   22.9355	0.000617046	   22.9355	   15.4262	
   22.9104	0.00064332	   22.9094	0.000599959	   22.8637	 0.0006095	   22.8945	0.000617593	   22.8945	   15.4398	
   22.8694	0.000643705	   22.8687	0.000600304	   22.8216	0.00061029	   22.8532	 0.0006181	   22.8532	   15.4525	
   22.8274	0.000644087	    22.826	0.000600666	   22.7781	0.000611078	   22.8105	0.00061861	   22.8105	   15.4653	
   22.7842	0.000644468	   22.7821	0.000601157	   22.7336	0.000611805	   22.7666	0.000619143	   22.7666	   15.4786	
   22.7403	0.000644856	   22.7366	0.000601839	   22.6877	0.000612418	   22.7215	0.000619704	   22.7215	   15.4926	
   22.6955	0.00064522	     22.69	0.000602636	    22.641	0.000612924	   22.6755	0.00062026	   22.6755	   15.5065	
   22.6491	0.000645548	   22.6424	0.000603376	   22.5933	0.000613384	   22.6283	0.00062077	   22.6283	   15.5192	
   22.6025	0.00064584	   22.5939	0.00060394	   22.5446	0.000613856	   22.5804	0.000621212	   22.5804	   15.5303	
   22.5554	0.000646102	   22.5445	0.000604265	   22.4949	0.000614385	   22.5316	0.000621584	   22.5316	   15.5396	
   22.5074	0.000646359	   22.4937	0.000604429	   22.4445	0.000614965	   22.4819	0.000621918	   22.4819	   15.5479	
   22.4582	0.000646621	   22.4422	0.00060459	   22.3928	0.000615549	   22.4311	0.000622253	   22.4311	   15.5563	
   22.4084	0.000646886	   22.3899	0.000604864	   22.3397	0.000616095	   22.3793	0.000622615	   22.3793	   15.5654	
   22.3577	0.000647144	   22.3361	 0.0006053	    22.285	0.000616567	   22.3263	0.000623004	   22.3263	   15.5751	
   22.3047	0.000647371	   22.2813	0.000605827	   22.2291	0.000616975	   22.2717	0.000623391	   22.2717	   15.5848	
   22.2509	0.000647567	   22.2256	0.000606296	   22.1736	0.000617343	   22.2167	0.000623736	   22.2167	   15.5934	
   22.1955	0.000647763	   22.1695	0.000606602	   22.1172	0.000617713	   22.1607	0.000624026	   22.1607	   15.6007	
   22.1398	0.000647953	   22.1125	0.000606697	   22.0607	0.00061812	   22.1044	0.000624256	   22.1044	   15.6064	
   22.0834	0.00064812	   22.0547	0.000606649	   22.0032	0.000618565	   22.0471	0.000624445	   22.0471	   15.6111	
   22.0264	0.000648225	   21.9958	0.000606599	   21.9449	0.000618996	    21.989	0.000624607	    21.989	   15.6152	
   21.9681	0.000648267	   21.9361	0.000606653	   21.8854	0.000619393	   21.9299	0.000624771	   21.9299	   15.6193	
   21.9088	0.00064827	   21.8754	0.000606843	   21.8255	0.000619683	   21.8699	0.000624932	   21.8699	   15.6233	
   21.8486	0.000648245	   21.8133	0.000607107	   21.7641	0.000619861	   21.8086	0.000625071	   21.8086	   15.6268	
   21.7885	0.000648219	   21.7504	0.000607311	   21.7017	0.000619942	   21.7469	0.000625157	   21.7469	   15.6289	
   21.7274	0.000648192	   21.6866	0.000607358	   21.6386	0.000620031	   21.6842	0.000625194	   21.6842	   15.6298	
   21.6651	0.000648204	    21.622	0.000607211	   21.5752	0.000620221	   21.6208	0.000625212	   21.6208	   15.6303	
   21.6016	0.000648284	   21.5562	0.000606945	   21.5112	0.000620555	   21.5563	0.000625261	   21.5563	   15.6315	
   21.5368	0.000648443	   21.4888	0.00060668	   21.4465	0.000620994	   21.4907	0.000625373	   21.4907	   15.6343	
    21.471	0.000648597	   21.4215	0.000606518	   21.3807	0.000621395	   21.4244	0.000625503	   21.4244	   15.6376	
   21.4045	0.00064869	   21.3529	0.000606485	   21.3138	0.000621707	   21.3571	0.000625627	   21.3571	   15.6407	
   21.3372	0.000648668	   21.2838	0.000606522	   21.2465	0.000621828	   21.2892	0.000625673	   21.2892	   15.6418	
    21.269	0.000648545	   21.2144	0.000606517	   21.1785	0.000621806	   21.2206	0.000625623	   21.2206	   15.6406	
   21.1998	0.000648376	   21.1438	0.000606383	   21.1097	0.000621729	   21.1511	0.000625496	   21.1511	   15.6374	
   21.1296	0.000648216	   21.0723	0.000606103	   21.0401	0.000621705	   21.0807	0.000625341	   21.0807	   15.6335	
   21.0584	0.000648144	   20.9995	0.000605724	   20.9695	0.000621836	   21.0092	0.000625234	   21.0092	   15.6309	
   20.9865	0.000648153	   20.9269	0.000605332	   20.8978	0.000622104	   20.9371	0.000625196	   20.9371	   15.6299	
   20.9138	0.000648192	   20.8536	0.000604995	   20.8248	0.00062245	   20.8641	0.000625212	   20.8641	   15.6303	
     20.84	0.000648185	   20.7793	0.00060474	   20.7512	0.000622755	   20.7902	0.000625227	   20.7902	   15.6307	
   20.7652	0.000648063	   20.7035	0.000604533	   20.6771	0.000622919	   20.7153	0.000625172	   20.7153	   15.6293	
   20.6898	0.000647827	   20.6267	0.000604276	   20.6023	0.000622931	   20.6396	0.000625011	   20.6396	   15.6253	
    20.613	0.000647524	   20.5493	0.000603928	   20.5269	0.000622842	   20.5631	0.000624765	   20.5631	   15.6191	
   20.5351	0.000647233	   20.4716	0.000603468	   20.4506	0.000622761	   20.4858	0.000624487	   20.4858	   15.6122	
   20.4564	0.000647005	   20.3932	0.000602954	   20.3743	0.000622771	    20.408	0.000624243	    20.408	   15.6061	
   20.3763	0.000646842	   20.3147	0.000602453	   20.2966	0.000622891	   20.3292	0.000624062	   20.3292	   15.6015	
   20.2952	0.000646691	   20.2357	0.000602032	   20.2176	0.00062307	   20.2495	0.000623931	   20.2495	   15.5983	
   20.2136	0.000646487	    20.156	0.000601685	   20.1381	0.000623208	   20.1692	0.000623793	   20.1692	   15.5948	
   20.1305	0.000646179	   20.0752	0.000601357	    20.058	0.000623223	   20.0879	0.000623586	   20.0879	   15.5897	
   20.0472	0.000645772	   19.9939	0.000600979	   19.9774	0.000623109	   20.0062	0.000623286	   20.0062	   15.5822	
   19.9632	0.000645315	   19.9115	0.000600496	   19.8959	0.000622915	   19.9235	0.000622909	   19.9235	   15.5727	
   19.8785	0.000644865	   19.8282	0.00060006	   19.8135	0.000622731	     19.84	0.000622552	     19.84	   15.5638	
    19.793	0.000644466	   19.7442	0.000599625	   19.7305	0.000622625	   19.7559	0.000622239	   19.7559	    15.556	
   19.7071	0.000644113	   19.6595	0.000599262	   19.6469	0.000622602	   19.6712	0.000621992	   19.6712	   15.5498	
   19.6202	0.000643764	   19.5739	0.000598893	   19.5623	0.000622609	   19.5855	0.000621755	   19.5855	   15.5439	
   19.5324	0.000643366	   19.4873	0.000598537	   19.4769	0.000622563	   19.4989	0.000621489	   19.4989	   15.5372	
   19.4436	0.000642886	    19.401	0.00059812	   19.3905	0.000622409	   19.4117	0.000621138	   19.4117	   15.5285	
   19.3538	0.000642323	   19.3163	0.000597627	   19.3031	0.000622142	   19.3244	0.000620697	   19.3244	   15.5174	
   19.2632	0.000641708	   19.2321	0.000597149	   19.2146	0.000621808	   19.2366	0.000620222	   19.2366	   15.5055	
   19.1719	0.000641089	   19.1492	0.000596713	   19.1256	0.000621477	   19.1489	0.00061976	   19.1489	    15.494	
   19.0799	0.000640501	    19.064	0.000596424	    19.036	0.000621202	     19.06	0.000619376	     19.06	   15.4844	
   18.9876	0.000639946	    18.975	0.000596271	   18.9458	0.000620987	   18.9695	0.000619068	   18.9695	   15.4767	
   18.8943	0.000639398	    18.886	0.000596202	    18.855	0.00062079	   18.8784	0.000618797	   18.8784	   15.4699	
   18.8005	0.000638817	   18.7914	0.000596115	   18.7633	0.000620546	   18.7851	0.000618493	   18.7851	   15.4623	
   18.7059	0.000638172	   18.6961	0.000595873	   18.6713	0.000620212	   18.6911	0.000618086	   18.6911	   15.4521	
   18.6104	0.000637461	   18.5967	0.000595474	   18.5788	0.000619783	   18.5953	0.000617573	   18.5953	   15.4393	
   18.5145	0.00063671	   18.4977	0.000594949	   18.4862	0.000619303	   18.4994	0.000616988	   18.4994	   15.4247	
   18.4179	0.00063596	   18.3975	0.000594412	   18.3921	0.000618833	   18.4025	0.000616402	   18.4025	     15.41	
   18.3204	0.000635238	   18.2981	0.00059397	   18.2975	0.000618412	   18.3053	0.000615873	   18.3053	   15.3968	
    18.222	0.000634543	   18.1998	0.000593661	    18.202	0.000618037	   18.2079	0.000615413	   18.2079	   15.3853	
    18.123	0.000633845	    18.101	0.000593472	   18.1052	0.000617662	   18.1098	0.000614993	   18.1098	   15.3748	
   18.0234	0.000633111	   18.0024	0.000593293	   18.0075	0.000617232	   18.0111	0.000614545	   18.0111	   15.3636	
   17.9232	0.000632321	   17.9025	0.000593022	   17.9092	0.000616715	   17.9116	0.000614019	   17.9116	   15.3505	
   17.8216	0.000631487	   17.8018	 0.0005926	   17.8096	0.000616121	    17.811	0.000613402	    17.811	   15.3351	
   17.7192	0.000630632	   17.6993	0.000592045	    17.709	0.000615493	   17.7092	0.000612723	   17.7092	   15.3181	
   17.6165	0.000629776	   17.5968	0.000591447	   17.6083	0.000614883	   17.6072	0.000612035	   17.6072	   15.3009	
   17.5129	0.000628926	   17.4937	0.000590904	   17.5069	0.000614318	   17.5045	0.000611383	   17.5045	   15.2846	
   17.4089	0.00062807	   17.3899	0.000590469	   17.4047	0.000613786	   17.4011	0.000610775	   17.4011	   15.2694	
   17.3045	0.000627196	   17.2858	0.000590114	   17.3015	0.000613252	   17.2973	0.000610187	   17.2973	   15.2547	
   17.1999	0.000626288	   17.1805	0.000589754	   17.1981	0.000612668	   17.1928	0.00060957	   17.1928	   15.2392	
   17.0944	0.000625348	   17.0751	0.000589298	   17.0935	0.000612008	   17.0876	0.000608885	   17.0876	   15.2221	
   16.9883	0.000624399	   16.9693	0.000588703	   16.9884	0.000611277	    16.982	0.000608126	    16.982	   15.2032	
   16.8814	0.000623453	   16.8633	0.000587989	   16.8828	0.000610507	   16.8758	0.000607317	   16.8758	   15.1829	
   16.7735	0.00062254	   16.7566	0.000587237	   16.7765	0.000609742	   16.7689	0.000606506	   16.7689	   15.1627	
   16.6645	0.000621638	   16.6489	0.000586524	   16.6691	0.000609006	   16.6608	0.000605723	   16.6608	   15.1431	
   16.5547	0.000620831	   16.5407	0.000585893	   16.5605	0.000608296	    16.552	0.000605007	    16.552	   15.1252	
   16.4448	0.000619979	   16.4316	0.000585322	   16.4517	0.000607578	   16.4427	0.000604293	   16.4427	   15.1073	
   16.3344	0.000619041	   16.3223	0.00058474	   16.3418	0.00060681	   16.3328	0.00060353	   16.3328	   15.0883	
   16.2233	0.00061795	   16.2116	0.000584075	   16.2309	0.000605963	   16.2219	0.000602663	   16.2219	   15.0666	
   16.1119	0.000616711	   16.1011	0.00058328	   16.1193	0.000605045	   16.1108	0.000601679	   16.1108	    15.042	
   16.0007	0.000615476	   15.9899	0.000582366	   16.0069	0.000604094	   15.9992	0.000600645	   15.9992	   15.0161	
   15.8918	0.000614268	   15.8776	0.000581398	   15.8939	0.000603155	   15.8878	0.000599607	   15.8878	   14.9902	
   15.7816	0.000613223	   15.7644	0.000580464	   15.7801	0.00060225	   15.7754	0.000598646	   15.7754	   14.9661	
   15.6717	0.000612263	   15.6507	0.000579589	   15.6659	0.00060137	   15.6628	0.000597741	   15.6628	   14.9435	
    15.559	0.000611277	   15.5368	0.000578792	   15.5506	0.00060048	   15.5488	0.00059685	   15.5488	   14.9212	
   15.4459	0.000610216	   15.4223	0.000578021	   15.4349	0.000599546	   15.4344	0.000595928	   15.4344	   14.8982	
   15.3307	0.000609029	   15.3067	0.000577232	   15.3186	0.000598549	   15.3187	0.000594937	   15.3187	   14.8734	
   15.2132	0.000607787	   15.1894	0.000576352	   15.2029	 0.0005975	   15.2018	0.000593879	   15.2018	    14.847	
   15.0946	0.00060653	   15.0716	0.00057536	   15.0863	0.000596425	   15.0842	0.000592772	   15.0842	   14.8193	
    14.976	0.000605294	   14.9532	0.000574275	   14.9697	0.000595361	   14.9663	0.000591643	   14.9663	   14.7911	
   14.8572	0.000604103	   14.8344	0.000573105	   14.8525	0.00059432	    14.848	0.000590509	    14.848	   14.7627	
   14.7381	0.000602895	    14.715	0.000571907	   14.7342	 0.0005933	   14.7291	0.000589368	   14.7291	   14.7342	
   14.6189	0.000601627	    14.595	0.000570719	   14.6153	0.000592271	   14.6097	0.000588206	   14.6097	   14.7051	
   14.5001	0.000600291	   14.4749	0.000569603	   14.4955	0.000591199	   14.4902	0.000587031	   14.4902	   14.6758	
   14.3798	0.000598896	   14.3539	0.000568551	   14.3754	0.000590071	   14.3697	0.000585839	   14.3697	    14.646	
   14.2602	0.000597501	   14.2325	0.00056752	    14.255	0.000588896	   14.2492	0.000584639	   14.2492	    14.616	
     14.14	0.000596142	   14.1102	0.000566454	   14.1335	0.000587705	   14.1279	0.000583434	   14.1279	   14.5858	
   14.0186	0.000594849	   13.9877	0.000565302	   14.0107	0.000586519	   14.0057	0.000582224	   14.0057	   14.5556	
   13.8962	0.000593598	   13.8645	0.000564056	   13.8876	0.000585375	   13.8828	0.00058101	   13.8828	   14.5252	
    13.774	0.000592319	   13.7413	0.000562749	   13.7636	0.000584259	   13.7596	0.000579775	   13.7596	   14.4944	
   13.6511	0.000590973	   13.6175	0.000561438	   13.6384	0.000583132	   13.6357	0.000578514	   13.6357	   14.4629	
   13.5273	0.000589538	   13.4932	0.000560154	   13.5133	0.000581943	   13.5113	0.000577211	   13.5113	   14.4303	
   13.4026	0.000588024	    13.368	0.000558913	   13.3875	0.000580663	    13.386	0.000575867	    13.386	   14.3967	
   13.2764	 0.0005865	   13.2426	0.000557697	   13.2612	0.000579318	   13.2601	0.000574505	   13.2601	   14.3626	
   13.1495	0.000585015	   13.1167	0.00055647	   13.1341	0.000577962	   13.1335	0.000573149	   13.1335	   14.3287	
   13.0226	0.000583596	   12.9898	0.000555185	   13.0072	0.000576637	   13.0065	0.000571806	   13.0065	   14.2951	
   12.8943	0.000582219	   12.8627	0.000553823	   12.8798	0.000575385	   12.8789	0.000570476	   12.8789	   14.2619	
   12.7659	0.000580828	   12.7353	0.000552409	   12.7513	0.000574194	   12.7508	0.000569144	   12.7508	   14.2286	
   12.6374	0.000579375	   12.6068	0.000550974	   12.6218	0.000573028	    12.622	0.000567792	    12.622	   14.1948	
   12.5084	0.000577839	    12.478	0.000549559	   12.4921	0.000571827	   12.4929	0.000566408	   12.4929	   14.1602	
   12.3788	0.000576243	   12.3483	0.000548182	   12.3621	0.000570524	   12.3631	0.000564983	   12.3631	   14.1246	
   12.2485	0.000574645	   12.2186	0.000546836	   12.2312	0.000569108	   12.2328	0.00056353	   12.2328	   14.0882	
   12.1175	0.000573089	   12.0889	0.000545504	   12.0998	0.000567597	   12.1021	0.000562063	   12.1021	   14.0516	
   11.9858	0.000571593	   11.9584	0.000544154	   11.9679	0.000566059	   11.9707	0.000560602	   11.9707	   14.0151	
   11.8535	0.000570126	   11.8273	0.000542747	   11.8356	0.000564611	   11.8388	0.000559161	   11.8388	    13.979	
   11.7205	0.000568643	   11.6961	0.000541268	   11.7029	0.000563265	   11.7065	0.000557725	   11.7065	   13.9431	
   11.5867	0.000567102	    11.564	0.000539719	   11.5694	0.000562001	   11.5734	0.000556274	   11.5734	   13.9069	
   11.4526	0.000565495	   11.4315	0.000538137	   11.4355	0.00056073	   11.4399	0.000554787	   11.4399	   13.8697	
   11.3176	0.000563842	   11.2988	0.000536568	   11.3019	0.00055937	   11.3061	0.00055326	   11.3061	   13.8315	
   11.1821	0.000562185	   11.1651	0.000535032	   11.1674	 0.0005579	   11.1715	0.000551706	   11.1715	   13.7926	
   11.0459	0.000560559	   11.0309	0.000533557	   11.0323	0.000556292	   11.0363	0.000550136	   11.0363	   13.7534	
   10.9094	0.000558976	    10.896	0.000532093	   10.8967	0.000554638	   10.9007	0.000548569	   10.9007	   13.7142	
   10.7726	0.000557421	   10.7604	0.000530608	   10.7608	0.000553008	   10.7646	0.000547012	   10.7646	   13.6753	
   10.6361	0.000555859	   10.6246	0.000529083	   10.6244	0.000551459	   10.6284	0.000545467	   10.6284	   13.6367	
   10.4995	0.000554253	   10.4882	0.000527502	   10.4876	0.000550009	   10.4918	0.000543921	   10.4918	    13.598	
   10.3626	0.000552587	   10.3519	0.00052591	   10.3507	0.000548582	   10.3551	0.000542359	   10.3551	    13.559	
    10.225	0.000550872	   10.2153	 0.0005243	   10.2135	0.000547062	   10.2179	0.000540745	   10.2179	   13.5186	
   10.0867	0.00054914	   10.0784	0.000522684	   10.0763	0.000545442	   10.0805	0.000539089	   10.0805	   13.4772	
   9.94828	0.000547426	   9.94092	0.000521077	   9.93859	0.000543733	    9.9426	0.000537412	    9.9426	   13.4353	
     9.809	0.000545744	    9.8026	0.000519471	   9.80051	0.000542065	   9.80404	0.00053576	   9.80404	    13.394	
   9.66945	0.000544084	     9.664	0.00051788	   9.66188	 0.0005405	   9.66511	0.000534155	   9.66511	   13.3539	
   9.52924	0.000542417	   9.52521	0.000516284	   9.52273	0.000539053	   9.52573	0.000532585	   9.52573	   13.3146	
   9.38907	0.000540714	   9.38631	0.000514668	   9.38247	0.00053769	   9.38595	0.000531024	   9.38595	   13.2756	
   9.24852	0.000538966	    9.2463	0.000513015	   9.24165	0.000536268	   9.24549	0.000529416	   9.24549	   13.2354	
   9.10781	0.000537185	   9.10575	0.000511321	   9.10013	0.000534716	   9.10457	0.000527741	   9.10457	   13.1935	
   8.96643	0.000535399	   8.96337	0.000509601	   8.95825	0.00053301	   8.96268	0.000526003	   8.96268	   13.1501	
   8.82438	0.000533633	   8.82122	0.000507873	    8.8161	0.000531215	   8.82057	0.00052424	   8.82057	    13.106	
   8.68143	0.000531887	   8.67822	0.000506118	   8.67356	0.000529443	   8.67774	0.000522483	   8.67774	   13.0621	
   8.53852	0.000530148	   8.53495	0.000504378	   8.53116	0.000527759	   8.53488	0.000520761	   8.53488	    13.019	
   8.39548	0.000528392	   8.39042	0.000502606	   8.38796	0.000526194	   8.39129	0.000519064	   8.39129	   12.9766	
   8.25198	0.000526598	   8.24612	0.000500837	   8.24441	0.000524693	    8.2475	0.000517376	    8.2475	   12.9344	
   8.10773	0.000524759	   8.10085	0.000499074	   8.10058	0.000523182	   8.10305	0.000515672	   8.10305	   12.8918	
   7.96297	0.000522891	   7.95588	0.000497314	   7.95636	0.000521589	    7.9584	0.000513931	    7.9584	   12.8483	
   7.81819	0.000521029	   7.81018	0.000495558	   7.81228	0.000519878	   7.81355	0.000512155	   7.81355	   12.8039	
   7.67319	0.000519193	   7.66492	0.000493749	   7.66859	0.000518083	    7.6689	0.000510342	    7.6689	   12.7585	
   7.52795	0.000517367	   7.51847	0.000491866	   7.52502	0.000516243	   7.52381	0.000508492	   7.52381	   12.7123	
   7.38234	0.000515515	   7.37181	0.000489902	   7.38105	0.000514439	    7.3784	0.000506619	    7.3784	   12.6655	
   7.23632	0.000513605	   7.22454	0.000487883	   7.23716	0.000512705	   7.23267	0.000504731	   7.23267	   12.6183	
   7.09059	0.00051163	    7.0774	0.000485869	   7.09258	0.000511026	   7.08685	0.000502841	   7.08685	    12.571	
   6.94473	0.000509615	   6.92965	0.000483891	   6.94722	0.000509337	   6.94053	0.000500948	   6.94053	   12.5237	
   6.79828	0.000507579	   6.78187	0.000481958	   6.80199	0.000507562	   6.79405	0.000499033	   6.79405	   12.4758	
   6.65103	0.000505564	    6.6336	0.000480046	   6.65606	0.000505669	    6.6469	0.000497093	    6.6469	   12.4273	
   6.50374	0.000503583	   6.48595	0.000478093	   6.51002	0.000503669	    6.4999	0.000495115	    6.4999	   12.3779	
   6.35585	0.000501636	   6.33784	0.000476069	   6.36371	0.000501672	   6.35247	0.000493125	   6.35247	   12.3281	
   6.20762	0.000499695	   6.18981	0.000473956	   6.21734	0.000499709	   6.20493	0.00049112	   6.20493	    12.278	
   6.05961	0.000497718	   6.04131	0.00047178	    6.0712	0.000497888	   6.05737	0.000489129	   6.05737	   12.2282	
   5.91176	0.000495681	   5.89305	0.000469599	   5.92479	0.000496092	   5.90987	0.000487124	   5.90987	   12.1781	
   5.76414	0.000493572	   5.74446	0.000467452	   5.77856	0.000494214	   5.76239	0.000485079	   5.76239	    12.127	
    5.6159	0.000491424	   5.59611	0.000465355	   5.63267	0.000492163	    5.6149	0.000482981	    5.6149	   12.0745	
   5.46789	0.000489276	   5.44775	0.000463281	   5.48695	0.000489935	   5.46753	0.000480831	   5.46753	   12.0208	
    5.3199	0.000487161	    5.2992	0.000461181	   5.34163	0.000487729	   5.32024	0.000478691	   5.32024	   11.9673	
   5.17156	0.000485016	   5.15011	0.000458978	   5.19679	0.000485663	   5.17282	0.000476552	   5.17282	   11.9138	
   5.02241	0.000482886	   5.00071	0.000456673	   5.05223	0.000483817	   5.02512	0.000474459	   5.02512	   11.8615	
   4.87358	0.000480755	   4.85099	0.000454319	   4.90513	0.000482108	   4.87657	0.000472394	   4.87657	   11.8098	
   4.72444	0.000478607	   4.70165	0.00045202	   4.75753	0.000480363	   4.72787	0.00047033	   4.72787	   11.7582	
   4.57584	0.000476383	   4.55195	0.000449822	   4.60691	0.000478432	   4.57823	0.000468213	   4.57823	   11.7053	
    4.4269	0.000474045	   4.40246	0.00044771	   4.45613	0.000476247	    4.4285	  0.000466	    4.4285	     11.65	
   4.27828	0.000471611	    4.2531	0.000445613	   4.30549	0.000473866	   4.27896	0.000463697	   4.27896	   11.5924	
   4.12978	 0.0004691	   4.10285	0.000443396	   4.15566	0.000471451	   4.12943	0.000461315	   4.12943	   11.5329	
   3.98084	0.000466594	   3.95276	0.000441027	   4.00621	0.000469153	   3.97994	0.000458925	   3.97994	   11.4731	
   3.83203	0.000464144	   3.80236	0.000438521	   3.85799	0.000467055	    3.8308	0.000456573	    3.8308	   11.4143	
   3.68313	0.000461756	   3.65178	0.000436004	    3.7093	0.000465111	    3.6814	0.00045429	    3.6814	   11.3573	
   3.53452	0.000459396	    3.5003	0.000433594	   3.56028	0.000463158	    3.5317	0.000452049	    3.5317	   11.3012	
   3.38559	0.000456984	   3.34822	0.000431328	   3.41168	0.000461043	   3.38183	0.000449785	   3.38183	   11.2446	
   3.23657	0.000454476	   3.19613	0.000429154	   3.26195	0.000458679	   3.23155	0.000447436	   3.23155	   11.1859	
   3.08792	0.000451848	   3.04364	0.00042696	   3.11276	0.000456114	   3.08144	0.000444974	   3.08144	   11.1243	
   2.93942	0.000449141	    2.8912	0.00042462	    2.9626	0.000453493	   2.93108	0.000442418	   2.93108	   11.0605	
    2.7907	0.00044642	   2.73941	0.000422079	   2.81206	0.000450961	   2.78072	0.00043982	   2.78072	   10.9955	
   2.64163	0.000443739	   2.58808	0.00041934	    2.6617	0.00044861	   2.63047	0.00043723	   2.63047	   10.9307	
    2.4921	0.000441121	   2.43764	0.000416483	   2.51111	0.000446393	   2.48028	0.000434666	   2.48028	   10.8666	
    2.3424	0.000438525	   2.28755	0.00041364	   2.36043	0.00044417	   2.33013	0.000432112	   2.33013	   10.8028	
   2.19201	0.000435906	   2.13737	0.00041097	   2.20919	0.000441798	   2.17952	0.000429558	   2.17952	   10.7389	
   2.04187	0.000433205	   1.98696	0.000408557	   2.05765	0.000439195	   2.02882	0.000426986	   2.02882	   10.6746	
   1.89181	0.000430403	   1.83654	0.000406301	    1.9056	0.000436415	   1.87798	0.000424373	   1.87798	   10.6093	
   1.74153	0.000427529	   1.68609	0.000404031	   1.75322	0.000433591	   1.72695	0.000421717	   1.72695	   10.5429	
   1.59039	0.000424631	   1.53366	0.000401576	   1.60125	0.000430855	    1.5751	0.00041902	    1.5751	   10.4755	
   1.43934	0.000421763	   1.38065	0.000398835	   1.44953	0.000428275	   1.42318	0.000416291	   1.42318	   10.4073	
   1.28808	0.00041894	   1.22749	0.00039589	   1.29782	0.000425795	   1.27113	0.000413542	   1.27113	   10.3385	
   1.13718	0.000416135	   1.07531	0.000392872	   1.14624	0.000423298	   1.11958	0.000410768	   1.11958	   10.2692	
  0.985943	0.000413298	  0.923504	0.000389982	  0.995145	0.000420665	  0.968197	0.000407982	  0.968197	   10.1995	
  0.834955	0.000410375	  0.773266	0.00038728	  0.844365	0.00041784	  0.817529	0.000405165	  0.817529	   10.1291	
  0.684227	0.000407349	   0.62398	0.000384737	  0.693568	0.000414874	  0.667258	0.00040232	  0.667258	    10.058	
  0.533711	0.000404251	  0.475255	0.000382218	  0.542728	0.000411878	  0.517232	0.000399449	  0.517232	   9.98622	
   0.38331	0.000401128	  0.326725	0.00037959	  0.391433	0.000408962	  0.367156	0.00039656	  0.367156	   9.91399	
  0.232189	0.00039803	  0.178233	0.000376791	  0.240268	0.000406173	  0.216897	0.000393665	  0.216897	   9.84162	
 0.0813886	0.000394962	 0.0284346	0.000373829	 0.0883144	0.000403463	 0.0660459	0.000390751	 0.0660459	   9.76878	
  -0.06957	0.000391895	 -0.121447	0.00037081	-0.0642356	0.000400738	-0.0850841	0.000387814	-0.0850841	   9.69536	
 -0.220585	0.000388765	 -0.271944	0.000367839	 -0.216608	0.00039789	 -0.236379	0.000384831	 -0.236379	   9.62078	
 -0.371107	0.000385564	 -0.422124	0.000364979	 -0.368951	0.000394878	 -0.387394	0.000381807	 -0.387394	   9.54517	
 -0.522166	0.000382292	 -0.571722	0.000362225	 -0.521061	0.000391745	 -0.538316	0.000378754	 -0.538316	   9.46886	
 -0.672885	  0.000379	 -0.721242	0.000359491	 -0.673828	0.000388586	 -0.689318	0.000375692	 -0.689318	   9.39231	
  -0.82389	0.000375718	 -0.870263	0.000356674	 -0.826585	0.000385497	 -0.840246	0.00037263	 -0.840246	   9.31575	
  -0.97495	0.000372435	  -1.01932	0.000353698	 -0.979126	0.000382515	 -0.991132	0.000369549	 -0.991132	   9.23874	
  -1.12602	0.000369124	  -1.16829	0.000350568	  -1.13134	0.000379597	  -1.14189	0.00036643	  -1.14189	   9.16075	
  -1.27714	0.000365729	  -1.31764	0.000347372	  -1.28314	0.000376654	  -1.29264	0.000363251	  -1.29264	   9.08129	
  -1.42802	0.000362241	  -1.46743	0.000344205	  -1.43485	0.000373594	  -1.44344	0.000360013	  -1.44344	   9.00034	
  -1.57883	0.000358687	  -1.61741	0.000341139	  -1.58662	0.000370382	  -1.59429	0.000356736	  -1.59429	    8.9184	
  -1.72963	0.00035511	   -1.7672	0.000338157	  -1.73765	0.000367056	  -1.74482	0.000353441	  -1.74482	   8.83603	
  -1.88057	0.000351561	  -1.91683	0.000335168	  -1.88928	0.000363703	  -1.89556	0.000350144	  -1.89556	    8.7536	
  -2.03151	0.000348049	   -2.0671	0.000332074	  -2.04037	0.000360409	  -2.04633	0.000346844	  -2.04633	   8.67109	
  -2.18292	0.000344546	  -2.21741	0.000328819	  -2.19143	0.000357208	  -2.19725	0.000343524	  -2.19725	   8.58811	
  -2.33378	0.000341003	  -2.36703	0.000325434	   -2.3426	0.000354067	   -2.3478	0.000340168	   -2.3478	    8.5042	
   -2.4846	0.00033736	  -2.51662	0.000322008	  -2.49332	0.000350907	  -2.49818	0.000336758	  -2.49818	   8.41896	
  -2.63562	0.000333613	  -2.66639	0.000318635	  -2.64344	0.000347646	  -2.64848	0.000333298	  -2.64848	   8.33245	
  -2.78697	0.000329782	  -2.81646	0.000315364	  -2.79313	0.000344247	  -2.79885	0.000329798	  -2.79885	   8.24495	
  -2.93773	0.000325928	  -2.96583	0.000312142	  -2.94216	0.000340735	  -2.94857	0.000326268	  -2.94857	   8.15671	
  -3.08827	0.000322083	  -3.11501	0.000308865	  -3.09216	0.00033718	  -3.09848	0.000322709	  -3.09848	   8.06773	
   -3.2389	0.000318259	  -3.26395	0.000305436	  -3.24218	0.000333655	  -3.24834	0.000319117	  -3.24834	   7.97791	
  -3.38975	0.00031447	  -3.41348	0.000301837	  -3.39201	0.000330198	  -3.39841	0.000315501	  -3.39841	   7.88754	
  -3.54044	0.000310708	  -3.56276	0.000298126	  -3.54198	0.000326784	  -3.54839	0.000311873	  -3.54839	   7.79682	
  -3.69072	0.000306931	  -3.71199	0.000294389	   -3.6921	0.000323351	  -3.69827	0.000308224	  -3.69827	   7.70559	
  -3.84132	0.000303089	  -3.86187	0.00029074	  -3.84108	0.000319835	  -3.84809	0.000304555	  -3.84809	   7.61387	
  -3.99305	0.000299148	  -4.01147	0.000287202	  -3.99018	0.000316211	  -3.99823	0.000300854	  -3.99823	   7.52134	
  -4.14576	0.000295134	  -4.16079	0.000283738	   -4.1386	0.000312499	  -4.14838	0.000297124	  -4.14838	   7.42809	
  -4.29798	0.000291067	  -4.30931	0.000280238	  -4.28714	0.000308755	  -4.29814	0.000293353	  -4.29814	   7.33383	
  -4.45055	0.000286984	  -4.45775	0.000276621	   -4.4356	0.000305038	  -4.44797	0.000289547	  -4.44797	   7.23869	
   -4.6012	0.000282905	  -4.60559	0.000272847	  -4.58377	0.000301374	  -4.59685	0.000285709	  -4.59685	   7.14271	
  -4.75123	0.000278809	  -4.75302	0.00026895	  -4.73184	0.000297745	  -4.74536	0.000281834	  -4.74536	   7.04586	
  -4.89984	0.000274719	  -4.90023	0.000265027	  -4.87996	0.000294095	  -4.89334	0.000277947	  -4.89334	   6.94867	
  -5.04728	0.000270626	  -5.04807	0.000261162	  -5.02793	0.000290381	  -5.04109	0.000274056	  -5.04109	    6.8514	
  -5.19447	0.000266521	  -5.19562	0.000257402	  -5.17522	0.000286553	  -5.18844	0.000270159	  -5.18844	   6.75397	
  -5.34092	0.000262374	  -5.34269	0.000253711	  -5.32206	0.000282665	  -5.33522	0.00026625	  -5.33522	   6.65625	
  -5.48922	0.000258173	  -5.49017	0.000250004	   -5.4693	0.000278747	   -5.4829	0.000262308	   -5.4829	   6.55769	
  -5.63698	0.000253944	  -5.63783	0.000246193	  -5.61605	0.000274885	  -5.63029	0.000258341	  -5.63029	   6.45853	
  -5.78609	0.000249683	  -5.78546	0.000242235	  -5.76249	0.000271115	  -5.77802	0.000254344	  -5.77802	    6.3586	
  -5.93455	0.000245409	  -5.93322	0.000238161	  -5.90846	0.000267407	  -5.92541	0.000250326	  -5.92541	   6.25814	
  -6.08288	0.000241131	  -6.08021	0.000234049	  -6.05451	0.000263704	  -6.07253	0.000246295	  -6.07253	   6.15736	
  -6.22954	0.000236851	  -6.22699	0.000229984	  -6.20078	0.000259897	   -6.2191	0.000242244	   -6.2191	    6.0561	
  -6.37619	0.00023257	   -6.3734	0.000226006	  -6.34638	0.000255941	  -6.36532	0.000238173	  -6.36532	   5.95431	
  -6.52264	0.000228262	  -6.51996	0.000222092	   -6.4922	0.00025185	   -6.5116	0.000234068	   -6.5116	   5.85169	
   -6.6694	0.000223911	  -6.66647	0.00021817	   -6.6377	0.000247698	  -6.65786	0.000229926	  -6.65786	   5.74816	
   -6.8166	0.000219515	  -6.81274	0.000214163	  -6.78307	0.000243587	  -6.80414	0.000225755	  -6.80414	   5.64387	
  -6.96332	0.000215076	  -6.95827	0.000210026	  -6.92744	0.000239572	  -6.94968	0.000221558	  -6.94968	   5.53895	
  -7.10977	0.000210624	  -7.10327	0.000205787	  -7.07244	0.000235636	  -7.09516	0.000217349	  -7.09516	   5.43372	
  -7.25611	0.000206176	  -7.24795	0.000201513	  -7.21747	0.000231718	  -7.24051	0.000213136	  -7.24051	   5.32839	
  -7.40148	0.000201742	  -7.39215	0.000197278	   -7.3627	0.000227721	  -7.38544	0.000208914	  -7.38544	   5.22285	
  -7.54613	0.00019731	  -7.53607	0.000193121	  -7.50757	0.00022359	  -7.52993	0.000204674	  -7.52993	   5.11685	
  -7.69027	0.000192858	  -7.67991	0.00018902	  -7.65195	0.000219338	  -7.67404	0.000200405	  -7.67404	   5.01013	
  -7.83378	0.000188377	  -7.82348	0.000184911	  -7.79638	0.000215025	  -7.81788	0.000196104	  -7.81788	   4.90261	
  -7.97652	0.000183862	  -7.96698	0.000180726	  -7.94032	0.000210737	  -7.96127	0.000191775	  -7.96127	   4.79437	
  -8.11872	0.000179322	  -8.11091	0.000176432	   -8.0833	0.000206529	  -8.10431	0.000187428	  -8.10431	    4.6857	
  -8.26095	0.000174774	  -8.25438	0.000172049	  -8.22522	0.000202388	  -8.24685	0.00018307	  -8.24685	   4.57676	
   -8.4037	0.000170217	  -8.39725	0.000167634	  -8.36703	0.000198258	  -8.38933	0.000178703	  -8.38933	   4.46758	
  -8.54642	0.000165658	  -8.53974	0.000163246	  -8.50789	0.000194061	  -8.53135	0.000174322	  -8.53135	   4.35804	
   -8.6886	0.00016109	  -8.68238	0.00015892	  -8.64906	0.000189753	  -8.67335	0.000169921	  -8.67335	   4.24802	
  -8.82976	0.000156511	  -8.82499	0.000154635	  -8.79003	0.000185338	  -8.81493	0.000165495	  -8.81493	   4.13736	
   -8.9705	0.000151918	  -8.96673	0.000150345	  -8.93096	0.000180873	  -8.95606	0.000161045	  -8.95606	   4.02614	
   -9.1107	0.000147307	  -9.10816	0.00014603	   -9.0717	0.000176448	  -9.09686	0.000156595	  -9.09686	   3.91488	
  -9.25058	0.000142681	  -9.24915	0.00014162	  -9.21176	0.000172106	  -9.23717	0.000152136	  -9.23717	   3.80339	
  -9.38966	0.000138048	  -9.39024	0.000137158	  -9.35171	0.000167813	  -9.37721	0.000147673	  -9.37721	   3.69182	
  -9.52853	0.000133408	  -9.53127	0.000132634	  -9.49174	0.000163518	  -9.51718	0.000143186	  -9.51718	   3.57966	
  -9.66704	0.000128761	  -9.67275	0.000128083	  -9.63099	0.000159117	  -9.65692	0.000138654	  -9.65692	   3.46634	
  -9.80507	0.000124098	   -9.8131	0.000123533	  -9.77005	0.000154576	  -9.79607	0.000134069	  -9.79607	   3.35172	
  -9.94283	0.000119409	  -9.95328	0.000118989	  -9.90945	0.000149874	  -9.93519	0.000129424	  -9.93519	    3.2356	
  -10.0802	0.000114693	  -10.0921	0.000114498	  -10.0483	0.000145104	  -10.0735	0.000124765	  -10.0735	   3.11912	
  -10.2171	0.000109952	  -10.2306	0.00011004	  -10.1862	0.000140384	  -10.2113	0.000120125	  -10.2113	   3.00313	
  -10.3536	0.000105202	  -10.3689	0.00010559	  -10.3224	0.000135798	  -10.3483	0.00011553	  -10.3483	   2.88825	
  -10.4898	0.000100451	  -10.5062	0.000101098	  -10.4581	0.000131353	  -10.4847	0.000110967	  -10.4847	   2.77419	
   -10.625	9.57049e-05	  -10.6435	9.6522e-05	  -10.5937	0.000126972	  -10.6208	0.000106399	  -10.6208	   2.65999	
  -10.7601	9.09579e-05	  -10.7803	9.18632e-05	  -10.7294	0.000122524	  -10.7566	0.000101782	  -10.7566	   2.54454	
  -10.8947	8.6195e-05	  -10.9168	8.71822e-05	  -10.8639	0.000117903	  -10.8918	9.70934e-05	  -10.8918	   2.42734	
  -11.0292	8.1404e-05	  -11.0525	8.2517e-05	  -10.9983	0.000113095	  -11.0267	9.23388e-05	  -11.0267	   2.30847	
  -11.1634	7.65852e-05	  -11.1884	7.78476e-05	  -11.1317	0.000108189	  -11.1612	8.75408e-05	  -11.1612	   2.18852	
  -11.2968	7.17482e-05	  -11.3237	7.31617e-05	  -11.2645	0.000103312	   -11.295	8.27407e-05	   -11.295	   2.06852	
  -11.4297	6.69089e-05	  -11.4592	6.8437e-05	  -11.3968	9.85584e-05	  -11.4286	7.79681e-05	  -11.4286	    1.9492	
  -11.5621	6.20768e-05	  -11.5944	6.36544e-05	  -11.5292	9.39437e-05	  -11.5619	7.3225e-05	  -11.5619	   1.83062	
  -11.6934	5.72512e-05	  -11.7289	5.88394e-05	   -11.661	8.93852e-05	  -11.6945	6.84919e-05	  -11.6945	    1.7123	
  -11.8244	5.24236e-05	  -11.8637	5.40445e-05	  -11.7921	8.47754e-05	  -11.8267	6.37478e-05	  -11.8267	    1.5937	
  -11.9546	4.75783e-05	  -11.9982	4.93116e-05	   -11.923	7.99937e-05	  -11.9586	5.89612e-05	  -11.9586	   1.47403	
  -12.0838	4.2706e-05	  -12.1315	4.46442e-05	  -12.0533	7.50453e-05	  -12.0895	5.41318e-05	  -12.0895	    1.3533	
  -12.2128	3.78103e-05	  -12.2638	4.00062e-05	  -12.1832	7.00298e-05	  -12.2199	4.92821e-05	  -12.2199	   1.23205	
  -12.3422	3.28988e-05	  -12.3952	3.53356e-05	  -12.3127	6.50642e-05	    -12.35	4.44329e-05	    -12.35	   1.11082	
  -12.4707	2.79891e-05	  -12.5254	3.05735e-05	  -12.4414	6.0256e-05	  -12.4791	3.96062e-05	  -12.4791	  0.990155	
   -12.598	2.30914e-05	  -12.6546	2.57096e-05	  -12.5698	5.56145e-05	  -12.6075	3.48052e-05	  -12.6075	  0.870129	
   -12.725	1.82124e-05	  -12.7829	2.07784e-05	  -12.6978	5.10644e-05	  -12.7352	3.00184e-05	  -12.7352	  0.750459	
  -12.8514	1.33414e-05	  -12.9108	1.5845e-05	  -12.8258	4.64783e-05	  -12.8627	2.52216e-05	  -12.8627	  0.630539	
  -12.9767	8.46037e-06	   -13.038	1.09761e-05	  -12.9539	4.1731e-05	  -12.9895	2.03892e-05	  -12.9895	  0.509729	
  -13.1005	3.55836e-06	  -13.1648	6.20153e-06	  -13.0824	3.67861e-05	  -13.1159	1.55153e-05	  -13.1159	  0.387884	
  -13.2243	-1.36017e-06	  -13.2913	1.50343e-06	   -13.211	3.17058e-05	  -13.2422	1.06164e-05	  -13.2422	  0.265409	
  -13.3473	-6.27423e-06	  -13.4171	-3.17925e-06	  -13.3394	2.66405e-05	  -13.3679	 5.729e-06	  -13.3679	  0.143225	
  -13.4694	-1.11501e-05	  -13.5423	-7.91854e-06	  -13.4667	2.17083e-05	  -13.4928	8.79889e-07	  -13.4928	 0.0219972	
  -13.5906	-1.59724e-05	  -13.6667	-1.27562e-05	  -13.5925	1.69733e-05	  -13.6166	-3.91842e-06	  -13.6166	-0.0979605	
  -13.7113	-2.0794e-05	  -13.7899	-1.76629e-05	  -13.7176	1.23866e-05	  -13.7396	-8.69007e-06	  -13.7396	 -0.217252	
  -13.8313	-2.56743e-05	  -13.9127	-2.25729e-05	  -13.8412	7.83983e-06	  -13.8617	-1.34691e-05	  -13.8617	 -0.336728	
   -13.951	-3.06696e-05	  -14.0353	-2.74239e-05	  -13.9634	3.1507e-06	  -13.9832	-1.83143e-05	  -13.9832	 -0.457857	
  -14.0696	-3.57541e-05	  -14.1572	-3.21965e-05	  -14.0851	-1.91705e-06	   -14.104	-2.32892e-05	   -14.104	 -0.582231	
  -14.1879	-4.08659e-05	  -14.2792	-3.6929e-05	  -14.2057	-7.22661e-06	  -14.2243	-2.83405e-05	  -14.2243	 -0.708512	
   -14.306	-4.59104e-05	  -14.4011	-4.16719e-05	  -14.3258	-1.25912e-05	  -14.3443	-3.33911e-05	  -14.3443	 -0.834778	
   -14.424	-5.08177e-05	  -14.5225	-4.64766e-05	  -14.4437	-1.76748e-05	  -14.4634	-3.83231e-05	  -14.4634	 -0.958076	
  -14.5414	-5.55953e-05	  -14.6434	-5.13682e-05	  -14.5595	-2.24032e-05	  -14.5814	-4.31222e-05	  -14.5814	  -1.07806	
  -14.6589	-6.03322e-05	  -14.7629	-5.62859e-05	   -14.677	-2.68755e-05	  -14.6996	-4.78312e-05	  -14.6996	  -1.19578	
  -14.7756	-6.51136e-05	  -14.8818	-6.11816e-05	  -14.7922	-3.1272e-05	  -14.8165	-5.25224e-05	  -14.8165	  -1.31306	
   -14.892	-7.00381e-05	  -15.0001	-6.59882e-05	  -14.9118	-3.59447e-05	  -14.9346	-5.73237e-05	  -14.9346	  -1.43309	
  -15.0086	-7.51528e-05	   -15.117	-7.0705e-05	  -15.0284	-4.09732e-05	  -15.0514	-6.2277e-05	  -15.0514	  -1.55692	
  -15.1247	-8.03432e-05	   -15.233	-7.53655e-05	  -15.1481	-4.62963e-05	  -15.1686	-6.7335e-05	  -15.1686	  -1.68338	
  -15.2402	-8.54587e-05	  -15.3487	-8.00306e-05	  -15.2664	-5.16609e-05	  -15.2851	-7.23834e-05	  -15.2851	  -1.80958	
  -15.3551	-9.03375e-05	   -15.463	-8.47592e-05	  -15.3843	-5.67697e-05	  -15.4008	-7.72888e-05	  -15.4008	  -1.93222	
  -15.4698	-9.49892e-05	  -15.5763	-8.95678e-05	  -15.5007	-6.15474e-05	  -15.5156	-8.20348e-05	  -15.5156	  -2.05087	
  -15.5844	-9.95457e-05	   -15.689	-9.44333e-05	  -15.6165	-6.60557e-05	    -15.63	-8.66782e-05	    -15.63	  -2.16696	
   -15.699	-0.000104145	  -15.8018	-9.92831e-05	  -15.7309	-7.0549e-05	  -15.7439	-9.13257e-05	  -15.7439	  -2.28314	
  -15.8135	-0.00010896	  -15.9135	-0.000104052	  -15.8445	-7.52721e-05	  -15.8572	-9.6095e-05	  -15.8572	  -2.40237	
  -15.9271	 -0.000114	  -16.0249	-0.00010872	  -15.9575	-8.02945e-05	  -15.9698	-0.000101005	  -15.9698	  -2.52512	
  -16.0402	-0.000119183	  -16.1362	-0.000113318	  -16.0705	-8.55402e-05	  -16.0823	-0.000106014	  -16.0823	  -2.65035	
  -16.1531	-0.000124336	  -16.2467	-0.000117915	   -16.182	-9.07808e-05	  -16.1939	-0.000111011	  -16.1939	  -2.77527	
  -16.2657	-0.000129292	  -16.3569	-0.000122586	  -16.2938	-9.58135e-05	  -16.3055	-0.000115897	  -16.3055	  -2.89743	
   -16.378	-0.000134018	  -16.4662	-0.000127361	  -16.4042	-0.000100565	  -16.4161	-0.000120648	  -16.4161	   -3.0162	
  -16.4896	-0.000138566	  -16.5745	-0.00013219	  -16.5149	-0.000105104	  -16.5263	-0.000125287	  -16.5263	  -3.13217	
  -16.6009	-0.000143111	   -16.682	-0.000136982	   -16.624	-0.000109638	  -16.6356	-0.00012991	  -16.6356	  -3.24776	
  -16.7111	-0.000147812	  -16.7884	-0.000141645	  -16.7328	-0.000114344	  -16.7441	-0.0001346	  -16.7441	  -3.36501	
  -16.8213	-0.000152709	  -16.8945	-0.000146172	  -16.8402	-0.000119294	   -16.852	-0.000139392	   -16.852	  -3.48479	
  -16.9308	-0.000157743	  -16.9999	-0.000150619	  -16.9468	-0.000124422	  -16.9592	-0.000144261	  -16.9592	  -3.60653	
  -17.0399	-0.000162759	  -17.1044	-0.000155071	  -17.0524	-0.000129538	  -17.0656	-0.000149123	  -17.0656	  -3.72807	
  -17.1482	-0.000167629	  -17.2078	-0.000159614	  -17.1571	-0.000134467	   -17.171	-0.000153904	   -17.171	  -3.84759	
  -17.2561	-0.000172297	  -17.3111	-0.000164257	  -17.2616	-0.000139139	  -17.2763	-0.000158564	  -17.2763	  -3.96411	
  -17.3633	-0.000176824	  -17.4137	-0.000168962	  -17.3654	-0.000143626	  -17.3808	-0.000163137	  -17.3808	  -4.07843	
  -17.4694	-0.000181342	  -17.5165	-0.000173645	  -17.4684	-0.00014811	  -17.4848	-0.000167699	  -17.4848	  -4.19247	
  -17.5745	-0.000185984	  -17.6187	-0.000178219	  -17.5708	-0.00015275	   -17.588	-0.000172318	   -17.588	  -4.30795	
  -17.6789	-0.000190726	   -17.721	-0.000182661	  -17.6723	-0.000157611	  -17.6907	 -0.000177	  -17.6907	  -4.42499	
  -17.7827	-0.000195579	  -17.8223	-0.000186991	  -17.7737	-0.000162614	  -17.7929	-0.000181728	  -17.7929	   -4.5432	
  -17.8852	-0.000200382	  -17.9231	-0.000191299	   -17.874	-0.000167586	  -17.8941	-0.000186422	  -17.8941	  -4.66056	
  -17.9869	-0.000205096	   -18.023	-0.000195668	  -17.9728	-0.000172383	  -17.9942	-0.000191049	  -17.9942	  -4.77622	
  -18.0877	-0.000209735	  -18.1217	-0.000200128	  -18.0717	-0.000176953	  -18.0937	-0.000195605	  -18.0937	  -4.89014	
  -18.1878	-0.000214306	  -18.2197	-0.00020466	  -18.1699	-0.000181382	  -18.1925	-0.000200116	  -18.1925	  -5.00291	
  -18.2861	-0.000218907	  -18.3167	-0.000209185	  -18.2672	-0.000185821	    -18.29	-0.000204638	    -18.29	  -5.11594	
  -18.3828	-0.000223519	  -18.4127	-0.000213628	  -18.3635	-0.000190396	  -18.3864	-0.000209181	  -18.3864	  -5.22952	
  -18.4774	-0.000228148	  -18.5085	-0.000217949	  -18.4591	-0.000195144	  -18.4817	-0.000213747	  -18.4817	  -5.34367	
  -18.5727	-0.000232778	  -18.6035	-0.000222164	  -18.5539	-0.000199989	  -18.5767	-0.00021831	  -18.5767	  -5.45776	
  -18.6679	-0.000237375	   -18.698	-0.000226344	  -18.6476	-0.000204792	  -18.6712	-0.000222837	  -18.6712	  -5.57093	
  -18.7646	-0.000241938	  -18.7921	-0.00023056	  -18.7408	-0.000209434	  -18.7658	-0.000227311	  -18.7658	  -5.68277	
  -18.8618	-0.000246457	  -18.8851	-0.00023485	  -18.8334	-0.000213884	  -18.8601	-0.00023173	  -18.8601	  -5.79326	
  -18.9588	-0.000250932	  -18.9775	-0.000239194	  -18.9259	-0.000218208	  -18.9541	-0.000236111	  -18.9541	  -5.90278	
  -19.0549	-0.000255381	  -19.0697	-0.000243532	  -19.0175	-0.000222533	  -19.0474	-0.000240482	  -19.0474	  -6.01206	
  -19.1489	-0.00025982	  -19.1606	-0.000247802	  -19.1088	-0.000226969	  -19.1394	-0.000244864	  -19.1394	   -6.1216	
  -19.2419	-0.000264244	  -19.2512	-0.000251974	  -19.1997	-0.000231546	  -19.2309	-0.000249255	  -19.2309	  -6.23137	
  -19.3331	-0.000268669	   -19.341	-0.000256069	  -19.2903	-0.000236197	  -19.3214	-0.000253645	  -19.3214	  -6.34112	
  -19.4228	-0.000273049	  -19.4295	-0.000260139	  -19.3803	-0.000240804	  -19.4109	-0.000257998	  -19.4109	  -6.44994	
   -19.513	-0.000277396	  -19.5175	-0.000264241	  -19.4694	-0.00024526	     -19.5	-0.000262299	     -19.5	  -6.55748	
  -19.6017	-0.000281712	  -19.6048	-0.000268398	  -19.5577	-0.000249543	   -19.588	-0.000266551	   -19.588	  -6.66377	
  -19.6898	-0.000286004	  -19.6906	-0.0002726	  -19.6457	-0.000253711	  -19.6754	-0.000270772	  -19.6754	  -6.76929	
  -19.7773	-0.000290291	  -19.7763	-0.000276764	   -19.733	-0.000257879	  -19.7622	-0.000274978	  -19.7622	  -6.87445	
  -19.8638	-0.000294554	  -19.8611	-0.000280864	  -19.8194	-0.00026214	  -19.8481	-0.000279186	  -19.8481	  -6.97966	
  -19.9491	-0.000298797	  -19.9452	-0.000284854	  -19.9057	-0.000266511	  -19.9333	-0.000283387	  -19.9333	  -7.08469	
  -20.0334	-0.000303004	   -20.028	-0.00028879	  -19.9912	-0.000270931	  -20.0175	-0.000287575	  -20.0175	  -7.18937	
  -20.1171	-0.000307171	    -20.11	-0.000292747	  -20.0757	-0.000275298	  -20.1009	-0.000291739	  -20.1009	  -7.29347	
  -20.1989	-0.000311313	  -20.1913	-0.000296788	   -20.159	-0.000279532	   -20.183	-0.000295878	   -20.183	  -7.39694	
  -20.2797	-0.000315431	  -20.2713	-0.000300898	  -20.2419	-0.000283626	  -20.2643	-0.000299985	  -20.2643	  -7.49962	
    -20.36	-0.000319547	  -20.3505	-0.000304934	  -20.3241	-0.000287631	  -20.3449	-0.000304038	  -20.3449	  -7.60094	
  -20.4395	-0.000323662	  -20.4291	-0.000308814	  -20.4054	-0.000291645	  -20.4247	-0.00030804	  -20.4247	  -7.70101	
  -20.5184	-0.000327768	  -20.5071	-0.000312509	   -20.486	-0.000295737	  -20.5038	-0.000312005	  -20.5038	  -7.80011	
  -20.5968	-0.000331856	  -20.5847	-0.000316076	  -20.5662	-0.000299914	  -20.5826	-0.000315948	  -20.5826	  -7.89871	
  -20.6741	-0.000335908	  -20.6609	-0.000319673	  -20.6455	-0.000304127	  -20.6601	-0.000319903	  -20.6601	  -7.99757	
  -20.7514	-0.000339921	  -20.7366	-0.00032342	  -20.7236	-0.000308285	  -20.7372	-0.000323875	  -20.7372	  -8.09688	
  -20.8275	-0.000343898	  -20.8113	-0.000327356	  -20.8008	-0.000312324	  -20.8132	-0.000327859	  -20.8132	  -8.19648	
  -20.9026	-0.00034785	  -20.8854	-0.000331395	  -20.8771	-0.000316235	  -20.8884	-0.000331827	  -20.8884	  -8.29566	
  -20.9774	-0.000351798	  -20.9587	-0.000335372	  -20.9528	-0.000320066	  -20.9629	-0.000335745	  -20.9629	  -8.39363	
  -21.0517	-0.000355739	  -21.0317	-0.000339169	  -21.0268	-0.000323896	  -21.0367	-0.000339601	  -21.0367	  -8.49004	
   -21.125	-0.000359672	  -21.1035	-0.000342748	  -21.1002	-0.000327792	  -21.1096	-0.000343404	  -21.1096	   -8.5851	
  -21.1975	-0.000363584	  -21.1742	-0.000346198	  -21.1726	-0.000331777	  -21.1814	-0.000347186	  -21.1814	  -8.67966	
  -21.2685	-0.000367455	  -21.2447	-0.000349661	  -21.2443	-0.000335806	  -21.2525	-0.000350974	  -21.2525	  -8.77435	
  -21.3386	-0.000371284	  -21.3145	-0.000353251	  -21.3147	-0.000339796	  -21.3226	-0.000354777	  -21.3226	  -8.86942	
  -21.4081	-0.000375073	  -21.3837	-0.000357002	  -21.3837	-0.00034368	  -21.3918	-0.000358585	  -21.3918	  -8.96462	
  -21.4766	-0.000378836	  -21.4518	-0.000360835	  -21.4518	-0.000347421	  -21.4601	-0.000362364	  -21.4601	   -9.0591	
  -21.5445	-0.000382587	  -21.5195	-0.000364627	  -21.5195	-0.000351063	  -21.5278	-0.000366092	  -21.5278	   -9.1523	
  -21.6114	-0.000386329	  -21.5865	-0.000368271	  -21.5859	-0.00035468	  -21.5946	-0.00036976	  -21.5946	    -9.244	
  -21.6769	-0.000390057	  -21.6524	-0.000371724	  -21.6517	-0.000358339	  -21.6603	-0.000373373	  -21.6603	  -9.33433	
  -21.7409	-0.000393759	  -21.7178	-0.000375057	  -21.7165	-0.000362068	  -21.7251	-0.000376961	  -21.7251	  -9.42404	
  -21.8046	-0.000397426	  -21.7833	-0.000378386	  -21.7803	-0.000365824	  -21.7894	-0.000380545	  -21.7894	  -9.51363	
  -21.8678	-0.000401056	  -21.8478	-0.000381817	  -21.8429	-0.000369563	  -21.8529	-0.000384145	  -21.8529	  -9.60363	
  -21.9294	-0.00040465	  -21.9116	-0.000385382	  -21.9046	-0.000373228	  -21.9152	-0.000387753	  -21.9152	  -9.69383	
  -21.9898	-0.000408217	  -21.9749	-0.000389017	  -21.9654	-0.000376797	  -21.9767	-0.000391343	  -21.9767	  -9.78359	
  -22.0498	-0.00041176	  -22.0368	-0.000392613	  -22.0257	-0.0003803	  -22.0374	-0.000394891	  -22.0374	  -9.87228	
  -22.1093	-0.000415282	  -22.0985	-0.000396076	  -22.0842	-0.000383776	  -22.0973	-0.000398378	  -22.0973	  -9.95944	
  -22.1684	-0.000418784	  -22.1591	-0.000399381	  -22.1422	-0.000387271	  -22.1566	-0.000401812	  -22.1566	  -10.0453	
  -22.2267	-0.000422261	  -22.2186	-0.000402591	  -22.1992	-0.000390807	  -22.2148	-0.00040522	  -22.2148	  -10.1305	
  -22.2842	-0.000425707	  -22.2774	-0.000405792	  -22.2558	-0.000394361	  -22.2725	-0.00040862	  -22.2725	  -10.2155	
   -22.341	-0.000429124	  -22.3359	-0.000409056	  -22.3112	-0.000397889	  -22.3293	-0.000412023	  -22.3293	  -10.3006	
  -22.3966	-0.000432512	  -22.3933	-0.00041239	  -22.3652	-0.000401346	   -22.385	-0.000415416	   -22.385	  -10.3854	
  -22.4517	-0.000435871	  -22.4501	-0.000415728	  -22.4177	-0.000404716	  -22.4398	-0.000418772	  -22.4398	  -10.4693	
  -22.5058	-0.000439204	   -22.506	-0.000419003	  -22.4701	-0.000408023	  -22.4939	-0.000422077	  -22.4939	  -10.5519	
  -22.5586	-0.000442504	  -22.5612	-0.000422162	  -22.5214	-0.000411307	  -22.5471	-0.000425324	  -22.5471	  -10.6331	
  -22.6103	-0.000445767	  -22.6146	-0.0004252	  -22.5717	-0.000414605	  -22.5988	-0.000428524	  -22.5988	  -10.7131	
  -22.6612	-0.000448995	  -22.6668	-0.000428181	  -22.6214	-0.000417933	  -22.6498	-0.000431703	  -22.6498	  -10.7926	
  -22.7114	-0.000452191	  -22.7187	-0.000431152	  -22.6702	-0.000421272	  -22.7001	-0.000434871	  -22.7001	  -10.8718	
  -22.7611	-0.000455363	  -22.7696	-0.000434171	  -22.7182	-0.00042458	  -22.7496	-0.000438038	  -22.7496	   -10.951	
  -22.8097	-0.000458515	  -22.8196	-0.000437229	  -22.7653	-0.000427822	  -22.7982	-0.000441189	  -22.7982	  -11.0297	
  -22.8578	-0.000461654	  -22.8686	-0.000440275	  -22.8119	-0.000431001	  -22.8461	-0.00044431	  -22.8461	  -11.1077	
  -22.9051	-0.000464771	   -22.917	-0.000443249	  -22.8577	-0.000434144	  -22.8933	-0.000447388	  -22.8933	  -11.1847	
  -22.9517	-0.000467856	  -22.9652	-0.000446096	  -22.9024	-0.000437271	  -22.9397	-0.000450408	  -22.9397	  -11.2602	
  -22.9971	-0.000470902	  -23.0117	-0.000448828	  -22.9462	-0.000440383	   -22.985	-0.000453371	   -22.985	  -11.3343	
  -23.0421	-0.000473907	  -23.0576	-0.000451505	  -22.9893	-0.000443471	  -23.0296	-0.000456294	  -23.0296	  -11.4074	
  -23.0858	-0.000476876	   -23.102	-0.000454198	  -23.0317	-0.000446526	  -23.0731	-0.0004592	  -23.0731	    -11.48	
  -23.1287	-0.000479817	  -23.1449	-0.000456944	  -23.0733	-0.000449543	  -23.1156	-0.000462102	  -23.1156	  -11.5525	
  -23.1703	-0.000482737	  -23.1869	-0.000459723	  -23.1139	-0.000452513	   -23.157	-0.000464991	   -23.157	  -11.6248	
   -23.211	-0.000485638	   -23.228	-0.000462475	   -23.154	-0.000455462	  -23.1977	-0.000467858	  -23.1977	  -11.6965	
  -23.2509	-0.000488518	  -23.2675	-0.00046514	  -23.1933	-0.0004584	  -23.2372	-0.000470686	  -23.2372	  -11.7671	
  -23.2894	-0.00049137	   -23.307	-0.000467702	  -23.2308	-0.000461346	  -23.2757	-0.000473472	  -23.2757	  -11.8368	
  -23.3277	-0.000494187	   -23.345	-0.0004702	  -23.2674	-0.00046433	  -23.3134	-0.000476239	  -23.3134	   -11.906	
  -23.3656	-0.00049696	  -23.3818	-0.000472698	  -23.3033	-0.000467281	  -23.3502	-0.00047898	  -23.3502	  -11.9745	
  -23.4026	-0.000499687	  -23.4178	-0.000475248	  -23.3382	-0.000470165	  -23.3862	-0.0004817	  -23.3862	  -12.0425	
  -23.4387	-0.000502377	  -23.4529	-0.000477844	  -23.3725	-0.000472896	  -23.4214	-0.000484372	  -23.4214	  -12.1093	
  -23.4742	-0.000505041	  -23.4867	-0.000480432	  -23.4061	-0.000475484	  -23.4557	-0.000486986	  -23.4557	  -12.1746	
  -23.5094	-0.00050769	  -23.5192	-0.000482921	  -23.4393	-0.000478007	  -23.4893	-0.000489539	  -23.4893	  -12.2385	
  -23.5433	-0.000510329	  -23.5503	-0.000485297	   -23.471	-0.000480552	  -23.5216	-0.00049206	  -23.5216	  -12.3015	
  -23.5755	-0.000512943	  -23.5812	-0.000487565	  -23.5019	-0.000483226	  -23.5529	-0.000494578	  -23.5529	  -12.3645	
  -23.6062	-0.000515516	  -23.6111	-0.000489778	  -23.5323	-0.000486021	  -23.5832	-0.000497105	  -23.5832	  -12.4276	
  -23.6361	-0.000518033	  -23.6398	-0.000492022	  -23.5613	-0.000488871	  -23.6124	-0.000499642	  -23.6124	  -12.4911	
  -23.6648	-0.000520493	  -23.6678	-0.000494334	  -23.5902	-0.000491645	  -23.6409	-0.000502158	  -23.6409	  -12.5539	
  -23.6928	-0.000522911	  -23.6954	-0.000496729	  -23.6183	-0.00049424	  -23.6688	-0.000504626	  -23.6688	  -12.6157	
  -23.7192	-0.000525302	  -23.7217	-0.000499139	  -23.6458	-0.000496644	  -23.6956	-0.000507028	  -23.6956	  -12.6757	
  -23.7441	-0.000527681	  -23.7472	-0.000501496	  -23.6725	-0.00049893	  -23.7213	-0.000509369	  -23.7213	  -12.7342	
  -23.7683	-0.000530055	  -23.7716	-0.000503732	  -23.6984	-0.000501237	  -23.7461	-0.000511675	  -23.7461	  -12.7919	
   -23.792	-0.00053241	  -23.7957	-0.000505831	  -23.7232	-0.000503648	  -23.7703	-0.000513963	  -23.7703	  -12.8491	
  -23.8148	-0.000534732	  -23.8193	-0.00050785	  -23.7475	-0.000506172	  -23.7938	-0.000516251	  -23.7938	  -12.9063	
  -23.8371	-0.00053701	  -23.8415	-0.000509867	  -23.7706	-0.000508739	  -23.8164	-0.000518539	  -23.8164	  -12.9635	
  -23.8586	-0.000539236	  -23.8636	-0.000511972	  -23.7925	-0.00051126	  -23.8382	-0.000520823	  -23.8382	  -13.0206	
  -23.8791	-0.000541427	  -23.8839	-0.000514162	  -23.8136	-0.000513655	  -23.8589	-0.000523081	  -23.8589	   -13.077	
  -23.8988	-0.000543591	   -23.903	-0.000516413	  -23.8336	-0.000515883	  -23.8785	-0.000525295	  -23.8785	  -13.1324	
  -23.9176	-0.000545739	  -23.9216	-0.000518591	  -23.8531	-0.000517975	  -23.8974	-0.000527435	  -23.8974	  -13.1859	
  -23.9354	-0.000547881	  -23.9389	-0.000520612	  -23.8718	-0.00052007	  -23.9154	-0.000529521	  -23.9154	   -13.238	
  -23.9531	-0.000550004	  -23.9554	-0.000522457	   -23.889	-0.00052229	  -23.9325	-0.000531584	  -23.9325	  -13.2896	
  -23.9699	-0.000552097	  -23.9706	-0.000524176	  -23.9054	-0.000524663	  -23.9486	-0.000533645	  -23.9486	  -13.3411	
  -23.9861	-0.000554141	  -23.9844	-0.000525926	  -23.9211	-0.000527101	  -23.9639	-0.000535723	  -23.9639	  -13.3931	
  -24.0018	-0.000556157	  -23.9975	-0.000527799	  -23.9363	-0.000529458	  -23.9785	-0.000537805	  -23.9785	  -13.4451	
  -24.0158	-0.000558166	  -24.0095	-0.000529831	  -23.9515	-0.000531643	  -23.9923	-0.00053988	  -23.9923	   -13.497	
  -24.0291	-0.000560177	  -24.0205	-0.000531945	  -23.9665	-0.000533611	  -24.0054	-0.000541911	  -24.0054	  -13.5478	
  -24.0411	-0.000562178	  -24.0299	-0.000533992	  -23.9814	-0.000535442	  -24.0175	-0.000543871	  -24.0175	  -13.5968	
  -24.0528	-0.000564151	  -24.0384	-0.000535873	  -23.9957	-0.000537261	   -24.029	-0.000545762	   -24.029	   -13.644	
  -24.0626	-0.000566089	  -24.0461	-0.000537551	  -24.0078	-0.000539173	  -24.0388	-0.000547604	  -24.0388	  -13.6901	
  -24.0715	-0.000567977	  -24.0527	-0.000539105	  -24.0177	-0.00054123	  -24.0473	-0.000549437	  -24.0473	  -13.7359	
  -24.0797	-0.000569874	  -24.0586	-0.000540667	  -24.0264	-0.000543371	  -24.0549	-0.000551304	  -24.0549	  -13.7826	
  -24.0864	-0.00057175	  -24.0641	-0.000542339	  -24.0338	-0.000545525	  -24.0615	-0.000553205	  -24.0615	  -13.8301	
  -24.0923	-0.000573665	  -24.0687	-0.000544153	  -24.0388	-0.00054756	  -24.0666	-0.000555126	  -24.0666	  -13.8781	
  -24.0974	-0.000575553	   -24.072	-0.000546037	  -24.0431	-0.000549415	  -24.0708	-0.000557001	  -24.0708	   -13.925	
  -24.1011	-0.000577408	  -24.0741	-0.000547871	  -24.0455	-0.000551146	  -24.0736	-0.000558808	  -24.0736	  -13.9702	
  -24.1035	-0.000579248	  -24.0752	-0.000549558	  -24.0485	-0.000552786	  -24.0757	-0.000560531	  -24.0757	  -14.0133	
  -24.1051	-0.000581007	  -24.0756	-0.00055107	  -24.0497	-0.000554418	  -24.0768	-0.000562165	  -24.0768	  -14.0541	
  -24.1055	-0.000582722	  -24.0747	-0.000552464	  -24.0516	-0.0005561	  -24.0773	-0.000563762	  -24.0773	  -14.0941	
  -24.1049	-0.000584374	  -24.0719	-0.000553847	  -24.0517	-0.000557849	  -24.0762	-0.000565357	  -24.0762	  -14.1339	
  -24.1038	-0.000586013	  -24.0689	-0.000555302	  -24.0516	-0.000559642	  -24.0748	-0.000566986	  -24.0748	  -14.1746	
  -24.1017	-0.000587675	  -24.0652	-0.000556858	  -24.0493	-0.000561391	  -24.0721	-0.000568641	  -24.0721	   -14.216	
  -24.0992	-0.000589346	  -24.0603	-0.000558461	  -24.0462	-0.000563034	  -24.0685	-0.00057028	  -24.0685	   -14.257	
  -24.0959	-0.000591052	  -24.0543	-0.000560017	  -24.0422	-0.000564555	  -24.0641	-0.000571875	  -24.0641	  -14.2969	
  -24.0919	-0.000592741	  -24.0476	-0.000561445	  -24.0376	-0.000565991	   -24.059	-0.000573392	   -24.059	  -14.3348	
  -24.0867	-0.000594407	  -24.0407	-0.000562723	  -24.0322	-0.000567424	  -24.0532	-0.000574851	  -24.0532	  -14.3713	
  -24.0803	-0.000596052	  -24.0329	-0.000563904	  -24.0258	-0.000568912	  -24.0463	-0.000576289	  -24.0463	  -14.4072	
  -24.0732	-0.000597688	  -24.0246	-0.00056508	   -24.018	-0.000570464	  -24.0386	-0.000577744	  -24.0386	  -14.4436	
  -24.0652	-0.000599257	  -24.0154	-0.000566331	  -24.0095	-0.000572032	    -24.03	-0.000579207	    -24.03	  -14.4802	
  -24.0566	-0.000600759	  -24.0059	-0.000567672	  -23.9995	-0.000573546	  -24.0207	-0.000580659	  -24.0207	  -14.5165	
  -24.0466	-0.000602152	  -23.9945	-0.000569056	  -23.9883	-0.000574966	  -24.0098	-0.000582058	  -24.0098	  -14.5514	
  -24.0353	-0.000603458	  -23.9821	-0.000570388	  -23.9767	-0.000576289	   -23.998	-0.000583378	   -23.998	  -14.5845	
  -24.0236	-0.000604766	  -23.9691	-0.000571596	  -23.9645	-0.000577555	  -23.9857	-0.000584639	  -23.9857	   -14.616	
  -24.0111	-0.000606139	  -23.9554	-0.000572666	  -23.9509	-0.000578819	  -23.9725	-0.000585875	  -23.9725	  -14.6469	
  -23.9977	-0.000607654	  -23.9403	-0.00057365	  -23.9363	-0.000580117	  -23.9581	-0.00058714	  -23.9581	  -14.6785	
  -23.9835	-0.000609269	  -23.9244	-0.000574636	  -23.9207	-0.000581451	  -23.9429	-0.000588452	  -23.9429	  -14.7113	
  -23.9675	-0.000610871	  -23.9074	-0.00057569	  -23.9043	-0.000582794	  -23.9264	-0.000589785	  -23.9264	  -14.7446	
  -23.9504	-0.000612344	  -23.8895	-0.000576826	  -23.8872	-0.000584107	   -23.909	-0.000591092	   -23.909	  -14.7773	
  -23.9322	-0.000613587	  -23.8709	-0.000577998	  -23.8688	-0.000585352	  -23.8907	-0.000592312	  -23.8907	  -14.8078	
  -23.9135	-0.000614634	  -23.8513	-0.000579123	  -23.8494	-0.000586516	  -23.8714	-0.000593424	  -23.8714	  -14.8356	
  -23.8944	-0.000615605	  -23.8305	-0.00058014	  -23.8298	-0.000587626	  -23.8516	-0.000594457	  -23.8516	  -14.8614	
  -23.8753	-0.000616639	  -23.8095	-0.000581038	  -23.8086	-0.000588723	  -23.8311	-0.000595467	  -23.8311	  -14.8867	
  -23.8557	-0.000617835	  -23.7879	-0.000581864	  -23.7865	-0.000589842	    -23.81	-0.000596514	    -23.81	  -14.9128	
  -23.8356	-0.000619182	  -23.7648	-0.000582693	  -23.7639	-0.000590998	  -23.7881	-0.000597624	  -23.7881	  -14.9406	
  -23.8134	-0.000620555	  -23.7409	-0.000583583	  -23.7413	-0.000592161	  -23.7652	-0.000598766	  -23.7652	  -14.9692	
  -23.7904	-0.000621851	  -23.7155	-0.000584544	  -23.7174	-0.000593286	  -23.7411	-0.000599894	  -23.7411	  -14.9973	
  -23.7651	-0.000622941	  -23.6897	-0.000585537	  -23.6928	-0.000594341	  -23.7159	-0.000600939	  -23.7159	  -15.0235	
  -23.7382	-0.000623869	  -23.6627	-0.000586481	  -23.6673	-0.000595324	  -23.6894	-0.000601891	  -23.6894	  -15.0473	
  -23.7104	-0.000624717	  -23.6349	-0.000587308	   -23.641	-0.000596266	  -23.6621	-0.000602764	  -23.6621	  -15.0691	
  -23.6803	-0.000625596	  -23.6068	-0.000588002	  -23.6134	-0.000597205	  -23.6335	-0.000603601	  -23.6335	    -15.09	
  -23.6495	-0.000626599	  -23.5777	-0.000588607	  -23.5847	-0.000598167	   -23.604	-0.000604458	   -23.604	  -15.1114	
  -23.6176	-0.000627707	  -23.5479	-0.000589209	  -23.5551	-0.000599153	  -23.5735	-0.000605356	  -23.5735	  -15.1339	
  -23.5855	-0.000628851	  -23.5168	-0.000589872	  -23.5249	-0.000600134	  -23.5424	-0.000606286	  -23.5424	  -15.1571	
  -23.5521	-0.000629907	  -23.4847	-0.00059063	  -23.4931	-0.000601073	    -23.51	-0.000607203	    -23.51	  -15.1801	
  -23.5175	-0.000630792	  -23.4515	-0.000591434	  -23.4597	-0.000601945	  -23.4762	-0.000608057	  -23.4762	  -15.2014	
  -23.4815	-0.000631514	  -23.4173	-0.000592182	  -23.4255	-0.000602749	  -23.4414	-0.000608815	  -23.4414	  -15.2204	
  -23.4444	-0.000632144	  -23.3807	-0.000592815	  -23.3912	-0.000603501	  -23.4054	-0.000609487	  -23.4054	  -15.2372	
   -23.406	-0.000632793	  -23.3436	-0.000593334	  -23.3558	-0.000604236	  -23.3685	-0.000610121	  -23.3685	   -15.253	
  -23.3663	-0.00063354	  -23.3053	-0.000593813	  -23.3189	-0.000604978	  -23.3302	-0.000610777	  -23.3302	  -15.2694	
  -23.3256	-0.000634379	  -23.2657	-0.000594329	   -23.281	-0.000605737	  -23.2908	-0.000611482	  -23.2908	  -15.2871	
  -23.2839	-0.000635249	  -23.2246	-0.000594922	  -23.2425	-0.000606499	  -23.2503	-0.000612223	  -23.2503	  -15.3056	
  -23.2413	-0.000636042	  -23.1828	-0.00059557	  -23.2027	-0.000607237	  -23.2089	-0.00061295	  -23.2089	  -15.3237	
   -23.198	-0.00063669	  -23.1403	-0.000596218	  -23.1617	-0.000607924	  -23.1667	-0.000613611	  -23.1667	  -15.3403	
  -23.1538	-0.000637193	  -23.0974	-0.000596781	  -23.1203	-0.000608575	  -23.1238	-0.000614183	  -23.1238	  -15.3546	
   -23.109	-0.000637616	  -23.0532	-0.000597224	  -23.0781	-0.00060915	  -23.0801	-0.000614663	  -23.0801	  -15.3666	
  -23.0638	-0.000638055	  -23.0085	-0.000597549	  -23.0349	-0.000609668	  -23.0357	-0.00061509	  -23.0357	  -15.3773	
  -23.0177	-0.000638569	  -22.9627	-0.000597824	  -22.9907	-0.000610138	  -22.9903	-0.00061551	  -22.9903	  -15.3878	
   -22.971	-0.000639157	   -22.916	-0.000598118	  -22.9452	-0.000610577	  -22.9441	-0.00061595	  -22.9441	  -15.3988	
  -22.9238	-0.000639759	  -22.8684	-0.000598468	  -22.8986	-0.00061105	  -22.8969	-0.000616426	  -22.8969	  -15.4106	
  -22.8761	-0.000640297	  -22.8201	-0.000598881	  -22.8506	-0.000611564	  -22.8489	-0.000616914	  -22.8489	  -15.4228	
  -22.8277	-0.000640716	  -22.7706	-0.000599262	  -22.8013	-0.000612117	  -22.7999	-0.000617365	  -22.7999	  -15.4341	
  -22.7788	-0.000641019	  -22.7207	-0.000599582	  -22.7516	-0.000612667	  -22.7504	-0.000617756	  -22.7504	  -15.4439	
  -22.7294	-0.000641265	  -22.6701	-0.000599825	  -22.7013	-0.000613112	  -22.7003	-0.000618067	  -22.7003	  -15.4517	
  -22.6797	-0.000641529	  -22.6192	-0.000600044	  -22.6501	-0.000613449	  -22.6497	-0.000618341	  -22.6497	  -15.4585	
  -22.6284	-0.000641866	  -22.5673	-0.000600299	  -22.5982	-0.000613702	   -22.598	-0.000618622	   -22.598	  -15.4656	
   -22.576	-0.000642269	  -22.5142	-0.000600621	  -22.5455	-0.000613968	  -22.5452	-0.000618953	  -22.5452	  -15.4738	
  -22.5223	-0.000642679	  -22.4598	-0.000601022	  -22.4926	-0.000614306	  -22.4915	-0.000619336	  -22.4915	  -15.4834	
   -22.468	-0.000643022	  -22.4043	-0.000601416	  -22.4387	-0.000614717	   -22.437	-0.000619719	   -22.437	   -15.493	
  -22.4127	-0.000643248	  -22.3481	-0.000601731	  -22.3837	-0.00061518	  -22.3815	-0.000620053	  -22.3815	  -15.5013	
  -22.3562	-0.000643367	  -22.2912	-0.000601919	  -22.3276	-0.000615588	   -22.325	-0.000620291	   -22.325	  -15.5073	
  -22.2991	-0.000643439	  -22.2333	-0.000602002	  -22.2706	-0.000615877	  -22.2677	-0.000620439	  -22.2677	   -15.511	
   -22.241	-0.000643477	  -22.1749	-0.000602063	  -22.2121	-0.000616026	  -22.2093	-0.000620522	  -22.2093	  -15.5131	
   -22.182	-0.000643575	  -22.1151	-0.000602182	  -22.1527	-0.000616086	  -22.1499	-0.000620614	  -22.1499	  -15.5154	
  -22.1224	-0.000643739	  -22.0539	-0.000602404	  -22.0927	-0.000616162	  -22.0897	-0.000620768	  -22.0897	  -15.5192	
  -22.0625	-0.000643966	  -21.9917	-0.000602696	   -22.032	-0.000616318	  -22.0288	-0.000620993	  -22.0288	  -15.5248	
  -22.0021	-0.000644192	  -21.9285	-0.000602978	  -21.9706	-0.000616572	  -21.9671	-0.000621247	  -21.9671	  -15.5312	
  -21.9408	-0.00064433	  -21.8642	-0.000603174	  -21.9081	-0.000616873	  -21.9044	-0.000621459	  -21.9044	  -15.5365	
  -21.8783	-0.000644342	  -21.7988	-0.00060324	  -21.8444	-0.000617138	  -21.8405	-0.000621573	  -21.8405	  -15.5393	
  -21.8145	-0.000644214	  -21.7323	-0.000603209	  -21.7806	-0.000617305	  -21.7758	-0.000621576	  -21.7758	  -15.5394	
  -21.7494	-0.000644018	   -21.665	-0.000603143	  -21.7158	-0.000617355	  -21.7101	-0.000621505	  -21.7101	  -15.5376	
  -21.6837	-0.000643822	  -21.5973	-0.000603119	  -21.6501	-0.000617327	  -21.6437	-0.000621423	  -21.6437	  -15.5356	
  -21.6167	-0.000643686	  -21.5287	-0.000603176	  -21.5837	-0.000617289	  -21.5764	-0.000621384	  -21.5764	  -15.5346	
  -21.5491	-0.000643623	  -21.4592	-0.000603284	  -21.5167	-0.000617304	  -21.5083	-0.000621404	  -21.5083	  -15.5351	
  -21.4808	-0.000643587	  -21.3892	-0.000603384	  -21.4486	-0.000617391	  -21.4395	-0.000621454	  -21.4395	  -15.5363	
  -21.4114	-0.000643519	  -21.3182	-0.000603404	  -21.3798	-0.000617516	  -21.3698	-0.00062148	  -21.3698	   -15.537	
   -21.341	-0.000643366	  -21.2466	-0.000603311	  -21.3106	-0.00061762	  -21.2994	-0.000621432	  -21.2994	  -15.5358	
  -21.2689	-0.000643123	  -21.1741	-0.000603128	  -21.2409	-0.000617646	  -21.2279	-0.000621299	  -21.2279	  -15.5325	
  -21.1961	-0.000642827	  -21.1009	-0.000602915	  -21.1703	-0.00061758	  -21.1558	-0.000621107	  -21.1558	  -15.5277	
  -21.1223	-0.000642534	  -21.0264	-0.000602743	  -21.0992	-0.000617455	  -21.0826	-0.000620911	  -21.0826	  -15.5228	
  -21.0479	-0.000642282	   -20.951	-0.000602641	  -21.0272	-0.00061733	  -21.0087	-0.000620751	  -21.0087	  -15.5188	
  -20.9731	-0.000642072	  -20.8749	-0.00060258	  -20.9543	-0.000617256	  -20.9341	-0.000620636	  -20.9341	  -15.5159	
  -20.8976	-0.000641874	  -20.7976	-0.000602499	  -20.8804	-0.000617242	  -20.8585	-0.000620539	  -20.8585	  -15.5135	
  -20.8221	-0.00064164	    -20.72	-0.000602342	   -20.806	-0.000617253	  -20.7827	-0.000620412	  -20.7827	  -15.5103	
  -20.7451	-0.000641341	  -20.6418	-0.000602086	  -20.7307	-0.000617232	  -20.7059	-0.000620219	  -20.7059	  -15.5055	
  -20.6671	-0.000640978	   -20.563	-0.000601763	  -20.6544	-0.000617136	  -20.6282	-0.000619959	  -20.6282	   -15.499	
   -20.588	-0.000640588	  -20.4843	-0.000601423	  -20.5768	-0.000616964	  -20.5497	-0.000619659	  -20.5497	  -15.4915	
  -20.5082	-0.000640209	  -20.4045	-0.000601127	  -20.4981	-0.000616751	  -20.4703	-0.000619363	  -20.4703	  -15.4841	
  -20.4278	-0.000639869	  -20.3238	-0.000600888	  -20.4182	-0.000616549	  -20.3899	-0.000619102	  -20.3899	  -15.4775	
  -20.3468	-0.000639564	  -20.2427	-0.000600721	  -20.3375	-0.000616376	   -20.309	-0.000618887	   -20.309	  -15.4722	
  -20.2651	-0.000639269	  -20.1611	-0.000600594	  -20.2561	-0.000616176	  -20.2274	-0.00061868	  -20.2274	   -15.467	
  -20.1831	-0.000638942	  -20.0788	-0.000600406	  -20.1736	-0.000615963	  -20.1452	-0.000618437	  -20.1452	  -15.4609	
  -20.1001	-0.000638552	  -19.9959	-0.000600044	  -20.0901	-0.000615747	   -20.062	-0.000618114	   -20.062	  -15.4529	
  -20.0172	-0.000638108	  -19.9121	-0.000599483	  -20.0055	-0.000615573	  -19.9783	-0.000617721	  -19.9783	   -15.443	
  -19.9333	-0.000637633	   -19.828	-0.000598816	  -19.9204	-0.000615428	  -19.8939	-0.000617292	  -19.8939	  -15.4323	
  -19.8484	-0.000637171	   -19.743	-0.00059816	   -19.834	-0.00061529	  -19.8085	-0.000616874	  -19.8085	  -15.4218	
   -19.763	-0.000636746	  -19.6571	-0.00059766	  -19.7465	-0.000615141	  -19.7222	-0.000616516	  -19.7222	  -15.4129	
  -19.6766	-0.00063635	  -19.5704	-0.000597356	  -19.6582	-0.000614905	  -19.6351	-0.000616204	  -19.6351	  -15.4051	
  -19.5895	-0.000635955	  -19.4829	-0.000597186	  -19.5691	-0.000614576	  -19.5472	-0.000615906	  -19.5472	  -15.3976	
  -19.5012	-0.000635527	  -19.3946	-0.000597004	   -19.479	-0.000614156	  -19.4583	-0.000615563	  -19.4583	  -15.3891	
  -19.4121	-0.000635049	  -19.3057	-0.000596648	  -19.3887	-0.000613696	  -19.3688	-0.000615131	  -19.3688	  -15.3783	
  -19.3224	-0.000634529	  -19.2157	-0.000596072	  -19.2978	-0.000613277	  -19.2786	-0.000614626	  -19.2786	  -15.3656	
  -19.2317	-0.000633986	  -19.1255	-0.00059532	  -19.2049	-0.000612926	  -19.1874	-0.000614077	  -19.1874	  -15.3519	
  -19.1397	-0.000633449	  -19.0343	-0.000594543	   -19.111	-0.000612653	   -19.095	-0.000613548	   -19.095	  -15.3387	
  -19.0466	-0.00063294	  -18.9419	-0.00059387	  -19.0167	-0.000612386	  -19.0018	-0.000613065	  -19.0018	  -15.3266	
  -18.9528	-0.000632449	  -18.8492	-0.000593344	  -18.9211	-0.000612057	  -18.9077	-0.000612617	  -18.9077	  -15.3154	
  -18.8583	-0.000631956	  -18.7556	-0.000592926	  -18.8254	-0.000611634	  -18.8131	-0.000612172	  -18.8131	  -15.3043	
  -18.7625	-0.000631431	  -18.6611	-0.000592501	  -18.7281	-0.000611114	  -18.7172	-0.000611682	  -18.7172	   -15.292	
  -18.6659	-0.000630845	  -18.5656	-0.000591982	  -18.6305	-0.000610553	  -18.6207	-0.000611127	  -18.6207	  -15.2782	
  -18.5685	-0.000630206	  -18.4699	-0.000591327	  -18.5322	-0.000610003	  -18.5236	-0.000610512	  -18.5236	  -15.2628	
  -18.4701	-0.000629536	  -18.3738	-0.000590526	  -18.4334	-0.000609513	  -18.4258	-0.000609858	  -18.4258	  -15.2465	
  -18.3712	-0.000628866	  -18.2768	-0.000589699	  -18.3333	-0.000609088	  -18.3271	-0.000609218	  -18.3271	  -15.2305	
  -18.2717	-0.00062822	  -18.1785	-0.000588912	  -18.2329	-0.00060868	  -18.2277	-0.000608604	  -18.2277	  -15.2151	
  -18.1715	-0.000627595	  -18.0796	-0.000588244	  -18.1328	-0.000608232	   -18.128	-0.000608024	   -18.128	  -15.2006	
  -18.0708	-0.000626976	  -17.9802	-0.000587703	  -18.0316	-0.000607699	  -18.0276	-0.000607459	  -18.0276	  -15.1865	
  -17.9682	-0.00062633	    -17.88	-0.000587199	  -17.9293	-0.000607079	  -17.9258	-0.000606869	  -17.9258	  -15.1717	
  -17.8651	-0.000625631	  -17.7791	-0.000586653	  -17.8268	-0.000606418	  -17.8237	-0.000606234	  -17.8237	  -15.1558	
  -17.7613	-0.000624878	  -17.6776	-0.000585954	  -17.7235	-0.000605779	  -17.7208	-0.000605537	  -17.7208	  -15.1384	
  -17.6566	-0.000624088	  -17.5759	-0.000585117	  -17.6189	-0.000605211	  -17.6171	-0.000604805	  -17.6171	  -15.1201	
  -17.5509	-0.000623287	   -17.473	-0.000584179	  -17.5135	-0.00060471	  -17.5125	-0.000604059	  -17.5125	  -15.1015	
  -17.4443	-0.000622503	  -17.3691	-0.000583244	  -17.4074	-0.000604218	  -17.4069	-0.000603322	  -17.4069	   -15.083	
   -17.337	-0.00062174	  -17.2646	-0.000582384	   -17.301	-0.000603664	  -17.3008	-0.000602596	  -17.3008	  -15.0649	
  -17.2289	-0.000620985	  -17.1592	-0.000581617	  -17.1933	-0.000603002	  -17.1938	-0.000601868	  -17.1938	  -15.0467	
    -17.12	-0.000620212	  -17.0531	-0.000580924	  -17.0852	-0.00060224	  -17.0861	-0.000601125	  -17.0861	  -15.0281	
  -17.0102	-0.000619401	  -16.9468	-0.000580243	  -16.9761	-0.000601499	  -16.9777	-0.000600381	  -16.9777	  -15.0095	
     -16.9	-0.000618538	  -16.8392	-0.00057952	  -16.8669	-0.000600805	  -16.8687	-0.000599621	  -16.8687	  -14.9905	
  -16.7893	-0.000617622	  -16.7311	-0.000578724	  -16.7565	-0.000600171	   -16.759	-0.000598839	   -16.759	   -14.971	
  -16.6777	-0.00061668	  -16.6221	-0.00057785	  -16.6451	-0.000599542	  -16.6483	-0.000598024	  -16.6483	  -14.9506	
   -16.565	-0.000615748	  -16.5123	-0.000576935	  -16.5332	-0.000598851	  -16.5368	-0.000597178	  -16.5368	  -14.9295	
  -16.4512	-0.000614841	  -16.4013	-0.000576016	   -16.421	-0.000598085	  -16.4245	-0.000596314	  -16.4245	  -14.9079	
  -16.3373	-0.000613941	  -16.2898	-0.000575128	  -16.3081	-0.000597219	  -16.3117	-0.000595429	  -16.3117	  -14.8857	
  -16.2226	-0.000613021	  -16.1774	-0.000574275	   -16.194	-0.000596348	   -16.198	-0.000594548	   -16.198	  -14.8637	
  -16.1077	-0.000612112	  -16.0644	-0.000573437	  -16.0803	-0.000595522	  -16.0841	-0.00059369	  -16.0841	  -14.8423	
  -15.9922	-0.000611168	  -15.9498	-0.000572581	  -15.9666	-0.000594762	  -15.9695	-0.000592837	  -15.9695	  -14.8209	
  -15.8763	-0.000610234	  -15.8352	-0.000571676	  -15.8516	-0.000594053	  -15.8544	-0.000591988	  -15.8544	  -14.7997	
  -15.7598	-0.000609297	  -15.7196	-0.000570717	  -15.7359	-0.000593316	  -15.7384	-0.00059111	  -15.7384	  -14.7777	
  -15.6428	-0.000608315	   -15.603	-0.00056972	  -15.6196	-0.000592497	  -15.6218	-0.000590177	  -15.6218	  -14.7544	
   -15.525	-0.000607295	   -15.486	-0.000568719	  -15.5025	-0.000591541	  -15.5045	-0.000589185	  -15.5045	  -14.7296	
  -15.4068	-0.000606206	  -15.3678	-0.000567735	  -15.3845	-0.000590505	  -15.3863	-0.000588149	  -15.3863	  -14.7037	
   -15.288	-0.000605081	  -15.2486	-0.00056677	  -15.2655	-0.000589428	  -15.2674	-0.000587093	  -15.2674	  -14.6773	
  -15.1683	-0.000603941	  -15.1286	-0.000565803	  -15.1463	-0.000588424	  -15.1477	-0.000586056	  -15.1477	  -14.6514	
  -15.0481	-0.000602797	  -15.0086	-0.000564809	  -15.0272	-0.000587532	   -15.028	-0.000585046	   -15.028	  -14.6262	
  -14.9272	-0.000601681	  -14.8883	-0.000563775	  -14.9069	-0.000586736	  -14.9075	-0.000584064	  -14.9075	  -14.6016	
  -14.8058	-0.000600622	  -14.7673	-0.000562697	  -14.7864	-0.000585972	  -14.7865	-0.000583097	  -14.7865	  -14.5774	
   -14.684	-0.000599625	  -14.6449	-0.000561596	   -14.665	-0.000585095	  -14.6646	-0.000582105	  -14.6646	  -14.5526	
  -14.5616	-0.000598681	  -14.5221	-0.000560488	   -14.543	-0.000584042	  -14.5422	-0.00058107	  -14.5422	  -14.5268	
  -14.4388	-0.000597743	   -14.399	-0.000559391	  -14.4207	-0.000582812	  -14.4195	-0.000579982	  -14.4195	  -14.4995	
   -14.315	-0.000596735	  -14.2754	-0.000558305	  -14.2981	-0.000581508	  -14.2962	-0.000578849	  -14.2962	  -14.4712	
    -14.19	-0.000595629	  -14.1511	-0.000557221	  -14.1752	-0.000580267	  -14.1721	-0.000577706	  -14.1721	  -14.4426	
  -14.0648	-0.000594397	  -14.0259	-0.00055612	  -14.0525	-0.000579167	  -14.0477	-0.000576562	  -14.0477	   -14.414	
  -13.9391	-0.000593122	  -13.9011	-0.000554989	   -13.929	-0.000578209	  -13.9231	-0.00057544	  -13.9231	   -14.386	
  -13.8128	-0.000591923	   -13.776	-0.000553828	  -13.8054	-0.000577289	  -13.7981	-0.000574347	  -13.7981	  -14.3587	
  -13.6857	-0.000590859	  -13.6494	-0.000552647	  -13.6809	-0.000576278	   -13.672	-0.000573261	   -13.672	  -14.3315	
  -13.5576	-0.000589882	  -13.5226	-0.000551463	  -13.5562	-0.000575095	  -13.5455	-0.000572147	  -13.5455	  -14.3037	
  -13.4291	-0.000588829	  -13.3954	-0.000550285	  -13.4306	-0.000573748	  -13.4184	-0.000570954	  -13.4184	  -14.2738	
  -13.3003	-0.000587634	  -13.2672	-0.000549115	  -13.3044	-0.000572334	  -13.2907	-0.000569694	  -13.2907	  -14.2424	
  -13.1715	-0.000586281	  -13.1379	-0.000547941	  -13.1778	-0.000570975	  -13.1624	-0.000568399	  -13.1624	    -14.21	
  -13.0422	-0.000584818	  -13.0074	-0.000546749	  -13.0505	-0.000569753	  -13.0334	-0.000567107	  -13.0334	  -14.1777	
  -12.9125	-0.000583384	  -12.8773	-0.000545529	   -12.922	-0.000568659	  -12.9039	-0.000565857	  -12.9039	  -14.1464	
  -12.7821	-0.000582078	  -12.7469	-0.000544283	  -12.7926	-0.000567603	  -12.7739	-0.000564655	  -12.7739	  -14.1164	
  -12.6512	-0.000580961	  -12.6162	-0.000543022	  -12.6628	-0.000566469	  -12.6434	-0.000563484	  -12.6434	  -14.0871	
  -12.5203	-0.000579956	  -12.4849	-0.000541762	  -12.5331	-0.000565187	  -12.5128	-0.000562301	  -12.5128	  -14.0575	
  -12.3896	-0.000578911	  -12.3536	-0.000540505	   -12.403	-0.000563759	   -12.382	-0.000561058	   -12.382	  -14.0265	
  -12.2581	-0.000577702	   -12.222	-0.00053925	  -12.2726	-0.000562275	  -12.2509	-0.000559742	  -12.2509	  -13.9936	
   -12.126	-0.000576265	  -12.0899	-0.000537984	   -12.141	-0.000560842	   -12.119	-0.000558364	   -12.119	  -13.9591	
  -11.9936	-0.000574688	  -11.9573	-0.000536698	  -12.0092	-0.000559529	  -11.9867	-0.000556972	  -11.9867	  -13.9243	
  -11.8607	-0.000573103	  -11.8245	-0.000535387	  -11.8766	-0.00055833	  -11.8539	-0.000555606	  -11.8539	  -13.8902	
   -11.727	-0.000571632	  -11.6912	-0.000534054	  -11.7435	-0.000557159	  -11.7206	-0.000554281	  -11.7206	   -13.857	
  -11.5929	-0.000570324	  -11.5574	-0.000532709	  -11.6096	-0.000555915	  -11.5866	-0.000552983	  -11.5866	  -13.8246	
  -11.4584	-0.000569105	  -11.4224	-0.00053136	  -11.4763	-0.000554533	  -11.4524	-0.000551666	  -11.4524	  -13.7916	
  -11.3241	-0.000567871	  -11.2874	-0.00053001	  -11.3422	-0.00055302	  -11.3179	-0.0005503	  -11.3179	  -13.7575	
  -11.1892	-0.000566507	  -11.1522	-0.000528658	  -11.2069	-0.00055146	  -11.1827	-0.000548875	  -11.1827	  -13.7219	
  -11.0537	-0.00056497	  -11.0166	-0.000527291	  -11.0716	-0.000549951	  -11.0473	-0.000547404	  -11.0473	  -13.6851	
   -10.918	-0.000563316	  -10.8806	-0.0005259	  -10.9361	-0.000548553	  -10.9116	-0.000545923	  -10.9116	  -13.6481	
  -10.7818	-0.000561634	  -10.7445	-0.000524484	     -10.8	-0.000547249	  -10.7754	-0.000544455	  -10.7754	  -13.6114	
  -10.6449	-0.000560024	  -10.6072	-0.000523047	  -10.6634	-0.000545954	  -10.6385	-0.000543008	  -10.6385	  -13.5752	
   -10.508	-0.000558516	    -10.47	-0.000521599	  -10.5266	-0.000544584	  -10.5016	-0.000541566	  -10.5016	  -13.5392	
  -10.3706	-0.000557073	  -10.3321	-0.000520191	  -10.3893	-0.000543098	   -10.364	-0.000540121	   -10.364	   -13.503	
  -10.2323	-0.000555615	  -10.1939	-0.000518807	  -10.2518	-0.000541533	   -10.226	-0.000538651	   -10.226	  -13.4663	
  -10.0936	-0.00055405	  -10.0556	-0.000517415	  -10.1128	-0.000539962	  -10.0873	-0.000537142	  -10.0873	  -13.4286	
  -9.95492	-0.000552354	  -9.91642	-0.000515951	  -9.97371	-0.000538457	  -9.94835	-0.000535587	  -9.94835	  -13.3897	
  -9.81608	-0.000550558	  -9.77692	-0.0005144	  -9.83467	-0.000537043	  -9.80922	-0.000534001	  -9.80922	    -13.35	
  -9.67727	-0.000548742	  -9.63727	-0.000512782	   -9.6948	-0.00053567	  -9.66978	-0.000532398	  -9.66978	  -13.3099	
  -9.53796	-0.000546986	  -9.49732	-0.000511133	  -9.55469	-0.000534266	  -9.52999	-0.000530795	  -9.52999	  -13.2699	
  -9.39837	-0.000545321	  -9.35657	-0.000509541	  -9.41384	-0.00053277	  -9.38959	-0.000529211	  -9.38959	  -13.2303	
  -9.25798	-0.000543713	  -9.21594	-0.000508032	  -9.27248	-0.000531159	   -9.2488	-0.000527635	   -9.2488	  -13.1909	
   -9.1167	-0.00054209	  -9.07524	-0.000506602	  -9.13082	-0.000529477	  -9.10759	-0.000526056	  -9.10759	  -13.1514	
  -8.97477	-0.000540374	  -8.93398	-0.000505189	  -8.98872	-0.000527796	  -8.96582	-0.000524453	  -8.96582	  -13.1113	
  -8.83275	-0.000538542	  -8.79201	-0.000503712	  -8.84707	-0.00052619	  -8.82394	-0.000522815	  -8.82394	  -13.0704	
  -8.69015	-0.000536625	  -8.64959	-0.000502143	  -8.70498	-0.000524693	  -8.68157	-0.000521154	  -8.68157	  -13.0288	
  -8.54754	-0.000534693	  -8.50691	-0.000500497	  -8.56231	-0.000523271	  -8.53892	-0.000519487	  -8.53892	  -12.9872	
  -8.40473	-0.000532816	  -8.36417	-0.000498819	   -8.4193	-0.000521833	  -8.39607	-0.000517823	  -8.39607	  -12.9456	
  -8.26125	-0.000531017	  -8.22122	-0.000497157	   -8.2758	-0.000520277	  -8.25276	-0.000516151	  -8.25276	  -12.9038	
  -8.11699	-0.000529268	  -8.07824	-0.000495517	   -8.1317	-0.00051857	  -8.10898	-0.000514452	  -8.10898	  -12.8613	
  -7.97287	-0.000527503	  -7.93473	-0.000493904	  -7.98756	-0.000516761	  -7.96506	-0.000512723	  -7.96506	  -12.8181	
  -7.82873	-0.000525662	  -7.79092	-0.000492282	  -7.84357	-0.000514951	  -7.82108	-0.000510965	  -7.82108	  -12.7741	
  -7.68441	-0.000523725	  -7.64666	-0.000490615	  -7.69922	-0.000513217	  -7.67676	-0.000509186	  -7.67676	  -12.7296	
  -7.53975	-0.000521724	  -7.50218	-0.000488897	  -7.55505	-0.000511598	  -7.53233	-0.000507406	  -7.53233	  -12.6852	
  -7.39429	-0.000519716	  -7.35836	-0.000487132	  -7.41021	-0.000510049	  -7.38762	-0.000505632	  -7.38762	  -12.6408	
  -7.24793	-0.000517753	  -7.21395	-0.000485365	  -7.26459	-0.000508499	  -7.24216	-0.000503872	  -7.24216	  -12.5968	
  -7.10129	-0.000515845	  -7.06884	-0.000483619	  -7.11879	-0.000506867	  -7.09631	-0.00050211	  -7.09631	  -12.5528	
  -6.95458	-0.000513963	  -6.92397	-0.000481902	  -6.97301	-0.000505119	  -6.95052	-0.000500328	  -6.95052	  -12.5082	
  -6.80798	-0.000512049	  -6.77915	-0.000480188	  -6.82709	-0.000503285	  -6.80474	-0.000498508	  -6.80474	  -12.4627	
    -6.661	-0.000510071	  -6.63421	-0.000478427	   -6.6802	-0.000501418	  -6.65847	-0.000496639	  -6.65847	   -12.416	
   -6.5142	-0.000508035	  -6.48901	-0.000476582	  -6.53296	-0.000499591	  -6.51206	-0.000494736	  -6.51206	  -12.3684	
  -6.36776	-0.000505956	  -6.34308	-0.000474645	  -6.38559	-0.000497839	  -6.36547	-0.000492814	  -6.36547	  -12.3203	
  -6.22115	-0.000503865	  -6.19734	-0.000472633	  -6.23761	-0.000496148	   -6.2187	-0.000490882	   -6.2187	  -12.2721	
  -6.07389	-0.000501773	  -6.05128	-0.00047063	  -6.08961	-0.000494459	  -6.07159	-0.000488954	  -6.07159	  -12.2239	
   -5.9259	-0.000499687	  -5.90443	-0.000468636	  -5.94177	-0.000492705	  -5.92403	-0.000487009	  -5.92403	  -12.1752	
  -5.77741	-0.000497592	  -5.75705	-0.000466726	  -5.79463	-0.000490852	  -5.77637	-0.000485057	  -5.77637	  -12.1264	
  -5.62902	-0.000495457	  -5.61006	-0.000464856	  -5.64729	-0.000488902	  -5.62879	-0.000483072	  -5.62879	  -12.0768	
  -5.48022	-0.000493286	  -5.46294	-0.000462977	  -5.49962	-0.000486902	  -5.48093	-0.000481055	  -5.48093	  -12.0264	
  -5.33091	-0.000491085	   -5.3152	-0.000461042	  -5.35184	-0.000484919	  -5.33265	-0.000479015	  -5.33265	  -11.9754	
  -5.18201	-0.000488878	  -5.16743	-0.000458966	  -5.20381	-0.000482994	  -5.18442	-0.000476946	  -5.18442	  -11.9237	
  -5.03369	-0.000486675	  -5.01982	-0.000456776	  -5.05609	-0.000481125	  -5.03653	-0.000474859	  -5.03653	  -11.8715	
  -4.88506	-0.000484471	  -4.87187	-0.000454506	  -4.90816	-0.000479262	  -4.88837	-0.000472746	  -4.88837	  -11.8187	
  -4.73533	-0.000482258	  -4.72381	-0.000452233	  -4.76024	-0.000477336	  -4.73979	-0.000470609	  -4.73979	  -11.7652	
  -4.58547	-0.000479991	  -4.57549	-0.000450022	  -4.61216	-0.000475306	  -4.59104	-0.00046844	  -4.59104	   -11.711	
  -4.43603	-0.00047767	  -4.42646	-0.000447867	  -4.46381	-0.000473181	   -4.4421	-0.000466239	   -4.4421	   -11.656	
  -4.28649	-0.000475301	  -4.27731	-0.000445717	  -4.31539	-0.000471016	  -4.29306	-0.000464011	  -4.29306	  -11.6003	
   -4.1374	-0.00047296	  -4.12722	-0.000443515	  -4.16677	-0.00046882	   -4.1438	-0.000461765	   -4.1438	  -11.5441	
  -3.98893	-0.000470648	  -3.97682	-0.000441249	  -4.01782	-0.000466686	  -3.99452	-0.000459528	  -3.99452	  -11.4882	
  -3.84018	-0.000468329	  -3.82702	-0.000438895	  -3.86842	-0.000464602	  -3.84521	-0.000457275	  -3.84521	  -11.4319	
  -3.69105	-0.00046596	  -3.67694	-0.00043645	  -3.71882	-0.000462511	   -3.6956	-0.000454974	   -3.6956	  -11.3743	
  -3.54142	-0.00046351	  -3.52716	-0.000433968	  -3.56922	-0.000460359	  -3.54593	-0.000452612	  -3.54593	  -11.3153	
  -3.39188	-0.00046098	  -3.37784	-0.000431506	   -3.4195	-0.000458138	   -3.3964	-0.000450208	   -3.3964	  -11.2552	
