# User: ACHyster
# File name: C:/ACHYSTER/ACHyster SENS/SHAMS/CoFe2O4-1gl-water-32 Glycerol-Sens-07-03-2023/CoFe2O4-1gl-water-32 Glycerol- 10_100F- 12 kAm -Sens-07-03-20230005#1.txt
# Saved at: ma. mar. 7 16:06:03 2023
# Hyster Loop (3 iterations). Intensity: 12.0 kA/m; Tuned frequency: 59.9 kHz
# Units x axis: (kA/m)
# Units y axis: "Repeats y" & "Average y" (10^(-3)Am^2); "Mass avg y" (Am^2/kg)
# Magnetic mass: 4e-05 g
# Parameter      	Repeat   1	Repeat   2	Repeat   3	Average   	Sigma     
# H_C (kA/m)     	      10.8	      10.9	      10.8	      10.8	       0.0
# M_R (Am^2/kg)  	      21.0	      21.0	      21.0	      21.0	       0.0
# M_max (Am^2/kg)	      10.0	       9.9	      10.2	      10.0	       0.1
# Area (mJ/kg)   	     984.7	     984.4	     982.9	     984.0	       0.8
# SAR (W/g)      	      59.0	      59.0	      58.9	      58.9	       0.0
#Repeat 1 x	Repeat 1 y	Repeat 2 x	Repeat 2 y	Repeat 3 x	Repeat 3 y	Average x 	Average y 	Mass avg x 	Mass avg y 
  -1.77187	-0.000885372	  -1.75676	-0.000887252	   -1.7607	-0.000882691	  -1.76311	-0.000885105	  -1.76311	  -22.1276	
  -1.69677	-0.000883762	  -1.68231	-0.000885823	  -1.68602	-0.000881089	  -1.68836	-0.000883558	  -1.68836	  -22.0889	
  -1.62171	-0.000882083	  -1.60791	-0.000884333	   -1.6114	-0.000879548	  -1.61367	-0.000881988	  -1.61367	  -22.0497	
  -1.54671	-0.000880356	  -1.53343	-0.000882812	  -1.53671	-0.00087803	  -1.53895	-0.000880399	  -1.53895	    -22.01	
  -1.47161	-0.000878612	  -1.45889	-0.000881283	  -1.46196	-0.00087648	  -1.46415	-0.000878792	  -1.46415	  -21.9698	
  -1.39638	-0.000876872	  -1.38452	-0.000879744	  -1.38739	-0.00087482	  -1.38943	-0.000877146	  -1.38943	  -21.9286	
  -1.32111	-0.00087514	  -1.30995	-0.00087818	  -1.31262	-0.000873019	  -1.31456	-0.000875446	  -1.31456	  -21.8862	
   -1.2459	-0.000873403	  -1.23542	-0.000876567	   -1.2379	-0.000871086	  -1.23974	-0.000873685	  -1.23974	  -21.8421	
  -1.17084	-0.000871635	  -1.16072	-0.000874883	  -1.16302	-0.000869083	  -1.16486	-0.000871867	  -1.16486	  -21.7967	
  -1.09569	-0.000869808	  -1.08595	-0.000873113	  -1.08808	-0.000867096	  -1.08991	-0.000870006	  -1.08991	  -21.7501	
  -1.02056	-0.000867907	  -1.01121	-0.000871258	  -1.01317	-0.00086519	  -1.01498	-0.000868118	  -1.01498	   -21.703	
 -0.945384	-0.000865935	 -0.936284	-0.000869339	 -0.938237	-0.000863368	 -0.939968	-0.000866214	 -0.939968	  -21.6554	
 -0.870258	-0.000863911	 -0.861427	-0.000867396	 -0.863368	-0.000861577	 -0.865018	-0.000864295	 -0.865018	  -21.6074	
 -0.795115	-0.000861862	 -0.786416	-0.000865454	 -0.788341	-0.000859742	 -0.789957	-0.000862353	 -0.789957	  -21.5588	
 -0.719893	-0.000859812	 -0.711356	-0.000863525	 -0.713259	-0.000857783	 -0.714836	-0.000860374	 -0.714836	  -21.5093	
 -0.644692	-0.000857772	 -0.636188	-0.00086161	 -0.638221	-0.000855687	   -0.6397	-0.000858356	   -0.6397	  -21.4589	
  -0.56929	-0.000855732	 -0.561015	-0.000859687	 -0.563001	-0.000853462	 -0.564435	-0.000856294	 -0.564435	  -21.4074	
 -0.493954	-0.000853675	 -0.485772	-0.000857724	 -0.487866	-0.000851181	 -0.489197	-0.000854193	 -0.489197	  -21.3548	
 -0.418773	-0.000851571	 -0.410561	-0.000855687	 -0.412589	-0.000848918	 -0.413974	-0.000852059	 -0.413974	  -21.3015	
 -0.343515	-0.000849404	 -0.335313	-0.000853557	 -0.337273	-0.000846718	   -0.3387	-0.000849893	   -0.3387	  -21.2473	
  -0.26831	-0.000847169	 -0.260032	-0.000851328	 -0.262174	-0.000844577	 -0.263506	-0.000847691	 -0.263506	  -21.1923	
 -0.193062	-0.000844876	 -0.184598	-0.000849023	 -0.186898	-0.000842453	 -0.188186	-0.000845451	 -0.188186	  -21.1363	
 -0.117867	-0.000842548	 -0.109272	-0.000846676	  -0.11171	-0.000840306	  -0.11295	-0.000843177	  -0.11295	  -21.0794	
-0.0428158	-0.000840209	-0.0338285	-0.000844319	-0.0365414	-0.000838062	-0.0377286	-0.000840863	-0.0377286	  -21.0216	
 0.0323248	-0.000837871	 0.0416306	-0.000841964	 0.0386746	-0.000835722	 0.0375433	-0.000838519	 0.0375433	   -20.963	
  0.107297	-0.000835536	  0.117009	-0.000839617	  0.113684	-0.000833266	  0.112663	-0.00083614	  0.112663	  -20.9035	
  0.182242	-0.00083319	  0.192407	-0.000837265	  0.188753	-0.000830742	  0.187801	-0.000833732	  0.187801	  -20.8433	
  0.257163	-0.000830808	  0.267698	-0.000834888	  0.263755	-0.000828175	  0.262872	-0.00083129	  0.262872	  -20.7823	
  0.331968	-0.000828368	  0.343268	-0.000832469	  0.338915	-0.000825614	   0.33805	-0.000828817	   0.33805	  -20.7204	
   0.40689	-0.00082586	  0.418843	-0.000829999	  0.414127	-0.000823069	  0.413287	-0.000826309	  0.413287	  -20.6577	
   0.48167	-0.000823288	  0.494327	-0.000827472	  0.489137	-0.000820567	  0.488378	-0.000823776	  0.488378	  -20.5944	
  0.556383	-0.000820675	  0.569788	-0.000824895	  0.564337	-0.000818087	  0.563503	-0.000821219	  0.563503	  -20.5305	
  0.631097	-0.000818047	  0.645134	-0.000822283	  0.639462	-0.000815612	  0.638564	-0.000818647	  0.638564	  -20.4662	
  0.705877	-0.000815424	   0.72075	-0.000819653	  0.714734	-0.000813099	  0.713787	-0.000816059	  0.713787	  -20.4015	
  0.780624	-0.000812813	  0.796362	-0.000817014	  0.790052	-0.000810512	  0.789013	-0.000813446	  0.789013	  -20.3362	
  0.855251	-0.000810194	   0.87172	-0.000814384	  0.865316	-0.000807812	  0.864096	-0.000810797	  0.864096	  -20.2699	
  0.929988	-0.000807541	   0.94722	-0.000811745	  0.940752	-0.000805001	   0.93932	-0.000808096	   0.93932	  -20.2024	
   1.00474	-0.000804797	   1.02272	-0.000809089	   1.01609	-0.000802095	   1.01452	-0.000805327	   1.01452	  -20.1332	
    1.0794	-0.000801942	   1.09817	-0.00080638	   1.09141	-0.000799144	   1.08966	-0.000802489	   1.08966	  -20.0622	
   1.15421	-0.000798996	   1.17362	-0.000803606	   1.16677	-0.000796205	   1.16487	-0.000799603	   1.16487	  -19.9901	
   1.22891	-0.000796006	   1.24883	-0.00080075	   1.24207	-0.000793331	   1.23994	-0.000796696	   1.23994	  -19.9174	
   1.30388	-0.000793052	   1.32404	-0.000797821	   1.31739	-0.000790523	    1.3151	-0.000793799	    1.3151	   -19.845	
   1.37916	-0.00079018	   1.39914	-0.000794821	   1.39262	-0.000787758	   1.39031	-0.00079092	   1.39031	   -19.773	
   1.45542	-0.000787398	   1.47403	-0.000791797	   1.46789	-0.000784977	   1.46578	-0.000788057	   1.46578	  -19.7014	
   1.53123	-0.000784678	   1.54898	-0.000788782	   1.54321	-0.000782123	   1.54114	-0.000785194	   1.54114	  -19.6299	
   1.60793	-0.000781939	   1.62372	-0.000785798	   1.61832	-0.000779147	   1.61666	-0.000782295	   1.61666	  -19.5574	
   1.68364	-0.000779079	    1.6985	-0.000782849	   1.69346	-0.000776045	   1.69187	-0.000779324	   1.69187	  -19.4831	
   1.75864	-0.000776034	   1.77323	-0.000779908	   1.76852	-0.000772845	    1.7668	-0.000776262	    1.7668	  -19.4066	
   1.83417	-0.000772773	   1.84766	-0.000776934	   1.84328	-0.000769601	    1.8417	-0.000773103	    1.8417	  -19.3276	
   1.90826	-0.000769332	   1.92206	-0.000773892	   1.91812	-0.000766352	   1.91615	-0.000769859	   1.91615	  -19.2465	
   1.98245	-0.00076581	   1.99632	-0.000770756	   1.99281	-0.000763133	   1.99053	-0.000766566	   1.99053	  -19.1642	
   2.05585	-0.000762325	   2.07067	-0.000767527	    2.0674	-0.000759953	   2.06464	-0.000763268	   2.06464	  -19.0817	
    2.1297	-0.00075897	   2.14502	-0.000764222	   2.14198	-0.000756793	    2.1389	-0.000759995	    2.1389	  -18.9999	
   2.20371	-0.00075579	   2.21911	-0.000760873	   2.21629	-0.000753617	   2.21303	-0.00075676	   2.21303	   -18.919	
   2.27777	-0.000752752	   2.29334	-0.000757511	   2.29058	-0.000750386	   2.28723	-0.00075355	   2.28723	  -18.8387	
   2.35243	-0.000749749	   2.36747	-0.000754162	   2.36477	-0.000747066	   2.36156	-0.000750326	   2.36156	  -18.7581	
   2.42739	-0.00074665	    2.4414	-0.000750822	   2.43877	-0.000743653	   2.43585	-0.000747041	   2.43585	   -18.676	
   2.50299	-0.00074334	   2.51537	-0.000747486	   2.51281	-0.000740165	   2.51039	-0.000743664	   2.51039	  -18.5916	
     2.578	-0.000739775	   2.58915	-0.000744126	   2.58666	-0.000736636	    2.5846	-0.000740179	    2.5846	  -18.5045	
   2.65268	-0.000735984	   2.66249	-0.000740715	   2.66023	-0.000733109	   2.65847	-0.000736603	   2.65847	  -18.4151	
    2.7269	-0.000732066	   2.73582	-0.000737235	   2.73378	-0.000729621	   2.73217	-0.000732974	   2.73217	  -18.3244	
   2.80052	-0.000728165	   2.80905	-0.000733683	   2.80706	-0.000726163	   2.80554	-0.000729337	   2.80554	  -18.2334	
   2.87366	-0.000724395	   2.88241	-0.000730062	   2.88032	-0.000722715	    2.8788	-0.000725724	    2.8788	  -18.1431	
   2.94626	-0.0007208	   2.95565	-0.000726404	   2.95348	-0.000719223	   2.95179	-0.000722142	   2.95179	  -18.0536	
   3.01892	-0.000717348	   3.02869	-0.000722733	   3.02629	-0.000715652	   3.02463	-0.000718577	   3.02463	  -17.9644	
   3.09169	-0.000713933	   3.10161	-0.000719065	   3.09917	-0.000711976	   3.09749	-0.000714991	   3.09749	  -17.8748	
   3.16471	-0.000710424	   3.17435	-0.000715403	   3.17188	-0.000708212	   3.17031	-0.000711346	   3.17031	  -17.7837	
   3.23796	-0.000706718	   3.24666	-0.000711734	   3.24449	-0.000704392	   3.24304	-0.000707615	   3.24304	  -17.6904	
   3.31118	-0.000702787	   3.31899	-0.000708031	   3.31709	-0.00070057	   3.31575	-0.000703796	   3.31575	  -17.5949	
   3.38413	-0.000698674	   3.39108	-0.000704273	   3.38944	-0.000696784	   3.38822	-0.000699911	   3.38822	  -17.4978	
   3.45659	-0.000694493	   3.46302	-0.000700442	   3.46147	-0.00069304	   3.46036	-0.000695992	   3.46036	  -17.3998	
   3.52898	-0.000690363	    3.5349	-0.000696534	   3.53344	-0.000689316	   3.53244	-0.000692071	   3.53244	  -17.3018	
   3.60107	-0.000686378	    3.6065	-0.000692572	   3.60512	-0.000685572	   3.60423	-0.000688174	   3.60423	  -17.2043	
   3.67295	-0.000682555	   3.67805	-0.000688596	   3.67691	-0.000681763	   3.67597	-0.000684304	   3.67597	  -17.1076	
   3.74472	-0.000678832	   3.74949	-0.000684632	   3.74857	-0.00067786	    3.7476	-0.000680441	    3.7476	   -17.011	
    3.8163	-0.000675104	   3.82058	-0.000680703	   3.82003	-0.000673874	   3.81897	-0.00067656	   3.81897	   -16.914	
   3.88779	-0.000671259	   3.89175	-0.0006768	   3.89122	-0.000669834	   3.89025	-0.000672631	   3.89025	  -16.8158	
    3.9591	-0.000667225	   3.96275	-0.00067289	   3.96224	-0.000665784	   3.96136	-0.000668633	   3.96136	  -16.7158	
   4.03027	-0.000662999	    4.0336	-0.000668938	   4.03299	-0.000661761	   4.03229	-0.000664566	   4.03229	  -16.6142	
   4.10144	-0.000658655	   4.10447	-0.000664916	   4.10376	-0.000657777	   4.10323	-0.00066045	   4.10323	  -16.5112	
   4.17239	-0.000654296	   4.17511	-0.000660804	   4.17432	-0.000653813	   4.17394	-0.000656304	   4.17394	  -16.4076	
   4.24336	-0.00065002	    4.2453	-0.000656623	   4.24461	-0.000649834	   4.24442	-0.000652159	   4.24442	   -16.304	
   4.31427	-0.000645871	   4.31549	-0.000652406	   4.31487	-0.000645798	   4.31488	-0.000648025	   4.31488	  -16.2006	
    4.3849	-0.000641844	   4.38543	-0.000648187	   4.38489	-0.000641678	   4.38507	-0.000643903	   4.38507	  -16.0976	
   4.45502	-0.000637868	   4.45522	-0.000643994	   4.45459	-0.000637473	   4.45495	-0.000639778	   4.45495	  -15.9945	
   4.52508	-0.000633843	   4.52496	-0.000639829	   4.52426	-0.000633203	   4.52477	-0.000635625	   4.52477	  -15.8906	
   4.59484	-0.000629687	   4.59442	-0.000635675	   4.59381	-0.000628908	   4.59436	-0.000631423	   4.59436	  -15.7856	
   4.66441	-0.000625365	   4.66386	-0.00063149	   4.66302	-0.000624625	   4.66376	-0.00062716	   4.66376	   -15.679	
   4.73389	-0.000620898	   4.73321	-0.000627247	   4.73216	-0.000620368	   4.73308	-0.000622838	   4.73308	  -15.5709	
   4.80305	-0.000616356	   4.80224	-0.000622927	     4.801	-0.000616137	    4.8021	-0.000618473	    4.8021	  -15.4618	
   4.87231	-0.000611826	   4.87122	-0.000618546	   4.86966	-0.000611909	   4.87106	-0.000614094	   4.87106	  -15.3523	
   4.94145	-0.000607384	   4.94008	-0.000614133	   4.93823	-0.000607641	   4.93992	-0.000609719	   4.93992	   -15.243	
   5.01023	-0.000603054	   5.00861	-0.000609723	    5.0065	-0.000603299	   5.00845	-0.000605359	   5.00845	   -15.134	
   5.07893	-0.0005988	   5.07707	-0.000605321	   5.07472	-0.000598871	   5.07691	-0.000600997	   5.07691	  -15.0249	
   5.14748	-0.000594551	   5.14539	-0.000600916	   5.14284	-0.00059436	   5.14524	-0.000596609	   5.14524	  -14.9152	
   5.21567	-0.000590213	   5.21336	-0.000596473	   5.21063	-0.000589794	   5.21322	-0.00059216	   5.21322	   -14.804	
   5.28377	-0.000585724	   5.28142	-0.000591966	   5.27822	-0.000585206	   5.28113	-0.000587632	   5.28113	  -14.6908	
   5.35171	-0.000581071	   5.34931	-0.000587401	    5.3457	-0.000580626	   5.34891	-0.000583033	   5.34891	  -14.5758	
   5.41944	-0.000576298	   5.41716	-0.000582807	   5.41301	-0.000576061	   5.41654	-0.000578389	   5.41654	  -14.4597	
   5.48691	-0.000571495	   5.48504	-0.000578227	    5.4801	-0.000571505	   5.48401	-0.000573742	   5.48401	  -14.3436	
   5.55407	-0.00056674	   5.55288	-0.0005737	   5.54708	-0.000566931	   5.55134	-0.000569123	   5.55134	  -14.2281	
   5.62087	-0.000562097	   5.62094	-0.000569221	   5.61374	-0.000562307	   5.61852	-0.000564542	   5.61852	  -14.1135	
   5.68744	-0.000557552	   5.68896	-0.000564745	   5.68019	-0.000557608	   5.68553	-0.000559968	   5.68553	  -13.9992	
    5.7539	-0.000553048	   5.75673	-0.00056019	   5.74654	-0.000552826	   5.75239	-0.000555355	   5.75239	  -13.8839	
   5.82002	-0.000548496	   5.82405	-0.000555504	   5.81258	-0.000547979	   5.81888	-0.00055066	   5.81888	  -13.7665	
   5.88593	-0.000543824	   5.89039	-0.000550657	   5.87827	-0.000543099	   5.88487	-0.00054586	   5.88487	  -13.6465	
   5.95174	-0.000538987	   5.95608	-0.000545682	    5.9439	-0.000538223	   5.95057	-0.000540964	   5.95057	  -13.5241	
   6.01725	-0.00053401	   6.02112	-0.000540653	   6.00924	-0.000533374	   6.01587	-0.000536012	   6.01587	  -13.4003	
   6.08256	-0.000528962	   6.08583	-0.000535657	   6.07443	-0.000528557	   6.08094	-0.000531059	   6.08094	  -13.2765	
   6.14779	-0.000523929	   6.15049	-0.000530763	   6.13955	-0.000523747	   6.14594	-0.000526146	   6.14594	  -13.1537	
   6.21273	-0.000518975	   6.21504	-0.00052598	   6.20442	-0.0005189	   6.21073	-0.000521285	   6.21073	  -13.0321	
   6.27719	-0.000514124	   6.27974	-0.000521262	   6.26898	-0.000513971	    6.2753	-0.000516452	    6.2753	  -12.9113	
   6.34162	-0.000509343	   6.34438	-0.000516521	   6.33338	-0.000508944	   6.33979	-0.000511603	   6.33979	  -12.7901	
    6.4058	-0.000504565	   6.40888	-0.000511674	   6.39756	-0.000503847	   6.40408	-0.000506695	   6.40408	  -12.6674	
    6.4697	-0.000499706	   6.47291	-0.000506669	   6.46133	-0.000498718	   6.46798	-0.000501698	   6.46798	  -12.5425	
   6.53345	-0.000494716	   6.53674	-0.000501521	   6.52496	-0.000493626	   6.53172	-0.000496621	   6.53172	  -12.4155	
     6.597	-0.000489588	   6.60035	-0.000496287	   6.58842	-0.00048859	   6.59525	-0.000491488	   6.59525	  -12.2872	
   6.66015	-0.000484364	   6.66353	-0.000491056	    6.6515	-0.000483617	    6.6584	-0.000486346	    6.6584	  -12.1586	
   6.72311	-0.000479114	   6.72636	-0.000485902	   6.71404	-0.000478665	   6.72117	-0.000481227	   6.72117	  -12.0307	
   6.78593	-0.000473914	   6.78905	-0.000480852	    6.7765	-0.000473685	   6.78382	-0.00047615	   6.78382	  -11.9038	
   6.84841	-0.000468802	   6.85138	-0.00047587	   6.83866	-0.000468623	   6.84615	-0.000471098	   6.84615	  -11.7775	
   6.91053	-0.00046377	   6.91319	-0.000470897	   6.90067	-0.00046347	   6.90813	-0.000466046	   6.90813	  -11.6511	
   6.97243	-0.000458769	   6.97462	-0.000465865	   6.96217	-0.000458224	   6.96974	-0.000460952	   6.96974	  -11.5238	
   7.03407	-0.000453727	   7.03582	-0.000460727	   7.02347	-0.000452927	   7.03112	-0.000455794	   7.03112	  -11.3948	
   7.09527	-0.000448578	   7.09671	-0.000455474	   7.08438	-0.000447612	   7.09212	-0.000450555	   7.09212	  -11.2639	
   7.15601	-0.000443296	   7.15732	-0.000450131	   7.14488	-0.000442312	   7.15274	-0.000445246	   7.15274	  -11.1312	
   7.21661	-0.000437902	   7.21778	-0.000444749	   7.20529	-0.000437048	   7.21322	-0.0004399	   7.21322	  -10.9975	
   7.27687	-0.000432456	   7.27789	-0.000439383	   7.26539	-0.000431808	   7.27339	-0.000434549	   7.27339	  -10.8637	
   7.33678	-0.000427031	   7.33749	-0.000434059	   7.32503	-0.00042658	    7.3331	-0.000429223	    7.3331	  -10.7306	
   7.39648	-0.000421678	   7.39689	-0.00042878	   7.38419	-0.00042135	   7.39252	-0.000423936	   7.39252	  -10.5984	
   7.45594	-0.000416408	   7.45607	-0.00042354	   7.44319	-0.000416101	   7.45173	-0.000418683	   7.45173	  -10.4671	
   7.51499	-0.000411185	   7.51484	-0.000418287	   7.50185	-0.000410816	   7.51056	-0.000413429	   7.51056	  -10.3357	
   7.57393	-0.000405947	   7.57321	-0.000412986	    7.5603	-0.000405485	   7.56915	-0.000408139	   7.56915	  -10.2035	
   7.63273	-0.000400628	   7.63132	-0.000407617	   7.61854	-0.000400105	   7.62753	-0.000402784	   7.62753	  -10.0696	
   7.69122	-0.000395194	   7.68915	-0.000402168	   7.67637	-0.000394683	   7.68558	-0.000397348	   7.68558	  -9.93371	
   7.74934	-0.000389645	   7.74655	-0.000396664	   7.73381	-0.000389237	   7.74323	-0.000391849	   7.74323	  -9.79622	
   7.80696	-0.000384026	   7.80381	-0.000391137	     7.791	-0.000383782	   7.80059	-0.000386315	   7.80059	  -9.65787	
    7.8644	-0.0003784	   7.86093	-0.000385623	   7.84809	-0.000378337	   7.85781	-0.000380787	   7.85781	  -9.51966	
   7.92149	-0.000372821	   7.91771	-0.000380146	   7.90489	-0.00037291	    7.9147	-0.000375292	    7.9147	  -9.38231	
   7.97805	-0.000367311	     7.974	-0.000374715	   7.96125	-0.000367501	    7.9711	-0.000369842	    7.9711	  -9.24605	
   8.03427	-0.000361852	   8.02997	-0.000369302	   8.01715	-0.000362096	   8.02713	-0.000364417	   8.02713	  -9.11042	
   8.09029	-0.0003564	   8.08576	-0.000363875	   8.07281	-0.000356669	   8.08295	-0.000358981	   8.08295	  -8.97453	
   8.14595	-0.000350899	   8.14121	-0.000358393	   8.12818	-0.000351199	   8.13845	-0.000353497	   8.13845	  -8.83743	
    8.2014	-0.000345308	   8.19616	-0.00035284	   8.18309	-0.000345677	   8.19355	-0.000347942	   8.19355	  -8.69854	
   8.25663	-0.00033962	   8.25094	-0.000347221	   8.23773	-0.000340108	   8.24843	-0.000342316	   8.24843	  -8.55791	
   8.31147	-0.000333864	   8.30553	-0.000341567	   8.29192	-0.000334511	   8.30297	-0.000336647	   8.30297	  -8.41618	
   8.36594	-0.000328087	   8.35977	-0.000335913	   8.34584	-0.000328909	   8.35718	-0.00033097	   8.35718	  -8.27424	
      8.42	-0.000322341	   8.41364	-0.000330297	   8.39933	-0.00032332	   8.41099	-0.000325319	   8.41099	  -8.13298	
   8.47385	-0.000316655	   8.46701	-0.000324731	   8.45272	-0.000317747	   8.46453	-0.000319711	   8.46453	  -7.99277	
    8.5275	-0.000311027	   8.52022	-0.000319202	   8.50584	-0.000312175	   8.51785	-0.000314135	   8.51785	  -7.85337	
   8.58077	-0.000305424	   8.57311	-0.000313678	   8.55868	-0.00030659	   8.57085	-0.000308564	   8.57085	   -7.7141	
   8.63352	-0.000299801	   8.62552	-0.000308129	   8.61111	-0.000300976	   8.62338	-0.000302969	   8.62338	  -7.57421	
   8.68578	-0.000294118	   8.67764	-0.000302527	   8.66313	-0.000295321	   8.67551	-0.000297322	   8.67551	  -7.43306	
   8.73787	-0.000288361	   8.72949	-0.000296866	   8.71494	-0.000289633	   8.72743	-0.00029162	   8.72743	  -7.29049	
   8.78965	-0.000282537	   8.78106	-0.000291163	   8.76652	-0.000283924	   8.77908	-0.000285875	   8.77908	  -7.14687	
   8.84095	-0.000276684	    8.8322	-0.000285443	   8.81771	-0.000278205	   8.83029	-0.000280111	   8.83029	  -7.00277	
   8.89166	-0.000270842	   8.88276	-0.000279733	   8.86838	-0.000272493	   8.88093	-0.000274356	   8.88093	   -6.8589	
   8.94211	-0.000265045	   8.93326	-0.000274052	   8.91871	-0.000266791	   8.93136	-0.00026863	   8.93136	  -6.71574	
   8.99233	-0.000259305	   8.98354	-0.000268401	   8.96887	-0.000261096	   8.98158	-0.000262934	   8.98158	  -6.57335	
   9.04216	-0.000253605	   9.03344	-0.00026277	   9.01872	-0.0002554	   9.03144	-0.000257258	   9.03144	  -6.43146	
   9.09162	-0.000247914	   9.08283	-0.000257137	   9.06811	-0.000249696	   9.08085	-0.000251582	   9.08085	  -6.28955	
   9.14058	-0.000242195	   9.13205	-0.000251479	   9.11692	-0.000243975	   9.12985	-0.000245883	   9.12985	  -6.14707	
   9.18939	-0.000236425	   9.18112	-0.000245778	   9.16533	-0.000238233	   9.17861	-0.000240145	   9.17861	  -6.00363	
   9.23789	-0.000230602	   9.22988	-0.000240036	   9.21355	-0.000232468	   9.22711	-0.000234369	   9.22711	  -5.85922	
   9.28596	-0.000224739	    9.2782	-0.000234262	   9.26142	-0.000226685	   9.27519	-0.000228562	   9.27519	  -5.71405	
   9.33347	-0.000218865	   9.32594	-0.000228477	   9.30897	-0.000220894	   9.32279	-0.000222746	   9.32279	  -5.56864	
   9.38045	-0.000213014	   9.37332	-0.000222706	   9.35591	-0.000215099	    9.3699	-0.000216939	    9.3699	  -5.42349	
   9.42728	-0.000207202	   9.42036	-0.000216957	   9.40261	-0.000209299	   9.41675	-0.000211153	   9.41675	  -5.27881	
    9.4738	-0.00020143	   9.46708	-0.000211231	   9.44908	-0.000203494	   9.46332	-0.000205385	   9.46332	  -5.13462	
   9.51988	-0.000195682	   9.51337	-0.000205515	   9.49519	-0.000197679	   9.50948	-0.000199625	   9.50948	  -4.99064	
   9.56579	-0.000189934	   9.55909	-0.000199785	   9.54082	-0.000191846	   9.55523	-0.000193855	   9.55523	  -4.84638	
     9.611	-0.000184159	   9.60446	-0.000194016	   9.58616	-0.000185995	   9.60054	-0.000188057	   9.60054	  -4.70141	
    9.6559	-0.000178339	   9.64967	-0.000188197	   9.63109	-0.000180128	   9.64555	-0.000182221	   9.64555	  -4.55553	
   9.70051	-0.000172478	   9.69458	-0.000182337	    9.6758	-0.000174251	    9.6903	-0.000176355	    9.6903	  -4.40888	
   9.74456	-0.000166571	   9.73906	-0.000176462	   9.72017	-0.000168365	    9.7346	-0.000170466	    9.7346	  -4.26165	
   9.78841	-0.000160655	   9.78301	-0.000170609	   9.76407	-0.000162464	    9.7785	-0.000164576	    9.7785	  -4.11441	
   9.83163	-0.00015476	   9.82644	-0.0001648	   9.80765	-0.00015655	    9.8219	-0.000158703	    9.8219	  -3.96759	
   9.87457	-0.000148924	   9.86928	-0.000159029	     9.851	-0.000150632	   9.86495	-0.000152862	   9.86495	  -3.82154	
   9.91714	-0.000143165	   9.91191	-0.000153278	     9.894	-0.000144718	   9.90768	-0.000147053	   9.90768	  -3.67633	
   9.95921	-0.00013747	    9.9542	-0.000147513	    9.9367	-0.000138815	   9.95004	-0.000141266	   9.95004	  -3.53166	
   10.0008	-0.000131815	   9.99604	-0.000141701	   9.97897	-0.000132929	   9.99195	-0.000135482	   9.99195	  -3.38704	
   10.0421	-0.000126157	   10.0373	-0.000135829	   10.0207	-0.000127048	   10.0334	-0.000129678	   10.0334	  -3.24194	
   10.0831	-0.000120449	   10.0783	-0.000129921	    10.062	-0.000121159	   10.0745	-0.000123843	   10.0745	  -3.09607	
   10.1234	-0.000114671	   10.1188	-0.000123997	   10.1032	-0.000115248	   10.1151	-0.000117972	   10.1151	   -2.9493	
   10.1635	-0.000108821	    10.159	-0.000118095	   10.1439	-0.000109304	   10.1555	-0.000112073	   10.1555	  -2.80183	
   10.2031	-0.000102924	   10.1988	-0.000112233	   10.1844	-0.00010333	   10.1954	-0.000106162	   10.1954	  -2.65405	
   10.2422	-9.70174e-05	   10.2381	-0.000106404	   10.2244	-9.73497e-05	   10.2349	-0.000100257	   10.2349	  -2.50643	
   10.2811	-9.1145e-05	    10.277	-0.000100598	   10.2639	-9.13723e-05	    10.274	-9.43719e-05	    10.274	   -2.3593	
   10.3194	-8.53337e-05	   10.3152	-9.47749e-05	   10.3029	-8.54176e-05	   10.3125	-8.85088e-05	   10.3125	  -2.21272	
   10.3576	-7.96013e-05	   10.3531	-8.89124e-05	   10.3415	-7.94812e-05	   10.3507	-8.26649e-05	   10.3507	  -2.06662	
   10.3952	-7.39222e-05	   10.3906	-8.3006e-05	   10.3798	-7.3555e-05	   10.3885	-7.68277e-05	   10.3885	  -1.92069	
   10.4323	-6.82564e-05	   10.4279	-7.70724e-05	   10.4178	-6.76089e-05	    10.426	-7.09792e-05	    10.426	  -1.77448	
   10.4691	-6.25539e-05	   10.4648	-7.11279e-05	   10.4554	-6.16387e-05	   10.4631	-6.51068e-05	   10.4631	  -1.62767	
   10.5054	-5.67808e-05	   10.5012	-6.52042e-05	   10.4925	-5.56414e-05	   10.4997	-5.92088e-05	   10.4997	  -1.48022	
   10.5409	-5.09397e-05	   10.5371	-5.93108e-05	   10.5291	-4.96415e-05	   10.5357	-5.32973e-05	   10.5357	  -1.33243	
   10.5758	-4.50553e-05	   10.5724	-5.34467e-05	    10.565	-4.36621e-05	   10.5711	-4.7388e-05	   10.5711	   -1.1847	
   10.6102	-3.91588e-05	   10.6072	-4.75986e-05	   10.6002	-3.77203e-05	   10.6059	-4.14926e-05	   10.6059	  -1.03731	
   10.6442	-3.32954e-05	   10.6417	-4.1749e-05	    10.635	-3.18127e-05	   10.6403	-3.56191e-05	   10.6403	 -0.890476	
   10.6785	-2.74887e-05	    10.676	-3.58806e-05	   10.6695	-2.59228e-05	   10.6746	-2.9764e-05	   10.6746	 -0.744101	
    10.712	-2.17346e-05	   10.7099	-2.99895e-05	   10.7037	-2.0017e-05	   10.7086	-2.39137e-05	   10.7086	 -0.597842	
   10.7456	-1.59744e-05	   10.7435	-2.40866e-05	   10.7375	-1.40665e-05	   10.7422	-1.80425e-05	   10.7422	 -0.451063	
   10.7788	-1.01862e-05	   10.7765	-1.81713e-05	   10.7708	-8.07967e-06	   10.7754	-1.21457e-05	   10.7754	 -0.303643	
   10.8114	-4.32431e-06	    10.809	-1.22514e-05	   10.8036	-2.07305e-06	    10.808	-6.21624e-06	    10.808	 -0.155406	
   10.8436	1.6034e-06	   10.8412	-6.32863e-06	   10.8359	3.91099e-06	   10.8403	-2.71413e-07	   10.8403	-0.00678533	
    10.875	7.5713e-06	    10.873	-4.1131e-07	   10.8678	9.83948e-06	   10.8719	5.66649e-06	   10.8719	  0.141662	
   10.9067	1.3526e-05	   10.9044	5.48657e-06	   10.8995	1.57034e-05	   10.9035	1.1572e-05	   10.9035	    0.2893	
    10.938	1.94202e-05	   10.9356	1.13509e-05	   10.9308	2.1526e-05	   10.9348	1.74323e-05	   10.9348	  0.435808	
   10.9692	2.52419e-05	   10.9664	1.71726e-05	   10.9619	2.73515e-05	   10.9658	2.32553e-05	   10.9658	  0.581383	
   11.0008	3.10187e-05	   10.9968	2.29598e-05	   10.9925	3.32231e-05	   10.9967	2.90672e-05	   10.9967	   0.72668	
   11.0308	3.6807e-05	   11.0267	2.87354e-05	   11.0228	3.91715e-05	   11.0268	3.49047e-05	   11.0268	  0.872616	
   11.0618	4.26613e-05	   11.0562	3.4538e-05	   11.0525	4.51795e-05	   11.0568	4.0793e-05	   11.0568	   1.01982	
   11.0907	4.86129e-05	   11.0851	4.0411e-05	   11.0817	5.12101e-05	   11.0858	4.67447e-05	   11.0858	   1.16862	
   11.1199	5.46391e-05	   11.1133	4.63503e-05	   11.1104	5.72045e-05	   11.1145	5.27313e-05	   11.1145	   1.31828	
   11.1483	6.06917e-05	   11.1409	5.23425e-05	   11.1385	6.31155e-05	   11.1426	5.87165e-05	   11.1426	   1.46791	
   11.1756	6.67113e-05	    11.168	5.83376e-05	   11.1661	6.89291e-05	   11.1699	6.46593e-05	   11.1699	   1.61648	
    11.204	7.26322e-05	    11.195	6.42863e-05	   11.1931	7.46644e-05	   11.1974	7.05277e-05	   11.1974	   1.76319	
   11.2305	7.84509e-05	   11.2216	7.01515e-05	   11.2199	8.03685e-05	    11.224	7.63236e-05	    11.224	   1.90809	
   11.2582	8.41879e-05	    11.248	7.59241e-05	   11.2462	8.61034e-05	   11.2508	8.20718e-05	   11.2508	    2.0518	
   11.2845	8.99144e-05	    11.274	8.16327e-05	   11.2723	9.19189e-05	   11.2769	8.7822e-05	   11.2769	   2.19555	
   11.3107	9.56804e-05	   11.2997	8.73374e-05	   11.2978	9.78252e-05	   11.3027	9.36144e-05	   11.3027	   2.34036	
   11.3369	0.000101523	   11.3249	9.30926e-05	   11.3228	0.000103801	   11.3282	9.94724e-05	   11.3282	   2.48681	
   11.3614	0.000107429	   11.3496	9.89255e-05	   11.3474	0.000109795	   11.3528	0.000105383	   11.3528	   2.63458	
   11.3863	0.000113355	   11.3738	0.00010483	   11.3715	0.000115748	   11.3772	0.000111311	   11.3772	   2.78279	
   11.4099	0.000119244	   11.3975	0.000110767	   11.3951	0.000121616	   11.4008	0.000117209	   11.4008	   2.93022	
   11.4338	0.000125066	   11.4207	0.000116678	    11.418	0.00012739	   11.4242	0.000123045	   11.4242	   3.07613	
   11.4566	0.000130825	   11.4432	0.00012252	   11.4405	0.000133095	   11.4468	0.000128814	   11.4468	   3.22034	
   11.4794	0.000136567	   11.4651	0.000128271	   11.4624	0.000138781	    11.469	0.000134539	    11.469	   3.36349	
   11.5018	0.000142341	   11.4865	0.000133947	   11.4836	0.000144501	   11.4906	0.000140263	   11.4906	   3.50657	
   11.5235	0.000148177	   11.5073	0.000139592	   11.5042	0.000150291	   11.5117	0.00014602	   11.5117	    3.6505	
    11.545	0.000154076	   11.5276	0.000145259	   11.5247	0.000156154	   11.5324	0.000151829	   11.5324	   3.79574	
   11.5657	0.000159992	   11.5479	0.000150985	   11.5448	0.000162063	   11.5528	0.00015768	   11.5528	     3.942	
   11.5862	0.000165862	   11.5679	0.000156787	   11.5644	0.000167969	   11.5728	0.000163539	   11.5728	   4.08848	
   11.6061	0.000171632	   11.5875	0.000162643	   11.5837	0.000173823	   11.5924	0.000169366	   11.5924	   4.23415	
   11.6253	0.000177274	   11.6068	0.000168507	   11.6026	0.000179601	   11.6115	0.000175127	   11.6115	   4.37818	
   11.6442	0.000182812	   11.6257	0.000174333	   11.6211	0.000185304	   11.6303	0.000180816	   11.6303	   4.52041	
   11.6625	0.00018831	   11.6442	0.000180088	   11.6393	0.00019096	   11.6487	0.000186453	   11.6487	   4.66132	
   11.6803	0.000193845	   11.6624	0.000185766	   11.6571	0.000196613	   11.6666	0.000192075	   11.6666	   4.80187	
   11.6978	0.000199475	   11.6802	0.000191395	   11.6746	 0.0002023	   11.6842	0.000197723	   11.6842	   4.94309	
   11.7147	0.000205219	   11.6976	0.000197016	   11.6917	0.000208037	   11.7013	0.000203424	   11.7013	   5.08559	
   11.7312	0.000211041	   11.7145	0.000202667	   11.7084	0.000213818	    11.718	0.000209175	    11.718	   5.22939	
   11.7472	0.000216868	   11.7309	0.00020838	   11.7246	0.000219612	   11.7342	0.000214953	   11.7342	   5.37383	
   11.7627	0.000222625	   11.7468	0.00021415	   11.7404	0.000225376	     11.75	0.000220717	     11.75	   5.51792	
   11.7777	0.000228261	   11.7622	0.000219952	   11.7557	0.000231083	   11.7652	0.000226432	   11.7652	   5.66081	
   11.7923	0.000233776	   11.7771	0.00022575	   11.7706	0.000236722	     11.78	0.000232083	     11.78	   5.80207	
   11.8064	0.000239214	   11.7915	0.000231501	   11.7849	0.000242304	   11.7943	0.000237673	   11.7943	   5.94182	
     11.82	0.000244643	   11.8053	0.000237188	   11.7987	0.00024786	    11.808	0.00024323	    11.808	   6.08076	
    11.833	0.000250131	   11.8186	0.00024281	    11.812	0.000253422	   11.8212	0.000248788	   11.8212	   6.21969	
   11.8454	0.000255712	   11.8316	0.000248392	   11.8249	0.000259017	    11.834	0.000254373	    11.834	   6.35934	
   11.8574	0.000261373	    11.844	0.000253972	   11.8372	0.000264645	   11.8462	0.000259997	   11.8462	   6.49992	
   11.8687	0.000267066	   11.8558	0.000259581	   11.8489	0.00027029	   11.8578	0.000265645	   11.8578	   6.64113	
   11.8796	0.000272724	   11.8671	0.000265223	   11.8602	0.000275921	    11.869	0.000271289	    11.869	   6.78222	
   11.8899	0.000278293	   11.8779	0.000270886	    11.871	0.000281508	   11.8796	0.000276896	   11.8796	   6.92239	
   11.8997	0.000283753	   11.8882	0.000276557	   11.8813	0.000287033	   11.8897	0.000282447	   11.8897	   7.06119	
    11.909	0.000289127	   11.8979	0.00028221	    11.891	0.000292498	   11.8993	0.000287945	   11.8993	   7.19863	
   11.9179	0.000294468	   11.9072	0.000287836	   11.9003	0.000297924	   11.9085	0.000293409	   11.9085	   7.33523	
   11.9262	0.000299837	   11.9159	0.000293433	   11.9092	0.000303337	   11.9171	0.000298869	   11.9171	   7.47172	
   11.9341	0.000305281	   11.9242	0.000299013	   11.9175	0.000308761	   11.9253	0.000304352	   11.9253	   7.60879	
   11.9415	0.000310815	    11.932	0.00030458	   11.9254	0.00031421	    11.933	0.000309868	    11.933	   7.74671	
   11.9484	0.000316409	   11.9393	0.000310133	   11.9329	0.000319678	   11.9402	0.000315407	   11.9402	   7.88517	
   11.9549	0.000322012	   11.9462	0.000315667	   11.9399	0.000325144	    11.947	0.000320941	    11.947	   8.02352	
    11.961	0.000327564	   11.9527	0.00032117	   11.9465	0.000330588	   11.9534	0.000326441	   11.9534	   8.16102	
   11.9667	0.000333024	   11.9587	0.00032666	   11.9527	0.000335994	   11.9594	0.000331893	   11.9594	   8.29732	
    11.972	0.000338378	   11.9647	0.000332126	   11.9585	0.000341357	   11.9651	0.000337287	   11.9651	   8.43217	
   11.9769	0.000343654	   11.9701	0.000337593	   11.9639	0.000346685	   11.9703	0.000342644	   11.9703	    8.5661	
   11.9815	 0.0003489	   11.9751	0.000343043	   11.9687	0.000351993	   11.9751	0.000347979	   11.9751	   8.69947	
   11.9857	0.000354172	   11.9795	0.000348485	   11.9731	 0.0003573	   11.9794	0.000353319	   11.9794	   8.83297	
   11.9896	0.000359499	   11.9832	0.000353887	   11.9772	0.000362618	   11.9833	0.000358668	   11.9833	    8.9667	
   11.9932	0.000364886	   11.9867	0.000359243	   11.9808	0.000367944	   11.9869	0.000364024	   11.9869	    9.1006	
   11.9964	0.000370306	   11.9895	0.000364537	   11.9841	0.00037327	     11.99	0.000369371	     11.99	   9.23428	
   11.9994	0.000375716	   11.9924	0.000369787	   11.9868	0.000378583	   11.9929	0.000374695	   11.9929	   9.36739	
   12.0019	0.000381068	   11.9942	0.000375008	    11.989	0.000383867	    11.995	0.000379981	    11.995	   9.49953	
    12.004	0.000386342	   11.9963	0.000380231	   11.9907	0.00038911	    11.997	0.000385227	    11.997	   9.63069	
   12.0054	0.000391536	   11.9973	0.000385468	   11.9916	0.000394314	   11.9981	0.000390439	   11.9981	   9.76098	
   12.0063	0.000396686	   11.9979	0.000390728	   11.9919	0.000399486	   11.9987	0.000395633	   11.9987	   9.89084	
   12.0066	0.000401835	    11.998	0.000395984	   11.9917	0.000404642	   11.9988	0.00040082	   11.9988	   10.0205	
   12.0062	0.000407016	   11.9975	0.000401212	   11.9908	0.000409798	   11.9982	0.000406009	   11.9982	   10.1502	
   12.0051	0.000412245	   11.9967	0.000406379	   11.9894	0.000414963	   11.9971	0.000411196	   11.9971	   10.2799	
   12.0035	0.000417509	   11.9953	0.000411479	   11.9874	0.000420132	   11.9954	0.000416374	   11.9954	   10.4093	
   12.0013	0.000422774	   11.9939	0.000416516	    11.985	0.000425299	   11.9934	0.00042153	   11.9934	   10.5382	
   11.9986	  0.000428	   11.9919	0.000421522	   11.9821	0.000430446	   11.9909	0.000426656	   11.9909	   10.6664	
   11.9954	0.000433156	   11.9894	0.000426516	   11.9789	0.000435555	   11.9879	0.000431742	   11.9879	   10.7936	
   11.9919	0.000438238	   11.9863	0.000431523	   11.9753	0.000440618	   11.9845	0.000436793	   11.9845	   10.9198	
    11.988	0.000443266	   11.9825	0.000436541	   11.9714	0.000445631	   11.9806	0.000441813	   11.9806	   11.0453	
   11.9838	0.000448281	   11.9785	0.000441562	   11.9671	0.000450598	   11.9764	0.000446814	   11.9764	   11.1703	
   11.9793	0.000453317	   11.9735	0.00044656	   11.9624	0.000455535	   11.9717	0.000451804	   11.9717	   11.2951	
   11.9745	 0.0004584	   11.9681	0.000451519	   11.9571	0.000460464	   11.9666	0.000456794	   11.9666	   11.4199	
    11.969	0.000463523	   11.9622	0.000456423	   11.9515	0.000465402	   11.9609	0.000461783	   11.9609	   11.5446	
   11.9631	0.000468657	   11.9561	0.000461272	   11.9451	0.000470361	   11.9548	0.000466763	   11.9548	   11.6691	
   11.9565	0.00047376	   11.9493	0.000466085	   11.9382	0.000475336	    11.948	0.000471727	    11.948	   11.7932	
   11.9493	0.000478801	   11.9419	0.000470881	   11.9307	0.000480297	   11.9406	0.000476659	   11.9406	   11.9165	
   11.9415	0.00048376	   11.9342	0.000475679	   11.9227	0.000485233	   11.9328	0.000481557	   11.9328	   12.0389	
   11.9333	0.000488651	    11.926	0.000480493	   11.9144	0.000490108	   11.9246	0.000486417	   11.9246	   12.1604	
   11.9247	0.000493502	   11.9174	0.000485315	   11.9057	0.000494931	   11.9159	0.000491249	   11.9159	   12.2812	
   11.9157	0.000498353	   11.9085	0.000490134	   11.8967	0.000499709	    11.907	0.000496065	    11.907	   12.4016	
   11.9065	0.000503228	   11.8993	0.000494927	   11.8872	0.000504469	   11.8977	0.000500875	   11.8977	   12.5219	
   11.8969	0.000508132	   11.8897	0.000499677	   11.8775	0.000509237	    11.888	0.000505682	    11.888	    12.642	
   11.8869	0.000513047	   11.8793	0.000504373	   11.8671	0.000514032	   11.8778	0.000510484	   11.8778	   12.7621	
   11.8765	0.000517943	   11.8683	0.000509023	   11.8561	0.000518841	    11.867	0.000515269	    11.867	   12.8817	
   11.8654	0.00052278	   11.8567	0.000513643	   11.8446	0.000523645	   11.8556	0.000520023	   11.8556	   13.0006	
   11.8537	0.00052754	   11.8445	0.000518254	   11.8327	0.000528415	   11.8436	0.000524737	   11.8436	   13.1184	
   11.8416	0.00053222	   11.8319	0.000522874	   11.8204	0.000533132	   11.8313	0.000529409	   11.8313	   13.2352	
    11.829	0.00053684	    11.819	0.000527506	   11.8076	0.000537787	   11.8185	0.000534044	   11.8185	   13.3511	
   11.8161	0.000541436	   11.8057	0.000532146	   11.7945	0.000542397	   11.8054	0.000538659	   11.8054	   13.4665	
   11.8028	0.000546036	    11.792	0.000536779	   11.7809	0.000546984	   11.7919	0.000543266	   11.7919	   13.5817	
   11.7887	0.000550666	   11.7778	0.000541383	   11.7668	0.000551575	   11.7778	0.000547875	   11.7778	   13.6969	
   11.7746	0.00055532	   11.7628	0.000545948	   11.7522	0.00055618	   11.7632	0.000552482	   11.7632	   13.8121	
   11.7598	0.000559968	   11.7474	0.000550474	   11.7371	0.000560797	   11.7481	0.00055708	   11.7481	    13.927	
   11.7447	0.000564581	   11.7314	0.000554968	   11.7215	0.000565408	   11.7325	0.000561652	   11.7325	   14.0413	
    11.729	0.000569123	   11.7151	0.000559441	   11.7055	0.000569995	   11.7165	0.000566186	   11.7165	   14.1547	
   11.7128	0.000573612	   11.6985	0.000563903	   11.6893	0.000574537	   11.7002	0.000570684	   11.7002	   14.2671	
   11.6966	0.000578049	   11.6818	0.00056835	   11.6726	0.000579028	   11.6836	0.000575143	   11.6836	   14.3786	
   11.6795	0.000582462	   11.6644	0.000572768	   11.6554	0.000583478	   11.6664	0.000579569	   11.6664	   14.4892	
   11.6624	0.000586863	   11.6463	0.000577137	   11.6376	0.000587902	   11.6488	0.000583967	   11.6488	   14.5992	
   11.6442	0.000591256	   11.6279	0.000581449	   11.6193	0.000592318	   11.6305	0.000588341	   11.6305	   14.7085	
   11.6257	0.000595632	   11.6091	0.000585709	   11.6005	0.000596736	   11.6118	0.000592692	   11.6118	   14.8173	
   11.6068	0.000599979	   11.5899	0.00058994	   11.5814	0.00060115	   11.5927	0.000597023	   11.5927	   14.9256	
   11.5869	0.000604279	   11.5702	0.000594173	   11.5621	0.000605545	   11.5731	0.000601332	   11.5731	   15.0333	
   11.5671	0.000608531	   11.5503	0.00059843	   11.5425	0.000609908	   11.5533	0.000605623	   11.5533	   15.1406	
   11.5466	0.000612751	   11.5297	0.000602718	   11.5224	0.000614228	   11.5329	0.000609899	   11.5329	   15.2475	
    11.526	0.000616957	   11.5085	0.000607021	   11.5016	0.000618498	    11.512	0.000614158	    11.512	    15.354	
   11.5048	0.000621168	   11.4869	0.000611301	   11.4804	0.00062273	   11.4907	 0.0006184	   11.4907	     15.46	
   11.4834	0.000625393	   11.4649	0.000615524	   11.4589	0.000626934	    11.469	0.000622617	    11.469	   15.5654	
   11.4614	0.000629622	   11.4427	0.000619667	   11.4367	0.000631118	   11.4469	0.000626802	   11.4469	   15.6701	
   11.4388	0.000633842	   11.4198	0.000623726	   11.4142	0.000635289	   11.4243	0.000630952	   11.4243	   15.7738	
    11.416	0.000638026	   11.3963	0.000627728	   11.3909	0.000639452	   11.4011	0.000635068	   11.4011	   15.8767	
   11.3927	0.000642153	   11.3723	0.000631709	   11.3672	0.000643592	   11.3774	0.000639151	   11.3774	   15.9788	
    11.369	0.000646202	    11.348	0.000635706	   11.3431	0.000647699	   11.3533	0.000643203	   11.3533	   16.0801	
   11.3447	0.000650179	   11.3231	0.000639746	   11.3185	0.000651765	   11.3288	0.00064723	   11.3288	   16.1807	
   11.3199	0.000654096	    11.298	0.000643822	   11.2934	0.000655783	   11.3038	0.000651233	   11.3038	   16.2808	
   11.2948	0.000657985	   11.2722	0.000647904	   11.2679	0.000659755	   11.2783	0.000655215	   11.2783	   16.3804	
   11.2688	0.000661867	   11.2458	0.000651961	   11.2417	0.000663687	   11.2521	0.000659171	   11.2521	   16.4793	
   11.2425	0.000665765	    11.219	0.000655954	   11.2152	0.000667589	   11.2256	0.000663103	   11.2256	   16.5776	
   11.2156	0.000669684	    11.192	0.000659864	   11.1884	0.000671474	   11.1987	0.000667007	   11.1987	   16.6752	
   11.1885	0.000673614	   11.1646	0.000663695	   11.1609	0.000675349	   11.1713	0.000670886	   11.1713	   16.7721	
   11.1611	0.000677529	   11.1367	0.000667478	   11.1333	0.000679214	   11.1437	0.00067474	   11.1437	   16.8685	
    11.133	0.000681405	   11.1083	0.000671245	   11.1051	0.000683063	   11.1154	0.000678571	   11.1154	   16.9643	
   11.1044	0.000685214	   11.0794	0.000675033	   11.0765	0.000686887	   11.0868	0.000682378	   11.0868	   17.0594	
   11.0755	0.00068896	   11.0501	0.000678856	   11.0476	0.000690675	   11.0577	0.000686164	   11.0577	   17.1541	
   11.0463	0.000692641	   11.0204	0.000682703	    11.018	0.000694423	   11.0282	0.000689922	   11.0282	   17.2481	
   11.0165	0.000696276	   10.9902	0.000686546	   10.9878	0.000698134	   10.9982	0.000693652	   10.9982	   17.3413	
   10.9861	0.000699893	   10.9596	0.000690347	   10.9572	0.000701811	   10.9676	0.00069735	   10.9676	   17.4338	
   10.9553	0.000703512	   10.9285	0.000694073	   10.9261	0.000705464	   10.9366	0.000701016	   10.9366	   17.5254	
   10.9241	0.000707145	   10.8972	0.000697718	   10.8949	 0.0007091	   10.9054	0.000704654	   10.9054	   17.6164	
   10.8926	0.000710781	   10.8654	0.000701297	   10.8633	0.000712722	   10.8738	0.000708267	   10.8738	   17.7067	
   10.8608	0.000714407	   10.8331	0.000704838	   10.8311	0.000716327	   10.8417	0.000711857	   10.8417	   17.7964	
   10.8284	0.000718005	   10.8004	0.000708377	   10.7985	0.00071991	   10.8091	0.000715431	   10.8091	   17.8858	
   10.7956	0.000721555	   10.7674	0.000711933	   10.7655	0.000723463	   10.7762	0.000718984	   10.7762	   17.9746	
   10.7624	0.000725054	   10.7342	0.000715509	   10.7322	0.000726978	   10.7429	0.000722514	   10.7429	   18.0628	
   10.7287	0.000728501	   10.7007	0.00071909	   10.6983	0.000730454	   10.7092	0.000726015	   10.7092	   18.1504	
   10.6946	0.000731915	   10.6666	0.000722647	    10.664	0.000733894	   10.6751	0.000729485	   10.6751	   18.2371	
   10.6601	0.000735307	   10.6322	0.000726147	   10.6293	0.000737306	   10.6405	0.00073292	   10.6405	    18.323	
   10.6253	0.000738698	   10.5975	0.000729577	   10.5943	0.000740699	   10.6057	0.000736325	   10.6057	   18.4081	
   10.5897	0.000742089	   10.5622	0.000732939	   10.5588	0.000744083	   10.5702	0.000739704	   10.5702	   18.4926	
   10.5536	0.000745475	   10.5263	0.000736251	   10.5228	0.00074746	   10.5342	0.000743062	   10.5342	   18.5766	
   10.5172	0.000748845	   10.4901	0.000739541	   10.4864	0.000750824	   10.4979	0.000746404	   10.4979	   18.6601	
   10.4804	0.000752176	   10.4536	0.000742834	   10.4495	0.000754165	   10.4612	0.000749725	   10.4612	   18.7431	
   10.4434	0.000755454	   10.4166	0.000746136	   10.4122	0.000757472	    10.424	0.00075302	    10.424	   18.8255	
   10.4059	0.000758667	   10.3792	0.000749441	   10.3743	0.000760736	   10.3865	0.000756282	   10.3865	    18.907	
    10.368	0.000761827	   10.3414	0.000752727	   10.3361	0.000763958	   10.3485	0.000759504	   10.3485	   18.9876	
   10.3296	0.000764959	   10.3034	0.00075597	   10.2977	0.000767145	   10.3102	0.000762691	   10.3102	   19.0673	
   10.2908	0.000768086	   10.2649	0.000759154	   10.2588	0.000770304	   10.2715	0.000765848	   10.2715	   19.1462	
   10.2518	0.000771229	   10.2259	0.000762279	   10.2194	0.000773442	   10.2324	0.000768983	   10.2324	   19.2246	
   10.2123	0.000774385	   10.1866	0.000765359	   10.1797	0.000776565	   10.1929	0.000772103	   10.1929	   19.3026	
   10.1725	0.00077753	    10.147	0.000768415	   10.1399	0.000779675	   10.1531	0.000775207	   10.1531	   19.3802	
   10.1322	0.00078063	   10.1069	0.000771473	   10.0994	0.000782768	   10.1128	0.00077829	   10.1128	   19.4573	
   10.0914	0.00078366	   10.0663	0.000774528	   10.0584	0.000785842	    10.072	0.000781343	    10.072	   19.5336	
   10.0503	0.000786611	   10.0253	0.000777572	   10.0172	0.000788898	   10.0309	0.00078436	   10.0309	    19.609	
   10.0089	 0.0007895	   9.98421	0.000780585	   9.97569	0.000791932	   9.98961	0.000787339	   9.98961	   19.6835	
   9.96702	0.00079236	   9.94246	0.000783539	   9.93376	0.000794931	   9.94775	0.000790277	   9.94775	   19.7569	
   9.92461	0.000795235	   9.90025	0.000786434	   9.89142	0.000797878	   9.90543	0.000793182	   9.90543	   19.8296	
   9.88188	0.000798155	   9.85776	0.000789269	   9.84884	0.000800747	   9.86283	0.000796057	   9.86283	   19.9014	
   9.83866	0.000801128	   9.81517	0.000792066	   9.80619	0.000803522	   9.82001	0.000798905	   9.82001	   19.9726	
    9.7951	0.00080412	   9.77199	0.000794831	   9.76349	 0.0008062	   9.77686	0.000801717	   9.77686	   20.0429	
    9.7511	0.000807074	   9.72841	0.000797584	    9.7207	0.000808809	    9.7334	0.000804489	    9.7334	   20.1122	
   9.70685	0.000809923	   9.68445	0.000800313	   9.67765	0.000811395	   9.68965	0.000807211	   9.68965	   20.1803	
   9.66205	0.000812624	   9.63998	0.000803019	   9.63419	0.000813998	   9.64541	0.00080988	   9.64541	    20.247	
   9.61674	0.000815179	   9.59503	0.000805683	   9.59018	0.000816663	   9.60065	0.000812509	   9.60065	   20.3127	
   9.57111	0.000817633	   9.54979	0.000808309	   9.54545	0.000819388	   9.55545	0.00081511	   9.55545	   20.3778	
   9.52518	0.000820065	   9.50412	0.000810886	   9.49996	0.00082216	   9.50975	0.000817704	   9.50975	   20.4426	
   9.47881	0.000822553	    9.4579	0.000813428	   9.45359	0.000824916	   9.46343	0.000820299	   9.46343	   20.5075	
   9.43204	0.000825138	   9.41132	0.000815934	   9.40658	0.000827607	   9.41665	0.000822893	   9.41665	   20.5723	
   9.38506	0.000827813	   9.36441	0.00081842	   9.35898	0.000830179	   9.36948	0.000825471	   9.36948	   20.6368	
   9.33773	0.000830495	   9.31705	0.000820884	    9.3113	0.000832625	   9.32202	0.000828002	   9.32202	      20.7	
   9.28991	0.000833113	   9.26926	0.00082333	   9.26325	0.000834949	   9.27414	0.000830464	   9.27414	   20.7616	
   9.24181	0.000835572	   9.22124	0.000825751	   9.21518	0.000837207	   9.22608	0.000832843	   9.22608	   20.8211	
   9.19346	0.000837871	   9.17287	0.000828145	   9.16692	0.000839452	   9.17775	0.000835156	   9.17775	   20.8789	
   9.14456	0.000840024	     9.124	0.000830499	   9.11849	0.000841735	   9.12902	0.00083742	   9.12902	   20.9355	
   9.09533	0.000842123	   9.07486	0.000832811	   9.06977	0.000844072	   9.07999	0.000839669	   9.07999	   20.9917	
   9.04579	0.000844257	   9.02546	0.000835082	   9.02062	0.00084645	   9.03062	0.000841929	   9.03062	   21.0482	
   8.99592	0.000846502	   8.97564	0.000837315	   8.97092	0.000848819	   8.98083	0.000844212	   8.98083	   21.1053	
   8.94566	0.000848853	   8.92549	0.000839515	    8.9209	0.000851127	   8.93068	0.000846498	   8.93068	   21.1625	
    8.8952	0.000851265	   8.87519	0.000841692	   8.87042	0.000853332	   8.88027	0.000848763	   8.88027	   21.2191	
   8.84443	0.000853642	   8.82461	0.000843847	   8.81954	0.00085543	   8.82953	0.000850973	   8.82953	   21.2743	
   8.79322	0.000855897	   8.77364	0.000845982	    8.7683	0.000857438	   8.77839	0.000853106	   8.77839	   21.3276	
   8.74178	0.00085798	   8.72247	0.000848087	    8.7169	0.000859407	   8.72705	0.000855158	   8.72705	    21.379	
   8.68992	0.000859916	   8.67091	0.000850148	   8.66528	0.000861383	   8.67537	0.000857149	   8.67537	   21.4287	
    8.6376	0.000861769	   8.61891	0.000852154	   8.61325	0.000863402	   8.62325	0.000859108	   8.62325	   21.4777	
   8.58503	0.000863635	   8.56669	0.000854105	   8.56102	0.00086546	   8.57091	0.000861067	   8.57091	   21.5267	
   8.53209	0.000865586	   8.51412	0.000856017	   8.50829	0.00086753	   8.51817	0.000863044	   8.51817	   21.5761	
   8.47883	0.000867646	    8.4611	0.000857924	   8.45515	0.000869565	   8.46502	0.000865045	   8.46502	   21.6261	
    8.4253	0.000869777	   8.40783	0.000859859	   8.40166	0.000871515	    8.4116	0.00086705	    8.4116	   21.6763	
   8.37138	0.00087191	   8.35404	0.000861844	    8.3477	0.000873353	    8.3577	0.000869036	    8.3577	   21.7259	
   8.31713	0.000873956	    8.2998	0.000863861	   8.29347	0.000875091	   8.30347	0.000870969	   8.30347	   21.7742	
    8.2626	0.000875864	   8.24532	0.000865864	   8.23903	0.000876764	   8.24898	0.00087283	   8.24898	   21.8208	
     8.208	0.000877627	    8.1905	0.000867782	   8.18457	0.000878419	   8.19435	0.000874609	   8.19435	   21.8652	
   8.15288	0.000879288	   8.13522	0.000869562	   8.12965	0.000880095	   8.13925	0.000876315	   8.13925	   21.9079	
   8.09747	0.000880915	   8.07972	0.000871184	    8.0745	0.000881818	    8.0839	0.000877972	    8.0839	   21.9493	
   8.04167	0.000882577	   8.02357	0.000872673	   8.01899	0.000883574	   8.02808	0.000879608	   8.02808	   21.9902	
   7.98538	0.00088431	   7.96701	 0.0008741	   7.96304	0.000885328	   7.97181	0.000881246	   7.97181	   22.0312	
   7.92883	0.000886109	   7.91025	0.000875554	   7.90686	0.000887031	   7.91531	0.000882898	   7.91531	   22.0724	
   7.87207	0.000887926	   7.85304	0.000877096	   7.85018	0.000888649	   7.85843	0.000884557	   7.85843	   22.1139	
   7.81483	0.000889694	   7.79544	0.000878749	   7.79309	0.000890167	   7.80112	0.000886203	   7.80112	   22.1551	
   7.75735	0.000891352	   7.73756	0.000880478	    7.7358	0.000891598	   7.74357	0.000887809	   7.74357	   22.1952	
   7.69952	0.000892872	   7.67925	0.000882195	   7.67821	0.000892976	   7.68566	0.000889348	   7.68566	   22.2337	
   7.64125	0.000894267	    7.6206	0.000883805	   7.62022	0.000894346	   7.62736	0.000890806	   7.62736	   22.2701	
   7.58278	0.000895585	   7.56183	0.000885245	    7.5619	0.000895739	   7.56883	0.00089219	   7.56883	   22.3047	
   7.52414	0.00089689	   7.50268	0.000886499	   7.50331	0.000897161	   7.51004	0.000893517	   7.51004	   22.3379	
    7.4651	0.000898236	   7.44321	0.000887616	   7.44436	0.000898595	   7.45089	0.000894816	   7.45089	   22.3704	
   7.40587	0.000899638	   7.38365	0.00088869	   7.38528	0.000900003	    7.3916	0.00089611	    7.3916	   22.4028	
   7.34619	0.000901071	   7.32374	0.000889823	   7.32564	0.000901348	   7.33186	0.000897414	   7.33186	   22.4353	
   7.28615	0.000902476	   7.26354	0.000891072	   7.26569	0.000902607	   7.27179	0.000898718	   7.27179	    22.468	
   7.22597	0.000903791	   7.20329	0.000892444	   7.20565	0.000903779	   7.21164	0.000900005	   7.21164	   22.5001	
   7.16572	0.000904978	   7.14286	0.000893879	   7.14526	0.000904889	   7.15128	0.000901248	   7.15128	   22.5312	
   7.10511	0.00090603	   7.08217	0.000895278	    7.0846	0.000905973	   7.09063	0.000902427	   7.09063	   22.5607	
   7.04424	0.000906987	   7.02144	0.000896552	   7.02373	0.000907068	    7.0298	0.000903536	    7.0298	   22.5884	
   6.98285	0.000907909	   6.96025	0.00089764	   6.96239	0.000908186	   6.96849	0.000904578	   6.96849	   22.6145	
   6.92118	0.000908853	   6.89883	0.000898551	   6.90084	0.000909318	   6.90695	0.000905574	   6.90695	   22.6393	
   6.85932	0.00090985	   6.83725	0.000899347	   6.83897	0.000910429	   6.84518	0.000906542	   6.84518	   22.6636	
   6.79702	0.000910887	   6.77527	0.000900124	   6.77688	0.000911481	   6.78305	0.000907498	   6.78305	   22.6874	
   6.73451	0.000911919	   6.71312	0.000900974	   6.71462	0.000912443	   6.72075	0.000908445	   6.72075	   22.7111	
   6.67155	0.000912889	   6.65039	0.000901939	    6.6521	0.000913303	   6.65801	0.000909377	   6.65801	   22.7344	
   6.60823	0.000913753	    6.5875	0.000902997	   6.58924	0.000914082	   6.59499	0.000910278	   6.59499	   22.7569	
    6.5448	0.000914495	   6.52452	0.000904079	   6.52612	0.000914819	   6.53181	0.000911131	   6.53181	   22.7783	
   6.48115	0.000915137	   6.46103	0.000905096	   6.46266	0.000915554	   6.46828	0.000911929	   6.46828	   22.7982	
   6.41721	0.000915727	   6.39744	0.000905967	   6.39893	0.000916318	   6.40453	0.000912671	   6.40453	   22.8168	
   6.35321	0.000916318	   6.33344	0.000906664	   6.33505	0.000917113	   6.34057	0.000913365	   6.34057	   22.8341	
   6.28874	0.000916953	   6.26902	0.000907221	    6.2709	0.000917913	   6.27622	0.000914029	   6.27622	   22.8507	
   6.22405	0.000917633	   6.20444	0.00090771	   6.20655	0.000918676	   6.21168	0.000914673	   6.21168	   22.8668	
   6.15923	0.000918333	   6.13977	0.00090822	   6.14208	0.00091937	   6.14703	0.000915308	   6.14703	   22.8827	
   6.09418	0.000919006	   6.07475	0.000908813	   6.07725	0.000919976	   6.08206	0.000915932	   6.08206	   22.8983	
   6.02899	0.000919606	   6.00964	 0.0009095	    6.0123	0.000920502	   6.01698	0.000916536	   6.01698	   22.9134	
   5.96375	0.000920105	   5.94441	0.000910237	   5.94708	0.000920975	   5.95175	0.000917106	   5.95175	   22.9276	
   5.89819	0.000920529	   5.87875	0.000910952	   5.88158	0.000921429	   5.88617	0.000917637	   5.88617	   22.9409	
   5.83255	0.000920896	   5.81307	0.000911569	   5.81588	0.000921879	    5.8205	0.000918115	    5.8205	   22.9529	
   5.76643	0.000921239	   5.74712	0.000912042	    5.7499	0.000922324	   5.75448	0.000918535	   5.75448	   22.9634	
   5.70008	0.00092158	   5.68099	0.000912377	   5.68373	0.000922739	   5.68827	0.000918899	   5.68827	   22.9725	
   5.63351	0.000921918	   5.61465	0.000912618	   5.61748	0.000923102	   5.62188	0.000919213	   5.62188	   22.9803	
   5.56656	0.000922235	   5.54798	0.000912835	   5.55088	0.000923394	   5.55514	0.000919488	   5.55514	   22.9872	
    5.4995	0.000922505	   5.48122	0.000913092	   5.48417	0.00092362	    5.4883	0.000919739	    5.4883	   22.9935	
   5.43224	0.000922708	   5.41429	0.000913415	   5.41712	0.000923802	   5.42122	0.000919975	   5.42122	   22.9994	
   5.36471	0.000922846	   5.34711	0.000913783	   5.34983	0.000923974	   5.35388	0.000920201	   5.35388	    23.005	
   5.29716	0.00092294	   5.27977	0.000914148	   5.28253	0.000924158	   5.28649	0.000920415	   5.28649	   23.0104	
   5.22919	0.000923019	   5.21216	0.00091444	   5.21495	0.00092436	   5.21876	0.000920606	   5.21876	   23.0152	
   5.16105	0.000923106	    5.1444	0.000914616	   5.14721	0.000924563	   5.15089	0.000920761	   5.15089	    23.019	
   5.09268	0.000923207	   5.07611	0.000914672	   5.07923	0.00092473	   5.08267	0.000920869	   5.08267	   23.0217	
     5.024	0.000923303	   5.00755	0.000914634	   5.01096	0.00092482	   5.01417	0.000920919	   5.01417	    23.023	
   4.95528	0.000923366	   4.93897	0.000914558	   4.94247	0.000924813	   4.94557	0.000920912	   4.94557	   23.0228	
   4.88627	0.000923364	   4.87014	0.000914507	   4.87371	0.000924709	   4.87671	0.00092086	   4.87671	   23.0215	
   4.81707	0.000923282	   4.80114	0.000914512	   4.80477	0.000924533	   4.80766	0.000920776	   4.80766	   23.0194	
   4.74777	0.000923125	   4.73191	0.000914575	   4.73574	0.000924325	   4.73847	0.000920675	   4.73847	   23.0169	
   4.67813	0.000922908	   4.66239	0.000914653	   4.66638	0.000924124	   4.66897	0.000920562	   4.66897	    23.014	
   4.60843	0.000922642	   4.59267	0.000914692	   4.59695	0.00092395	   4.59935	0.000920428	   4.59935	   23.0107	
   4.53873	0.000922346	   4.52268	0.000914632	   4.52738	0.000923801	    4.5296	0.000920259	    4.5296	   23.0065	
   4.46881	0.000922024	   4.45253	0.000914447	    4.4576	0.000923644	   4.45965	0.000920038	   4.45965	    23.001	
   4.39877	0.00092168	   4.38234	0.000914147	    4.3876	0.000923444	   4.38957	0.000919757	   4.38957	   22.9939	
   4.32853	0.000921318	   4.31183	0.000913786	   4.31726	0.000923168	   4.31921	0.000919424	   4.31921	   22.9856	
   4.25818	0.000920939	   4.24128	0.000913431	   4.24684	0.000922808	   4.24877	0.000919059	   4.24877	   22.9765	
   4.18764	0.000920538	   4.17029	0.000913152	   4.17611	0.000922368	   4.17801	0.000918686	   4.17801	   22.9671	
   4.11686	0.000920114	   4.09914	0.000912977	   4.10517	0.000921875	   4.10706	0.000918322	   4.10706	    22.958	
   4.04595	0.000919662	   4.02782	0.000912888	   4.03416	0.000921362	   4.03598	0.000917971	   4.03598	   22.9493	
   3.97468	0.000919176	   3.95621	0.000912815	   3.96297	0.000920846	   3.96462	0.000917612	   3.96462	   22.9403	
    3.9033	0.00091865	   3.88458	0.000912661	   3.89169	0.000920341	   3.89319	0.000917218	   3.89319	   22.9304	
   3.83191	0.000918087	   3.81269	0.000912351	   3.82027	0.000919842	   3.82162	0.00091676	   3.82162	    22.919	
   3.76043	0.00091748	   3.74065	0.000911853	   3.74862	0.000919348	    3.7499	0.000916227	    3.7499	   22.9057	
   3.68894	0.000916825	   3.66854	0.000911191	   3.67702	0.000918838	   3.67817	0.000915618	   3.67817	   22.8904	
    3.6172	0.000916119	   3.59628	0.000910461	   3.60519	0.000918276	   3.60622	0.000914952	   3.60622	   22.8738	
   3.54532	0.000915371	   3.52399	0.000909752	   3.53326	0.000917619	   3.53419	0.000914247	   3.53419	   22.8562	
   3.47325	0.000914586	   3.45144	0.000909146	   3.46102	0.000916843	    3.4619	0.000913525	    3.4619	   22.8381	
   3.40093	0.000913777	   3.37874	0.000908655	    3.3892	0.000915951	   3.38962	0.000912795	   3.38962	   22.8199	
   3.32861	0.000912967	   3.30599	0.000908241	   3.31768	0.000914973	   3.31743	0.00091206	   3.31743	   22.8015	
   3.25608	0.00091216	   3.23312	0.000907801	   3.24638	0.000913947	   3.24519	0.000911303	   3.24519	   22.7826	
   3.18344	0.000911361	   3.16022	0.000907247	   3.17538	0.000912927	   3.17301	0.000910512	   3.17301	   22.7628	
   3.11061	0.000910554	   3.08708	0.000906509	    3.1033	0.000911958	   3.10033	0.000909674	   3.10033	   22.7418	
   3.03755	0.00090971	   3.01379	0.000905587	   3.03141	0.000911061	   3.02758	0.000908786	   3.02758	   22.7197	
   2.96452	0.000908799	   2.94046	0.000904535	   2.95867	0.000910216	   2.95455	0.00090785	   2.95455	   22.6963	
   2.89144	0.000907817	   2.86702	0.000903448	   2.88508	0.000909373	   2.88118	0.000906879	   2.88118	    22.672	
   2.81825	0.000906771	   2.79356	0.000902413	   2.81112	0.000908478	   2.80764	0.000905888	   2.80764	   22.6472	
   2.74482	0.000905681	   2.72009	0.000901483	   2.73675	0.000907476	   2.73389	0.00090488	   2.73389	    22.622	
   2.67117	0.000904577	   2.64647	0.000900635	   2.66256	0.000906343	   2.66007	0.000903851	   2.66007	   22.5963	
   2.59741	0.000903476	   2.57295	0.000899805	   2.58831	0.000905096	   2.58623	0.000902792	   2.58623	   22.5698	
   2.52331	0.000902381	   2.49932	0.000898903	   2.51442	0.000903779	   2.51235	0.000901688	   2.51235	   22.5422	
   2.44916	0.000901264	   2.42566	0.000897857	   2.44063	0.000902449	   2.43848	0.000900523	   2.43848	   22.5131	
   2.37505	0.000900103	    2.3519	0.000896638	   2.36703	0.000901151	   2.36466	0.000899298	   2.36466	   22.4824	
   2.30075	0.000898867	     2.278	0.000895282	   2.29346	0.000899906	   2.29073	0.000898019	   2.29073	   22.4505	
   2.22637	0.000897558	    2.2042	0.000893857	    2.2196	0.000898691	   2.21672	0.000896702	   2.21672	   22.4176	
   2.15168	0.000896185	   2.13027	0.000892445	   2.14588	0.000897467	   2.14261	0.000895366	   2.14261	   22.3841	
   2.07697	0.00089478	   2.05632	0.000891102	    2.0719	0.00089619	    2.0684	0.000894024	    2.0684	   22.3506	
   2.00233	0.00089337	   1.98242	0.000889838	    1.9981	0.000894823	   1.99429	0.000892677	   1.99429	   22.3169	
   1.92753	0.000891969	   1.90837	0.000888609	   1.92407	0.000893355	   1.91999	0.000891311	   1.91999	   22.2828	
   1.85284	0.000890567	    1.8344	0.000887351	   1.84977	0.000891805	   1.84567	0.000889908	   1.84567	   22.2477	
   1.77817	0.000889144	   1.76031	0.000885988	   1.77547	0.000890203	   1.77132	0.000888445	   1.77132	   22.2111	
   1.70347	0.000887673	   1.68617	0.000884483	    1.7011	0.000888588	   1.69691	0.000886914	   1.69691	   22.1729	
   1.62883	0.000886129	   1.61194	0.000882842	   1.62691	0.000886976	   1.62256	0.000885316	   1.62256	   22.1329	
   1.55402	0.000884507	   1.53756	0.000881111	   1.55268	0.000885372	   1.54809	0.000883663	   1.54809	   22.0916	
   1.47919	0.000882819	   1.46328	0.000879358	   1.47836	0.000883759	   1.47361	0.000881978	   1.47361	   22.0495	
   1.40424	0.000881084	   1.38872	0.000877643	   1.40403	0.000882113	     1.399	0.00088028	     1.399	    22.007	
   1.32927	0.000879333	   1.31415	0.000875989	   1.32961	0.000880408	   1.32434	0.000878576	   1.32434	   21.9644	
   1.25437	0.000877585	   1.23934	0.000874379	   1.25522	0.000878634	   1.24964	0.000876866	   1.24964	   21.9217	
   1.17932	0.000875846	   1.16442	0.000872766	   1.18061	0.000876801	   1.17478	0.000875138	   1.17478	   21.8784	
   1.10422	 0.0008741	   1.08963	0.000871089	   1.10607	0.000874923	   1.09997	0.00087337	   1.09997	   21.8343	
   1.02912	0.000872319	   1.01459	0.000869302	   1.03132	0.000873021	   1.02501	0.000871547	   1.02501	   21.7887	
  0.953994	0.000870479	  0.939569	0.000867402	  0.956514	0.000871106	  0.950026	0.000869662	  0.950026	   21.7416	
  0.878956	0.000868562	  0.864501	0.000865418	  0.881431	0.000869178	  0.874963	0.000867719	  0.874963	    21.693	
  0.803774	0.000866573	  0.789329	0.000863397	  0.806188	0.000867226	  0.799764	0.000865732	  0.799764	   21.6433	
  0.728711	0.000864537	  0.714154	0.000861386	  0.731049	0.000865238	  0.724638	0.00086372	  0.724638	    21.593	
  0.653538	0.000862491	  0.638756	 0.0008594	  0.655787	0.000863198	   0.64936	0.000861696	   0.64936	   21.5424	
  0.578355	0.000860466	  0.563405	0.000857422	  0.580504	0.000861101	  0.574088	0.000859663	  0.574088	   21.4916	
  0.503102	0.00085846	  0.488034	0.000855417	  0.505139	0.000858946	  0.498758	0.000857608	  0.498758	   21.4402	
  0.427719	0.00085643	  0.412582	0.00085337	  0.429635	0.000856738	  0.423312	0.000855513	  0.423312	   21.3878	
  0.352469	0.000854313	   0.33715	0.000851242	  0.354256	0.000854476	  0.347958	0.000853343	  0.347958	   21.3336	
  0.277278	0.000852059	  0.261675	0.000849024	  0.278772	0.00085216	  0.272575	0.000851081	  0.272575	    21.277	
  0.201953	0.000849661	  0.186254	0.000846719	  0.203286	0.000849793	  0.197164	0.000848724	  0.197164	   21.2181	
   0.12641	0.000847169	  0.110976	0.000844341	  0.127735	0.00084738	  0.121707	0.000846297	  0.121707	   21.1574	
 0.0507636	0.000844667	 0.0367082	0.000841922	 0.0520656	0.000844936	 0.0465125	0.000843842	 0.0465125	    21.096	
-0.0248828	0.000842232	-0.0371679	0.000839489	-0.0234619	0.000842476	-0.0285042	0.000841399	-0.0285042	    21.035	
 -0.100434	0.000839913	 -0.110907	0.000837041	-0.0990762	0.000840014	 -0.103472	0.00083899	 -0.103472	   20.9747	
  -0.17596	0.000837681	 -0.183963	0.000834597	 -0.174677	0.000837549	   -0.1782	0.000836609	   -0.1782	   20.9152	
 -0.251461	0.000835468	 -0.258311	0.000832153	 -0.250138	0.000835066	 -0.253304	0.000834229	 -0.253304	   20.8557	
 -0.327067	0.00083315	  -0.33206	0.000829705	 -0.325723	0.000832537	 -0.328283	0.000831797	 -0.328283	   20.7949	
 -0.402516	0.000830646	  -0.40674	0.00082724	 -0.401326	0.000829936	 -0.403527	0.000829274	 -0.403527	   20.7318	
  -0.47804	0.000827917	 -0.482183	0.000824742	 -0.477165	0.000827249	 -0.479129	0.000826636	 -0.479129	   20.6659	
 -0.553539	0.000825012	 -0.557918	0.000822189	 -0.552968	0.000824487	 -0.554808	0.000823896	 -0.554808	   20.5974	
 -0.629076	0.000822024	 -0.633982	0.000819579	 -0.628642	0.000821681	 -0.630567	0.000821094	 -0.630567	   20.5274	
  -0.70471	0.000819075	 -0.709719	0.000816902	 -0.704415	0.000818876	 -0.706281	0.000818284	 -0.706281	   20.4571	
  -0.78018	0.000816247	 -0.785748	0.000814173	 -0.780182	0.000816101	 -0.782037	0.000815507	 -0.782037	   20.3877	
 -0.855718	0.000813552	 -0.861324	0.000811415	 -0.856163	0.000813363	 -0.857735	0.000812777	 -0.857735	   20.3194	
 -0.931226	0.000810936	 -0.936859	0.000808654	 -0.932087	0.000810626	 -0.933391	0.000810072	 -0.933391	   20.2518	
  -1.00661	0.000808301	  -1.01211	0.000805898	  -1.00786	0.000807835	  -1.00886	0.000807345	  -1.00886	   20.1836	
   -1.0821	0.000805543	  -1.08715	0.000803151	   -1.0834	0.000804943	  -1.08422	0.000804546	  -1.08422	   20.1136	
  -1.15744	0.000802609	  -1.16232	0.000800384	  -1.15867	0.000801932	  -1.15948	0.000801642	  -1.15948	   20.0411	
  -1.23285	0.000799501	  -1.23726	0.000797574	  -1.23356	0.000798821	  -1.23456	0.000798632	  -1.23456	   19.9658	
  -1.30824	0.000796277	  -1.31238	0.000794697	    -1.308	0.00079566	  -1.30954	0.000795545	  -1.30954	   19.8886	
  -1.38337	0.000793031	  -1.38724	0.000791738	   -1.3829	0.000792516	   -1.3845	0.000792429	   -1.3845	   19.8107	
  -1.45861	0.000789847	   -1.4621	0.000788704	  -1.45748	0.000789422	   -1.4594	0.000789324	   -1.4594	   19.7331	
  -1.53373	0.000786763	  -1.53697	0.000785619	  -1.53249	0.000786385	   -1.5344	0.000786256	   -1.5344	   19.6564	
  -1.60894	0.000783772	  -1.61165	0.000782515	  -1.60716	0.000783347	  -1.60925	0.000783211	  -1.60925	   19.5803	
  -1.68398	0.000780807	  -1.68637	0.000779413	  -1.68219	0.000780252	  -1.68418	0.000780157	  -1.68418	   19.5039	
  -1.75894	0.000777782	  -1.76088	0.000776327	  -1.75654	0.000777024	  -1.75879	0.000777044	  -1.75879	   19.4261	
  -1.83373	0.000774629	  -1.83542	0.000773249	  -1.83093	0.000773655	  -1.83336	0.000773845	  -1.83336	   19.3461	
  -1.90843	0.000771322	  -1.90989	0.000770156	  -1.90529	0.000770156	  -1.90787	0.000770544	  -1.90787	   19.2636	
  -1.98292	0.000767877	  -1.98418	0.000767016	  -1.97949	0.000766605	   -1.9822	0.000767166	   -1.9822	   19.1792	
  -2.05747	0.000764359	  -2.05856	0.000763803	  -2.05412	0.000763072	  -2.05672	0.000763745	  -2.05672	   19.0936	
  -2.13184	0.000760844	  -2.13277	0.000760497	  -2.12841	0.000759617	  -2.13101	0.000760319	  -2.13101	    19.008	
  -2.20609	0.000757391	  -2.20689	0.000757112	  -2.20325	0.000756251	  -2.20541	0.000756918	  -2.20541	   18.9229	
  -2.28031	0.000754018	    -2.281	0.000753686	   -2.2774	0.000752941	  -2.27957	0.000753548	  -2.27957	   18.8387	
  -2.35425	0.000750696	  -2.35501	0.000750245	  -2.35176	0.000749617	  -2.35367	0.000750186	  -2.35367	   18.7547	
  -2.42819	0.000747362	  -2.42914	0.000746839	  -2.42586	0.000746209	  -2.42773	0.000746803	  -2.42773	   18.6701	
  -2.50201	0.000743944	   -2.5033	0.00074348	  -2.49985	0.000742665	  -2.50172	0.000743363	  -2.50172	   18.5841	
  -2.57562	0.000740397	  -2.57771	0.000740147	  -2.57395	0.000738976	  -2.57576	0.00073984	  -2.57576	    18.496	
  -2.64928	0.000736717	  -2.65147	 0.0007368	  -2.64791	0.000735179	  -2.64955	0.000736232	  -2.64955	   18.4058	
  -2.72273	0.000732937	  -2.72534	0.000733382	  -2.72197	0.000731335	  -2.72334	0.000732552	  -2.72334	   18.3138	
  -2.79606	0.000729126	  -2.79921	0.000729847	  -2.79571	0.000727512	  -2.79699	0.000728828	  -2.79699	   18.2207	
  -2.86934	0.000725343	  -2.87274	0.000726179	  -2.86914	0.000723752	  -2.87041	0.000725091	  -2.87041	   18.1273	
   -2.9425	0.000721624	  -2.94644	0.000722412	  -2.94245	0.000720054	   -2.9438	0.000721363	   -2.9438	   18.0341	
  -3.01546	0.000717949	  -3.01927	0.000718599	  -3.01555	0.000716382	  -3.01676	0.000717644	  -3.01676	   17.9411	
   -3.0883	0.000714276	  -3.09277	0.000714817	  -3.08853	0.00071268	  -3.08987	0.000713924	  -3.08987	   17.8481	
  -3.16079	0.000710533	  -3.16602	0.000711113	  -3.16132	0.000708889	  -3.16271	0.000710178	  -3.16271	   17.7545	
  -3.23322	0.000706664	  -3.23902	0.000707495	  -3.23416	0.000704976	  -3.23547	0.000706379	  -3.23547	   17.6595	
  -3.30548	0.000702664	   -3.3121	0.000703907	  -3.30681	0.000700952	  -3.30813	0.000702508	  -3.30813	   17.5627	
  -3.37765	0.000698566	  -3.38439	0.000700299	  -3.37919	0.000696856	  -3.38041	0.000698574	  -3.38041	   17.4643	
  -3.44982	0.000694445	  -3.45713	0.000696579	  -3.45155	0.000692747	  -3.45283	0.00069459	  -3.45283	   17.3648	
  -3.52174	0.000690369	  -3.52925	0.000692746	  -3.52366	0.00068868	  -3.52489	0.000690598	  -3.52489	    17.265	
  -3.59367	0.000686377	  -3.60151	0.000688807	  -3.59561	0.000684672	  -3.59693	0.000686619	  -3.59693	   17.1655	
  -3.66553	0.000682484	  -3.67364	0.000684825	  -3.66749	0.000680714	  -3.66889	0.000682674	  -3.66889	   17.0669	
  -3.73723	0.000678636	  -3.74559	0.000680871	  -3.73922	0.000676759	  -3.74068	0.000678755	  -3.74068	   16.9689	
  -3.80902	0.00067474	  -3.81774	0.000677004	  -3.81088	0.000672754	  -3.81255	0.000674833	  -3.81255	   16.8708	
  -3.88065	0.000670708	  -3.88922	0.000673193	  -3.88241	0.000668652	  -3.88409	0.000670851	  -3.88409	   16.7713	
  -3.95206	0.000666474	  -3.96095	0.000669401	  -3.95356	0.000664447	  -3.95552	0.000666774	  -3.95552	   16.6693	
   -4.0235	0.000662045	  -4.03234	0.000665542	  -4.02462	0.000660161	  -4.02682	0.000662583	  -4.02682	   16.5646	
  -4.09472	0.000657487	  -4.10375	0.000661565	  -4.09549	0.000655846	  -4.09799	0.000658299	  -4.09799	   16.4575	
  -4.16582	0.000652899	    -4.175	0.000657431	  -4.16644	0.000651554	  -4.16909	0.000653961	  -4.16909	    16.349	
  -4.23688	0.000648383	  -4.24588	0.000653198	  -4.23738	0.000647316	  -4.24005	0.000649632	  -4.24005	   16.2408	
  -4.30768	0.000644016	  -4.31712	0.000648905	  -4.30807	0.000643136	  -4.31095	0.000645352	  -4.31095	   16.1338	
  -4.37831	0.000639792	  -4.38781	0.000644644	  -4.37845	0.000638984	  -4.38153	0.00064114	  -4.38153	   16.0285	
  -4.44887	0.000635651	  -4.45841	0.00064045	  -4.44863	0.000634805	  -4.45197	0.000636969	  -4.45197	   15.9242	
  -4.51912	0.000631489	  -4.52868	0.000636336	  -4.51856	0.000630552	  -4.52212	0.000632793	  -4.52212	   15.8198	
  -4.58932	0.000627203	  -4.59873	0.000632244	  -4.58832	 0.0006262	  -4.59212	0.000628549	  -4.59212	   15.7137	
  -4.65941	0.000622734	  -4.66865	0.000628124	  -4.65801	0.000621752	  -4.66202	0.000624204	  -4.66202	   15.6051	
  -4.72932	0.000618092	  -4.73822	0.000623904	  -4.72741	0.000617242	  -4.73165	0.000619746	  -4.73165	   15.4937	
  -4.79882	0.000613343	  -4.80772	0.000619561	  -4.79663	0.000612722	  -4.80105	0.000615209	  -4.80105	   15.3802	
  -4.86819	0.000608597	  -4.87706	0.000615092	  -4.86575	0.000608236	  -4.87033	0.000610641	  -4.87033	    15.266	
  -4.93736	0.000603945	  -4.94604	0.000610553	  -4.93457	0.00060381	  -4.93932	0.000606103	  -4.93932	   15.1526	
  -5.00644	0.000599431	  -5.01508	0.000605994	  -5.00333	0.000599439	  -5.00828	0.000601621	  -5.00828	   15.0405	
  -5.07536	0.000595023	  -5.08395	0.000601475	  -5.07199	0.000595078	   -5.0771	0.000597192	   -5.0771	   14.9298	
  -5.14406	0.000590627	  -5.15243	0.000597003	  -5.14031	0.000590678	   -5.1456	0.00059277	   -5.1456	   14.8192	
  -5.21248	0.000586133	  -5.22095	0.000592571	  -5.20857	0.000586187	    -5.214	0.000588297	    -5.214	   14.7074	
  -5.28074	0.000581464	  -5.28928	0.000588135	   -5.2767	0.000581574	  -5.28224	0.000583724	  -5.28224	   14.5931	
  -5.34862	0.000576606	  -5.35736	0.000583655	  -5.34449	0.000576843	  -5.35016	0.000579035	  -5.35016	   14.4759	
  -5.41639	0.00057162	  -5.42515	0.000579087	  -5.41237	0.000572037	  -5.41797	0.000574248	  -5.41797	   14.3562	
    -5.484	0.000566616	  -5.49276	0.000574435	  -5.48009	0.000567215	  -5.48561	0.000569422	  -5.48561	   14.2355	
  -5.55123	 0.0005617	  -5.56012	0.00056971	  -5.54745	0.000562434	  -5.55293	0.000564615	  -5.55293	   14.1154	
   -5.6182	0.000556931	   -5.6272	0.000564961	  -5.61457	0.000557731	  -5.61999	0.000559874	  -5.61999	   13.9969	
  -5.68503	0.000552299	  -5.69411	0.000560217	  -5.68155	0.000553094	   -5.6869	0.000555203	   -5.6869	   13.8801	
   -5.7515	0.000547726	  -5.76079	0.000555506	  -5.74834	0.000548486	  -5.75354	0.000550573	  -5.75354	   13.7643	
  -5.81773	0.000543102	  -5.82736	0.000550823	  -5.81474	0.000543848	  -5.81994	0.000545924	  -5.81994	   13.6481	
  -5.88385	0.000538325	   -5.8936	0.000546148	  -5.88103	0.00053913	  -5.88616	0.000541201	  -5.88616	     13.53	
  -5.94963	0.000533362	  -5.95947	0.00054144	  -5.94699	0.000534302	  -5.95203	0.000536368	  -5.95203	   13.4092	
  -6.01504	0.000528233	  -6.02511	0.000536676	  -6.01243	0.000529375	  -6.01752	0.000531428	  -6.01752	   13.2857	
  -6.08037	0.000523018	  -6.09062	0.000531847	  -6.07767	0.000524384	  -6.08289	0.000526416	  -6.08289	   13.1604	
   -6.1454	0.000517813	   -6.1558	0.000526971	  -6.14265	0.00051937	  -6.14795	0.000521385	  -6.14795	   13.0346	
  -6.21026	0.000512696	  -6.22061	0.000522071	  -6.20717	0.000514375	  -6.21268	0.000516381	  -6.21268	   12.9095	
  -6.27505	0.000507697	  -6.28519	0.000517175	  -6.27167	0.000509414	   -6.2773	0.000511428	   -6.2773	   12.7857	
  -6.33957	0.000502778	  -6.34948	0.000512287	  -6.33595	0.000504493	  -6.34167	0.000506519	  -6.34167	    12.663	
  -6.40375	0.000497865	   -6.4133	0.000507407	   -6.3998	0.00049959	  -6.40562	0.000501621	  -6.40562	   12.5405	
   -6.4679	0.000492877	  -6.47711	0.000502509	  -6.46352	0.000494683	  -6.46951	0.000496689	  -6.46951	   12.4172	
  -6.53181	0.000487764	  -6.54069	0.000497567	  -6.52706	0.000489724	  -6.53319	0.000491685	  -6.53319	   12.2921	
  -6.59545	0.000482522	  -6.60385	0.000492558	  -6.59023	0.000484682	  -6.59651	0.000486587	  -6.59651	   12.1647	
  -6.65894	0.000477194	  -6.66673	0.000487492	    -6.653	0.000479533	  -6.65956	0.000481406	  -6.65956	   12.0352	
  -6.72208	0.000471854	  -6.72929	0.000482387	  -6.71567	0.000474285	  -6.72235	0.000476175	  -6.72235	   11.9044	
  -6.78484	0.000466569	  -6.79151	0.000477288	  -6.77804	0.000468971	   -6.7848	0.000470943	   -6.7848	   11.7736	
  -6.84705	0.000461385	  -6.85337	0.000472208	  -6.84024	0.000463637	  -6.84689	0.000465743	  -6.84689	   11.6436	
  -6.90902	0.000456309	  -6.91516	0.000467147	  -6.90223	0.00045833	   -6.9088	0.000460595	   -6.9088	   11.5149	
  -6.97072	0.000451271	  -6.97669	0.000462069	  -6.96397	0.000453086	  -6.97046	0.000455475	  -6.97046	   11.3869	
  -7.03195	0.000446199	  -7.03776	0.000456936	  -7.02545	0.000447909	  -7.03172	0.000450348	  -7.03172	   11.2587	
  -7.09288	0.000441011	  -7.09885	0.000451708	  -7.08663	0.000442776	  -7.09279	0.000445165	  -7.09279	   11.1291	
  -7.15363	0.00043567	  -7.15974	0.000446383	  -7.14765	0.000437644	  -7.15367	0.000439899	  -7.15367	   10.9975	
  -7.21402	0.000430177	   -7.2204	0.000440978	  -7.20831	0.000432468	  -7.21425	0.000434541	  -7.21425	   10.8635	
  -7.27419	0.000424617	  -7.28049	0.000435542	  -7.26845	0.000427205	  -7.27438	0.000429121	  -7.27438	    10.728	
  -7.33411	0.000419071	  -7.34034	0.000430128	  -7.32837	0.000421851	  -7.33427	0.000423683	  -7.33427	   10.5921	
  -7.39376	0.000413626	  -7.39991	0.00042478	  -7.38806	0.000416433	  -7.39391	0.00041828	  -7.39391	    10.457	
  -7.45297	0.000408309	  -7.45919	0.000419499	  -7.44733	0.000410995	  -7.45316	0.000412934	  -7.45316	   10.3234	
  -7.51169	0.000403102	  -7.51835	0.000414259	  -7.50614	0.000405582	  -7.51206	0.000407648	  -7.51206	   10.1912	
  -7.57028	0.000397919	  -7.57717	0.000409017	  -7.56484	0.000400217	  -7.57076	0.000402385	  -7.57076	   10.0596	
  -7.62855	0.000392679	  -7.63564	0.000403728	  -7.62324	0.000394895	  -7.62914	 0.0003971	  -7.62914	   9.92751	
  -7.68633	0.000387302	  -7.69375	0.000398353	  -7.68117	0.000389585	  -7.68708	0.000391747	  -7.68708	   9.79367	
  -7.74394	0.000381777	   -7.7515	0.000392892	  -7.73894	0.00038425	  -7.74479	0.000386306	  -7.74479	   9.65765	
  -7.80136	0.00037614	  -7.80887	0.000387358	  -7.79639	0.000378856	  -7.80221	0.000380785	  -7.80221	   9.51962	
  -7.85841	0.000370474	  -7.86587	0.000381798	  -7.85362	0.000373386	   -7.8593	0.000375219	   -7.8593	   9.38048	
  -7.91525	0.000364865	  -7.92249	0.000376243	   -7.9108	0.00036784	  -7.91618	0.000369649	  -7.91618	   9.24123	
  -7.97187	0.000359373	  -7.97873	0.000370735	  -7.96744	0.000362244	  -7.97268	0.000364117	  -7.97268	   9.10294	
  -8.02824	0.000353998	  -8.03474	0.000365271	  -8.02387	0.000356655	  -8.02895	0.000358641	  -8.02895	   8.96603	
  -8.08419	0.000348692	  -8.09037	0.000359851	   -8.0799	0.000351119	  -8.08482	0.000353221	  -8.08482	   8.83052	
  -8.13984	0.000343372	  -8.14545	0.000354436	  -8.13551	0.000345667	  -8.14027	0.000347825	  -8.14027	   8.69562	
  -8.19523	0.00033796	  -8.20047	0.000349001	  -8.19122	0.000340293	  -8.19564	0.000342418	  -8.19564	   8.56046	
  -8.25036	0.000332409	  -8.25526	0.000343512	  -8.24713	0.000334948	  -8.25092	0.000336956	  -8.25092	    8.4239	
  -8.30507	0.000326735	  -8.30965	0.00033796	  -8.30258	0.000329571	  -8.30577	0.000331422	  -8.30577	   8.28555	
  -8.35936	0.000320998	  -8.36365	0.000332353	  -8.35758	0.000324109	   -8.3602	0.00032582	   -8.3602	    8.1455	
  -8.41341	0.000315277	  -8.41727	0.00032673	  -8.41213	0.000318526	  -8.41427	0.000320177	  -8.41427	   8.00444	
  -8.46721	0.000309646	  -8.47067	0.000321112	  -8.46578	0.000312834	  -8.46789	0.000314531	  -8.46789	   7.86326	
   -8.5206	0.000304134	   -8.5237	0.000315529	  -8.51952	0.000307107	  -8.52127	0.000308924	  -8.52127	   7.72309	
  -8.57375	0.000298712	   -8.5762	0.000309987	  -8.57254	0.000301394	  -8.57416	0.000303364	  -8.57416	    7.5841	
  -8.62666	0.000293315	  -8.62837	0.000304465	  -8.62519	0.000295752	  -8.62674	0.000297844	  -8.62674	   7.44611	
  -8.67934	0.000287865	   -8.6802	0.000298928	  -8.67747	0.000290197	    -8.679	0.00029233	    -8.679	   7.30825	
  -8.73161	0.000282297	  -8.73172	0.000293346	  -8.72941	0.000284679	  -8.73091	0.000286774	  -8.73091	   7.16935	
  -8.78348	0.000276602	   -8.7829	0.000287694	  -8.78086	0.000279153	  -8.78241	0.000281149	  -8.78241	   7.02873	
  -8.83498	0.000270806	  -8.83394	0.000281981	  -8.83152	0.000273544	  -8.83348	0.000275444	  -8.83348	   6.88609	
  -8.88613	0.000264989	  -8.88469	0.000276232	  -8.88225	0.000267829	  -8.88436	0.000269683	  -8.88436	   6.74208	
  -8.93695	0.000259233	  -8.93515	0.000270483	   -8.9316	0.000262022	  -8.93457	0.000263913	  -8.93457	   6.59781	
  -8.98745	0.000253593	  -8.98518	0.00026477	  -8.98188	0.000256185	  -8.98484	0.000258183	  -8.98484	   6.45456	
  -9.03733	0.000248084	  -9.03481	0.000259109	  -9.03143	0.000250371	  -9.03452	0.000252521	  -9.03452	   6.31303	
   -9.0871	0.000242664	  -9.08412	0.000253487	  -9.08081	0.000244627	  -9.08401	0.000246926	  -9.08401	   6.17315	
  -9.13661	0.000237241	  -9.13322	0.000247879	  -9.12999	0.00023895	  -9.13328	0.000241357	  -9.13328	   6.03391	
  -9.18572	0.000231719	  -9.18198	0.000242249	  -9.17819	0.000233304	  -9.18196	0.000235757	  -9.18196	   5.89393	
  -9.23428	0.000226025	  -9.23025	0.000236563	  -9.22676	0.000227631	  -9.23043	0.000230073	  -9.23043	   5.75182	
  -9.28235	0.000220151	  -9.27792	0.000230811	   -9.2736	0.00022189	  -9.27796	0.000224284	  -9.27796	    5.6071	
  -9.33002	0.000214164	  -9.32524	0.000225012	  -9.32107	0.000216055	  -9.32544	0.00021841	  -9.32544	   5.46025	
  -9.37741	0.000208174	  -9.37235	0.000219189	  -9.36753	0.00021014	  -9.37243	0.000212501	  -9.37243	   5.31253	
   -9.4244	0.000202297	   -9.4191	0.000213378	  -9.41402	0.000204188	  -9.41917	0.000206621	  -9.41917	   5.16553	
  -9.47085	0.000196612	  -9.46537	0.000207605	  -9.46037	0.000198247	  -9.46553	0.000200821	  -9.46553	   5.02053	
  -9.51698	0.000191115	   -9.5112	0.000201875	  -9.50598	0.000192346	  -9.51138	0.000195112	  -9.51138	    4.8778	
   -9.5628	0.000185732	  -9.55646	0.000196175	  -9.55185	0.000186497	  -9.55704	0.000189468	  -9.55704	    4.7367	
  -9.60822	0.000180322	  -9.60154	0.000190482	  -9.59673	0.000180685	  -9.60217	0.00018383	  -9.60217	   4.59574	
  -9.65326	0.000174759	  -9.64629	0.000184775	  -9.64148	0.000174887	  -9.64701	0.00017814	  -9.64701	   4.45351	
  -9.69779	0.000168967	  -9.69074	0.000179042	   -9.6858	0.000169073	  -9.69144	0.000172361	  -9.69144	   4.30902	
   -9.7417	0.000162973	  -9.73494	0.000173277	  -9.72988	0.000163218	   -9.7355	0.000166489	   -9.7355	   4.16224	
  -9.78537	0.00015687	  -9.77844	0.000167486	  -9.77375	 0.0001573	  -9.77919	0.000160552	  -9.77919	   4.01381	
  -9.82883	0.000150792	  -9.82177	0.000161669	  -9.81698	0.000151321	  -9.82253	0.000154594	  -9.82253	   3.86485	
  -9.87195	0.000144871	  -9.86481	0.000155817	  -9.86007	0.000145286	  -9.86561	0.000148658	  -9.86561	   3.71645	
  -9.91462	0.000139163	  -9.90744	0.000149944	  -9.90275	0.000139219	  -9.90827	0.000142775	  -9.90827	   3.56938	
  -9.95688	0.000133624	  -9.94971	0.000144085	  -9.94508	0.000133163	  -9.95056	0.000136957	  -9.95056	   3.42394	
  -9.99879	0.000128148	   -9.9915	0.000138287	   -9.9871	0.000127153	  -9.99246	0.000131196	  -9.99246	    3.2799	
  -10.0404	0.000122599	   -10.033	0.00013258	  -10.0285	0.000121214	   -10.034	0.000125465	   -10.034	   3.13661	
  -10.0817	0.000116869	  -10.0745	0.000126965	  -10.0698	0.000115346	  -10.0753	0.000119727	  -10.0753	   2.99318	
  -10.1227	0.000110931	   -10.116	0.000121394	  -10.1106	0.000109526	  -10.1164	0.00011395	  -10.1164	   2.84876	
  -10.1632	0.00010484	   -10.157	0.000115799	   -10.151	0.000103707	   -10.157	0.000108116	   -10.157	   2.70289	
  -10.2032	9.8712e-05	  -10.1978	0.000110103	  -10.1908	9.78522e-05	  -10.1973	0.000102222	  -10.1973	   2.55556	
   -10.243	9.2671e-05	  -10.2377	0.000104278	  -10.2301	9.19518e-05	  -10.2369	9.63004e-05	  -10.2369	   2.40751	
  -10.2825	8.68086e-05	  -10.2767	9.83324e-05	  -10.2691	8.60208e-05	  -10.2761	9.03873e-05	  -10.2761	   2.25968	
  -10.3218	8.11511e-05	  -10.3158	9.23669e-05	  -10.3077	8.00763e-05	  -10.3151	8.45314e-05	  -10.3151	   2.11329	
  -10.3606	7.56341e-05	  -10.3541	8.64485e-05	   -10.346	7.41507e-05	  -10.3536	7.87444e-05	  -10.3536	   1.96861	
   -10.399	7.01234e-05	  -10.3925	8.06651e-05	  -10.3839	6.82456e-05	  -10.3918	7.30114e-05	  -10.3918	   1.82528	
  -10.4368	6.44816e-05	  -10.4304	7.50282e-05	  -10.4214	6.23667e-05	  -10.4295	6.72922e-05	  -10.4295	    1.6823	
  -10.4741	5.8615e-05	   -10.468	6.94929e-05	  -10.4585	5.64892e-05	  -10.4669	6.15323e-05	  -10.4669	   1.53831	
   -10.511	5.25293e-05	  -10.5048	6.39687e-05	  -10.4949	5.05878e-05	  -10.5036	5.56953e-05	  -10.5036	   1.39238	
  -10.5476	4.63176e-05	   -10.541	5.83522e-05	  -10.5311	4.46636e-05	  -10.5399	4.97778e-05	  -10.5399	   1.24444	
  -10.5839	4.01234e-05	  -10.5766	5.25987e-05	  -10.5671	3.87254e-05	  -10.5759	4.38158e-05	  -10.5759	    1.0954	
  -10.6198	3.40862e-05	  -10.6111	4.67218e-05	  -10.6029	3.27883e-05	  -10.6113	3.78654e-05	  -10.6113	  0.946636	
  -10.6552	2.82807e-05	  -10.6464	4.07879e-05	  -10.6382	2.68848e-05	  -10.6466	3.19845e-05	  -10.6466	  0.799612	
  -10.6901	2.26871e-05	  -10.6805	3.48719e-05	  -10.6731	2.10272e-05	  -10.6812	2.61954e-05	  -10.6812	  0.654885	
  -10.7244	1.71718e-05	  -10.7149	2.9043e-05	  -10.7074	1.51808e-05	  -10.7155	2.04652e-05	  -10.7155	   0.51163	
  -10.7581	1.16086e-05	  -10.7488	2.33216e-05	   -10.741	9.31877e-06	  -10.7493	1.47497e-05	  -10.7493	  0.368742	
  -10.7915	5.86856e-06	  -10.7825	1.76837e-05	  -10.7742	3.42214e-06	  -10.7827	8.99147e-06	  -10.7827	  0.224787	
  -10.8245	-6.83495e-08	  -10.8158	1.20747e-05	  -10.8069	-2.51311e-06	  -10.8157	3.16442e-06	  -10.8157	 0.0791106	
  -10.8572	-6.15837e-06	  -10.8477	6.43374e-06	  -10.8394	-8.44672e-06	  -10.8481	-2.72378e-06	  -10.8481	-0.0680946	
  -10.8896	-1.22661e-05	  -10.8803	7.20523e-07	  -10.8716	-1.43418e-05	  -10.8805	-8.62911e-06	  -10.8805	 -0.215728	
  -10.9215	-1.82685e-05	   -10.912	-5.08436e-06	  -10.9035	-2.01669e-05	  -10.9123	-1.45066e-05	  -10.9123	 -0.362664	
  -10.9529	-2.40719e-05	  -10.9434	-1.09454e-05	  -10.9349	-2.59101e-05	  -10.9437	-2.03091e-05	  -10.9437	 -0.507728	
  -10.9836	-2.96979e-05	  -10.9742	-1.68284e-05	  -10.9657	-3.16096e-05	  -10.9745	-2.60453e-05	  -10.9745	 -0.651133	
  -11.0139	-3.52302e-05	  -11.0045	-2.26745e-05	   -10.996	-3.7336e-05	  -11.0048	-3.17469e-05	  -11.0048	 -0.793673	
  -11.0437	-4.07894e-05	  -11.0348	-2.84561e-05	  -11.0257	-4.31421e-05	  -11.0347	-3.74625e-05	  -11.0347	 -0.936563	
  -11.0731	-4.64826e-05	   -11.064	-3.41519e-05	   -11.055	-4.90695e-05	  -11.0641	-4.32347e-05	  -11.0641	  -1.08087	
  -11.1023	-5.236e-05	   -11.093	-3.97963e-05	  -11.0839	-5.51094e-05	  -11.0931	-4.90885e-05	  -11.0931	  -1.22721	
   -11.131	-5.83885e-05	  -11.1212	-4.54178e-05	  -11.1125	-6.12074e-05	  -11.1216	-5.50046e-05	  -11.1216	  -1.37511	
  -11.1593	-6.44833e-05	  -11.1492	-5.10746e-05	  -11.1408	-6.72875e-05	  -11.1498	-6.09484e-05	  -11.1498	  -1.52371	
  -11.1873	-7.05373e-05	  -11.1767	-5.67933e-05	  -11.1687	-7.32837e-05	  -11.1776	-6.68715e-05	  -11.1776	  -1.67179	
  -11.2149	-7.64683e-05	  -11.2036	-6.25898e-05	  -11.1961	-7.91603e-05	  -11.2049	-7.27395e-05	  -11.2049	  -1.81849	
   -11.242	-8.224e-05	  -11.2301	-6.8431e-05	  -11.2232	-8.49343e-05	  -11.2318	-7.85351e-05	  -11.2318	  -1.96338	
  -11.2686	-8.78817e-05	  -11.2562	-7.42773e-05	  -11.2497	-9.06592e-05	  -11.2582	-8.42728e-05	  -11.2582	  -2.10682	
  -11.2945	-9.34651e-05	  -11.2819	-8.00684e-05	  -11.2757	-9.63948e-05	   -11.284	-8.99761e-05	   -11.284	   -2.2494	
  -11.3198	-9.90787e-05	  -11.3071	-8.5774e-05	  -11.3011	-0.000102197	  -11.3093	-9.56834e-05	  -11.3093	  -2.39208	
  -11.3445	-0.000104787	  -11.3317	-9.13968e-05	   -11.326	-0.000108092	  -11.3341	-0.000101425	  -11.3341	  -2.53563	
  -11.3688	-0.000110622	  -11.3563	-9.69801e-05	  -11.3503	-0.00011406	  -11.3585	-0.000107221	  -11.3585	  -2.68052	
  -11.3929	-0.00011656	  -11.3802	-0.000102554	   -11.374	-0.000120071	  -11.3824	-0.000113062	  -11.3824	  -2.82654	
  -11.4167	-0.000122546	  -11.4039	-0.000108177	  -11.3972	-0.000126064	  -11.4059	-0.000118929	  -11.4059	  -2.97322	
  -11.4401	-0.000128511	   -11.427	-0.000113881	    -11.42	-0.000132007	   -11.429	-0.000124799	   -11.429	  -3.11999	
  -11.4632	-0.000134405	  -11.4497	-0.000119662	  -11.4425	-0.000137873	  -11.4518	-0.000130646	  -11.4518	  -3.26616	
  -11.4859	-0.000140205	  -11.4722	-0.000125486	  -11.4647	-0.000143678	  -11.4743	-0.000136457	  -11.4743	  -3.41141	
  -11.5083	-0.000145925	  -11.4943	-0.000131313	  -11.4867	-0.000149443	  -11.4964	-0.000142227	  -11.4964	  -3.55568	
  -11.5302	-0.000151603	  -11.5161	-0.000137092	  -11.5083	-0.000155214	  -11.5182	-0.00014797	  -11.5182	  -3.69924	
  -11.5516	-0.00015729	  -11.5374	-0.000142807	  -11.5296	-0.000161025	  -11.5395	-0.000153707	  -11.5395	  -3.84268	
  -11.5725	-0.000163014	  -11.5583	-0.000148449	  -11.5504	-0.000166895	  -11.5604	-0.000159453	  -11.5604	  -3.98632	
  -11.5928	-0.000168783	  -11.5787	-0.000154035	  -11.5708	-0.00017281	  -11.5808	-0.000165209	  -11.5808	  -4.13024	
  -11.6126	-0.000174579	  -11.5986	-0.000159595	  -11.5907	-0.000178745	  -11.6006	-0.000170973	  -11.6006	  -4.27432	
  -11.6318	-0.000180367	   -11.618	-0.000165162	    -11.61	-0.000184651	    -11.62	-0.000176727	    -11.62	  -4.41816	
  -11.6504	-0.000186103	  -11.6368	-0.000170753	  -11.6289	-0.000190495	  -11.6387	-0.00018245	  -11.6387	  -4.56126	
  -11.6684	-0.000191766	  -11.6551	-0.000176376	  -11.6472	-0.000196257	  -11.6569	-0.000188133	  -11.6569	  -4.70332	
  -11.6857	-0.000197357	  -11.6727	-0.00018203	  -11.6649	-0.000201951	  -11.6745	-0.000193779	  -11.6745	  -4.84447	
  -11.7025	-0.000202902	  -11.6898	-0.000187692	  -11.6821	-0.00020761	  -11.6914	-0.000199401	  -11.6914	  -4.98503	
  -11.7187	-0.000208447	  -11.7062	-0.000193337	  -11.6986	-0.00021328	  -11.7079	-0.000205021	  -11.7079	  -5.12554	
  -11.7343	-0.000214036	  -11.7222	-0.000198946	  -11.7146	-0.000218992	  -11.7237	-0.000210658	  -11.7237	  -5.26645	
  -11.7494	-0.000219688	  -11.7375	-0.000204506	    -11.73	-0.000224755	   -11.739	-0.000216317	   -11.739	  -5.40792	
  -11.7641	-0.000225395	  -11.7526	-0.000210027	  -11.7449	-0.00023055	  -11.7539	-0.000221991	  -11.7539	  -5.54977	
  -11.7783	-0.000231117	   -11.767	-0.000215533	  -11.7593	-0.000236337	  -11.7682	-0.000227662	  -11.7682	  -5.69156	
  -11.7923	-0.000236821	   -11.781	-0.000221046	  -11.7732	-0.000242074	  -11.7822	-0.000233314	  -11.7822	  -5.83284	
  -11.8061	-0.00024246	  -11.7946	-0.000226583	  -11.7864	-0.000247739	  -11.7957	-0.000238928	  -11.7957	  -5.97319	
  -11.8195	-0.000248017	  -11.8076	-0.000232148	  -11.7993	-0.000253333	  -11.8088	-0.000244499	  -11.8088	  -6.11248	
  -11.8325	-0.000253504	  -11.8199	-0.000237724	  -11.8117	-0.000258881	  -11.8214	-0.000250036	  -11.8214	  -6.25091	
   -11.845	-0.000258944	  -11.8321	-0.000243288	  -11.8239	-0.000264416	  -11.8337	-0.000255549	  -11.8337	  -6.38874	
  -11.8571	-0.000264372	  -11.8437	-0.000248821	  -11.8358	-0.000269974	  -11.8455	-0.000261055	  -11.8455	  -6.52639	
  -11.8689	-0.000269835	   -11.855	-0.000254313	   -11.847	-0.000275562	  -11.8569	-0.00026657	  -11.8569	  -6.66425	
  -11.8803	-0.000275347	  -11.8659	-0.000259773	  -11.8577	-0.000281177	   -11.868	-0.000272099	   -11.868	  -6.80247	
  -11.8913	-0.000280914	  -11.8763	-0.000265221	  -11.8679	-0.000286794	  -11.8785	-0.000277643	  -11.8785	  -6.94107	
  -11.9021	-0.000286494	  -11.8862	-0.000270671	  -11.8778	-0.000292385	  -11.8887	-0.000283183	  -11.8887	  -7.07959	
  -11.9124	-0.00029206	  -11.8958	-0.000276141	  -11.8873	-0.000297938	  -11.8985	-0.000288713	  -11.8985	  -7.21782	
  -11.9222	-0.000297566	  -11.9049	-0.000281632	  -11.8962	-0.000303447	  -11.9078	-0.000294215	  -11.9078	  -7.35537	
  -11.9316	-0.000303012	  -11.9136	-0.000287138	  -11.9047	-0.000308914	  -11.9167	-0.000299688	  -11.9167	  -7.49219	
  -11.9406	-0.000308392	  -11.9216	-0.000292662	  -11.9127	-0.000314353	   -11.925	-0.000305136	   -11.925	  -7.62839	
  -11.9491	-0.000313746	  -11.9291	-0.000298205	  -11.9201	-0.000319789	  -11.9328	-0.00031058	  -11.9328	   -7.7645	
  -11.9572	-0.000319102	  -11.9361	-0.000303752	  -11.9271	-0.000325244	  -11.9401	-0.000316033	  -11.9401	  -7.90082	
  -11.9646	-0.000324488	  -11.9428	-0.000309271	  -11.9334	-0.000330739	   -11.947	-0.000321499	   -11.947	  -8.03749	
  -11.9718	-0.000329909	  -11.9489	-0.000314728	  -11.9392	-0.000336264	  -11.9533	-0.000326967	  -11.9533	  -8.17418	
  -11.9782	-0.000335354	  -11.9546	-0.000320097	  -11.9445	-0.00034178	  -11.9591	-0.000332411	  -11.9591	  -8.31027	
  -11.9839	-0.000340787	  -11.9597	-0.000325376	  -11.9493	-0.000347218	  -11.9643	-0.000337794	  -11.9643	  -8.44485	
  -11.9891	-0.000346179	  -11.9643	-0.000330581	  -11.9536	-0.000352525	   -11.969	-0.000343095	   -11.969	  -8.57737	
  -11.9936	-0.000351504	  -11.9684	-0.000335752	  -11.9575	-0.000357665	  -11.9732	-0.000348307	  -11.9732	  -8.70768	
  -11.9975	-0.000356762	   -11.972	-0.000340949	   -11.961	-0.000362686	  -11.9768	-0.000353466	  -11.9768	  -8.83664	
  -12.0008	-0.000361966	  -11.9751	-0.000346214	   -11.964	-0.000367655	    -11.98	-0.000358612	    -11.98	  -8.96529	
  -12.0036	-0.000367156	  -11.9779	-0.000351571	  -11.9667	-0.000372689	  -11.9827	-0.000363805	  -11.9827	  -9.09513	
  -12.0059	-0.000372358	  -11.9802	-0.000357009	   -11.969	-0.000377869	   -11.985	-0.000369079	   -11.985	  -9.22697	
  -12.0077	-0.000377596	  -11.9822	-0.00036249	   -11.971	-0.000383239	  -11.9869	-0.000374442	  -11.9869	  -9.36104	
  -12.0091	-0.000382868	  -11.9838	-0.000367954	  -11.9726	-0.000388756	  -11.9885	-0.000379859	  -11.9885	  -9.49648	
  -12.0101	-0.000388153	   -11.985	-0.000373346	   -11.974	-0.000394313	  -11.9897	-0.000385271	  -11.9897	  -9.63176	
  -12.0107	-0.000393413	   -11.986	-0.000378635	  -11.9751	-0.000399772	  -11.9906	-0.000390607	  -11.9906	  -9.76517	
  -12.0109	-0.000398622	  -11.9867	-0.000383818	  -11.9757	-0.000405027	  -11.9911	-0.000395822	  -11.9911	  -9.89555	
  -12.0109	-0.000403756	  -11.9871	-0.000388924	  -11.9762	-0.000410043	  -11.9914	-0.000400908	  -11.9914	  -10.0227	
  -12.0105	-0.000408823	  -11.9872	-0.000394007	  -11.9763	-0.000414872	  -11.9913	-0.000405901	  -11.9913	  -10.1475	
  -12.0099	-0.000413849	  -11.9867	-0.000399126	  -11.9761	-0.000419629	  -11.9909	-0.000410868	  -11.9909	  -10.2717	
  -12.0089	-0.000418867	  -11.9859	-0.000404309	  -11.9754	-0.000424459	  -11.9901	-0.000415878	  -11.9901	   -10.397	
  -12.0076	-0.000423909	  -11.9847	-0.000409575	  -11.9741	-0.000429468	  -11.9888	-0.000420984	  -11.9888	  -10.5246	
  -12.0059	-0.00042899	   -11.983	-0.000414894	  -11.9723	-0.000434674	  -11.9871	-0.000426186	  -11.9871	  -10.6547	
  -12.0037	-0.000434095	  -11.9808	-0.0004202	  -11.9699	-0.000440006	  -11.9848	-0.000431433	  -11.9848	  -10.7858	
  -12.0009	-0.000439194	   -11.978	-0.000425427	  -11.9668	-0.000445333	  -11.9819	-0.000436651	  -11.9819	  -10.9163	
  -11.9974	-0.000444247	  -11.9747	-0.000430525	  -11.9633	-0.000450512	  -11.9785	-0.000441761	  -11.9785	   -11.044	
  -11.9934	-0.000449226	  -11.9709	-0.000435502	  -11.9593	-0.000455476	  -11.9745	-0.000446735	  -11.9745	  -11.1684	
  -11.9888	-0.000454135	  -11.9667	-0.000440402	  -11.9548	-0.000460228	  -11.9701	-0.000451588	  -11.9701	  -11.2897	
  -11.9837	-0.000459007	   -11.962	-0.000445294	  -11.9501	-0.000464856	  -11.9653	-0.000456386	  -11.9653	  -11.4096	
  -11.9782	-0.000463885	   -11.957	-0.000450253	  -11.9449	-0.000469491	  -11.9601	-0.00046121	  -11.9601	  -11.5302	
  -11.9724	-0.000468809	  -11.9515	-0.00045532	  -11.9395	-0.00047426	  -11.9545	-0.00046613	  -11.9545	  -11.6532	
   -11.966	-0.000473784	  -11.9455	-0.000460471	  -11.9336	-0.00047921	  -11.9484	-0.000471155	  -11.9484	  -11.7789	
  -11.9594	-0.000478788	  -11.9392	-0.000465637	  -11.9273	-0.000484298	   -11.942	-0.000476241	   -11.942	   -11.906	
  -11.9523	-0.000483774	  -11.9323	-0.000470749	  -11.9206	-0.000489435	  -11.9351	-0.000481319	  -11.9351	   -12.033	
  -11.9447	-0.0004887	  -11.9246	-0.000475731	  -11.9132	-0.00049449	  -11.9275	-0.000486307	  -11.9275	  -12.1577	
  -11.9365	-0.000493531	  -11.9163	-0.000480565	  -11.9052	-0.00049937	  -11.9193	-0.000491156	  -11.9193	  -12.2789	
  -11.9277	-0.000498279	  -11.9076	-0.000485289	  -11.8966	-0.000504046	  -11.9106	-0.000495871	  -11.9106	  -12.3968	
  -11.9185	-0.000502971	  -11.8984	-0.000489973	  -11.8876	-0.000508568	  -11.9015	-0.000500504	  -11.9015	  -12.5126	
  -11.9087	-0.000507664	  -11.8888	-0.000494698	  -11.8782	-0.000513044	  -11.8919	-0.000505136	  -11.8919	  -12.6284	
  -11.8986	-0.000512395	  -11.8789	-0.000499514	  -11.8683	-0.000517575	  -11.8819	-0.000509828	  -11.8819	  -12.7457	
  -11.8881	-0.00051717	  -11.8687	-0.000504414	  -11.8579	-0.000522228	  -11.8716	-0.000514604	  -11.8716	  -12.8651	
  -11.8773	-0.000521975	  -11.8578	-0.000509346	  -11.8473	-0.000527006	  -11.8608	-0.000519442	  -11.8608	  -12.9861	
  -11.8663	-0.000526761	  -11.8465	-0.000514244	  -11.8359	-0.000531856	  -11.8496	-0.000524287	  -11.8496	  -13.1072	
  -11.8545	-0.00053148	  -11.8346	-0.000519041	  -11.8239	-0.000536682	  -11.8377	-0.000529068	  -11.8377	  -13.2267	
  -11.8423	-0.000536096	  -11.8222	-0.000523712	  -11.8113	-0.000541402	  -11.8252	-0.000533736	  -11.8252	  -13.3434	
  -11.8295	-0.000540607	  -11.8092	-0.000528274	  -11.7982	-0.000545969	  -11.8123	-0.000538283	  -11.8123	  -13.4571	
  -11.8161	-0.000545045	  -11.7958	-0.000532783	  -11.7847	-0.000550398	  -11.7989	-0.000542742	  -11.7989	  -13.5686	
  -11.8023	-0.000549471	   -11.782	-0.000537295	  -11.7708	-0.000554749	   -11.785	-0.000547172	   -11.785	  -13.6793	
  -11.7882	-0.000553935	  -11.7676	-0.000541862	  -11.7566	-0.000559107	  -11.7708	-0.000551635	  -11.7708	  -13.7909	
  -11.7736	-0.000558471	  -11.7527	-0.000546505	   -11.742	-0.000563538	  -11.7561	-0.000556171	  -11.7561	  -13.9043	
  -11.7585	-0.000563077	  -11.7373	-0.000551202	  -11.7266	-0.000568068	  -11.7408	-0.000560782	  -11.7408	  -14.0196	
  -11.7428	-0.000567714	  -11.7212	-0.000555897	  -11.7107	-0.000572676	  -11.7249	-0.000565429	  -11.7249	  -14.1357	
  -11.7265	-0.000572316	  -11.7047	-0.000560523	  -11.6943	-0.000577302	  -11.7085	-0.000570047	  -11.7085	  -14.2512	
  -11.7097	-0.000576824	  -11.6876	-0.000565025	  -11.6774	-0.000581868	  -11.6916	-0.000574573	  -11.6916	  -14.3643	
  -11.6924	-0.000581195	  -11.6703	-0.000569392	  -11.6603	-0.000586318	  -11.6743	-0.000578968	  -11.6743	  -14.4742	
  -11.6748	-0.000585431	  -11.6527	-0.000573649	  -11.6426	-0.000590633	  -11.6567	-0.000583238	  -11.6567	  -14.5809	
  -11.6567	-0.000589574	  -11.6347	-0.000577848	  -11.6246	-0.000594841	  -11.6387	-0.000587421	  -11.6387	  -14.6855	
  -11.6382	-0.000593691	  -11.6159	-0.000582064	   -11.606	-0.000599002	    -11.62	-0.000591586	    -11.62	  -14.7896	
  -11.6191	-0.000597851	  -11.5966	-0.000586353	  -11.5868	-0.000603184	  -11.6008	-0.000595796	  -11.6008	  -14.8949	
  -11.5993	-0.000602086	  -11.5767	-0.000590736	  -11.5672	-0.000607439	  -11.5811	-0.000600087	  -11.5811	  -15.0022	
  -11.5791	-0.000606389	  -11.5566	-0.000595193	  -11.5472	-0.000611776	   -11.561	-0.000604453	   -11.561	  -15.1113	
  -11.5586	-0.000610708	  -11.5361	-0.000599668	  -11.5269	-0.000616159	  -11.5405	-0.000608845	  -11.5405	  -15.2211	
  -11.5378	-0.000614984	  -11.5152	-0.000604085	  -11.5062	-0.000620522	  -11.5197	-0.000613197	  -11.5197	  -15.3299	
  -11.5166	-0.000619151	  -11.4936	-0.000608392	   -11.485	-0.0006248	  -11.4984	-0.000617448	  -11.4984	  -15.4362	
  -11.4951	-0.000623195	  -11.4714	-0.000612568	  -11.4633	-0.000628965	  -11.4766	-0.000621576	  -11.4766	  -15.5394	
  -11.4729	-0.000627122	  -11.4488	-0.000616639	  -11.4412	-0.000633029	  -11.4543	-0.000625597	  -11.4543	  -15.6399	
  -11.4503	-0.000631001	  -11.4258	-0.000620665	  -11.4187	-0.000637028	  -11.4316	-0.000629565	  -11.4316	  -15.7391	
  -11.4273	-0.000634892	  -11.4023	-0.000624711	   -11.396	-0.000641012	  -11.4086	-0.000633539	  -11.4086	  -15.8385	
   -11.404	-0.000638852	  -11.3786	-0.000628817	  -11.3726	-0.000645015	  -11.3851	-0.000637561	  -11.3851	   -15.939	
    -11.38	-0.000642891	  -11.3543	-0.000632987	  -11.3486	-0.000649045	   -11.361	-0.000641641	   -11.361	   -16.041	
  -11.3554	-0.000646981	  -11.3296	-0.00063717	  -11.3241	-0.000653082	  -11.3364	-0.000645744	  -11.3364	  -16.1436	
  -11.3303	-0.000651055	  -11.3045	-0.000641315	  -11.2992	-0.000657084	  -11.3113	-0.000649818	  -11.3113	  -16.2455	
  -11.3048	-0.000655057	   -11.279	-0.000645379	  -11.2741	-0.000661019	   -11.286	-0.000653818	   -11.286	  -16.3455	
  -11.2789	-0.000658941	  -11.2533	-0.000649352	  -11.2486	-0.000664877	  -11.2603	-0.000657723	  -11.2603	  -16.4431	
  -11.2526	-0.0006627	  -11.2271	-0.000653257	  -11.2224	-0.000668671	   -11.234	-0.000661543	   -11.234	  -16.5386	
  -11.2256	-0.000666376	  -11.2002	-0.000657147	  -11.1957	-0.000672436	  -11.2072	-0.000665319	  -11.2072	   -16.633	
  -11.1981	-0.000670038	   -11.173	-0.000661063	  -11.1685	-0.000676212	  -11.1799	-0.000669104	  -11.1799	  -16.7276	
  -11.1703	-0.000673749	  -11.1455	-0.000665029	  -11.1411	-0.000680027	  -11.1523	-0.000672935	  -11.1523	  -16.8234	
   -11.142	-0.000677549	  -11.1178	-0.000669023	  -11.1132	-0.000683877	  -11.1243	-0.000676816	  -11.1243	  -16.9204	
  -11.1133	-0.000681426	  -11.0894	 -0.000673	  -11.0846	-0.000687731	  -11.0958	-0.000680719	  -11.0958	   -17.018	
   -11.084	-0.000685322	  -11.0605	-0.000676897	  -11.0556	-0.000691548	  -11.0667	-0.000684589	  -11.0667	  -17.1147	
  -11.0543	-0.00068917	  -11.0311	-0.00068068	  -11.0261	-0.000695281	  -11.0372	-0.000688377	  -11.0372	  -17.2094	
  -11.0242	-0.000692913	  -11.0013	-0.000684348	  -10.9964	-0.000698905	  -11.0073	-0.000692055	  -11.0073	  -17.3014	
  -10.9939	-0.000696526	   -10.971	-0.000687936	  -10.9661	-0.000702431	   -10.977	-0.000695631	   -10.977	  -17.3908	
   -10.963	-0.000700032	  -10.9401	-0.000691506	  -10.9353	-0.000705895	  -10.9461	-0.000699144	  -10.9461	  -17.4786	
  -10.9316	-0.000703495	  -10.9088	-0.000695124	  -10.9041	-0.000709349	  -10.9148	-0.000702656	  -10.9148	  -17.5664	
  -10.8998	-0.000706974	  -10.8771	-0.00069882	  -10.8725	-0.000712838	  -10.8831	-0.000706211	  -10.8831	  -17.6553	
  -10.8677	-0.000710521	  -10.8451	-0.000702588	  -10.8406	-0.000716386	  -10.8512	-0.000709832	  -10.8512	  -17.7458	
  -10.8353	-0.00071413	  -10.8126	-0.000706376	  -10.8082	-0.000719968	  -10.8187	-0.000713491	  -10.8187	  -17.8373	
  -10.8022	-0.000717765	  -10.7795	-0.000710111	  -10.7753	-0.000723549	  -10.7857	-0.000717142	  -10.7857	  -17.9285	
  -10.7687	-0.000721358	  -10.7461	-0.000713736	   -10.742	-0.000727062	  -10.7523	-0.000720719	  -10.7523	   -18.018	
  -10.7349	-0.000724857	  -10.7124	-0.000717242	  -10.7084	-0.000730483	  -10.7186	-0.000724194	  -10.7186	  -18.1049	
  -10.7005	-0.000728232	  -10.6783	-0.000720639	  -10.6744	-0.000733804	  -10.6844	-0.000727558	  -10.6844	   -18.189	
  -10.6655	-0.000731509	  -10.6436	-0.000723998	    -10.64	-0.000737075	  -10.6497	-0.000730861	  -10.6497	  -18.2715	
    -10.63	-0.000734738	  -10.6084	-0.000727376	  -10.6051	-0.000740343	  -10.6145	-0.000734153	  -10.6145	  -18.3538	
  -10.5942	-0.000737976	   -10.573	-0.000730816	  -10.5699	-0.000743653	  -10.5791	-0.000737482	  -10.5791	   -18.437	
  -10.5582	-0.00074126	   -10.537	-0.000734319	  -10.5346	-0.000746998	  -10.5433	-0.000740859	  -10.5433	  -18.5215	
  -10.5218	-0.000744602	  -10.5004	-0.00073786	  -10.4986	-0.00075035	   -10.507	-0.000744271	   -10.507	  -18.6068	
   -10.485	-0.000747971	  -10.4634	-0.000741379	  -10.4622	-0.000753659	  -10.4702	-0.00074767	  -10.4702	  -18.6917	
  -10.4477	-0.00075132	  -10.4261	-0.000744822	  -10.4255	-0.000756868	  -10.4331	-0.000751004	  -10.4331	  -18.7751	
  -10.4101	-0.000754605	  -10.3882	-0.000748148	  -10.3883	-0.000759943	  -10.3955	-0.000754232	  -10.3955	  -18.8558	
  -10.3721	-0.000757796	  -10.3497	-0.000751348	  -10.3504	-0.000762904	  -10.3574	-0.00075735	  -10.3574	  -18.9337	
  -10.3336	-0.000760896	  -10.3109	-0.000754448	  -10.3121	-0.000765806	  -10.3189	-0.000760383	  -10.3189	  -19.0096	
  -10.2947	-0.000763938	  -10.2718	-0.000757497	  -10.2736	-0.000768715	    -10.28	-0.000763383	    -10.28	  -19.0846	
  -10.2557	-0.000766963	  -10.2324	-0.000760537	  -10.2346	-0.000771669	  -10.2409	-0.00076639	  -10.2409	  -19.1597	
  -10.2161	-0.000770005	  -10.1924	-0.000763609	  -10.1952	-0.000774701	  -10.2012	-0.000769438	  -10.2012	   -19.236	
   -10.176	-0.000773086	   -10.152	-0.000766719	  -10.1553	-0.000777779	  -10.1611	-0.000772528	  -10.1611	  -19.3132	
  -10.1357	-0.000776199	  -10.1115	-0.000769855	  -10.1152	-0.000780851	  -10.1208	-0.000775635	  -10.1208	  -19.3909	
  -10.0948	-0.000779318	  -10.0704	-0.00077298	  -10.0746	-0.000783852	  -10.0799	-0.000778717	  -10.0799	  -19.4679	
  -10.0535	-0.000782401	  -10.0288	-0.000776052	  -10.0333	-0.000786736	  -10.0385	-0.00078173	  -10.0385	  -19.5432	
  -10.0118	-0.000785415	  -9.98683	-0.000779036	  -9.99173	-0.000789472	  -9.99679	-0.000784641	  -9.99679	   -19.616	
  -9.96988	-0.000788344	  -9.94459	-0.000781927	  -9.94977	-0.000792086	  -9.95474	-0.000787452	  -9.95474	  -19.6863	
  -9.92752	-0.000791194	  -9.90204	-0.000784737	   -9.9073	-0.000794649	  -9.91229	-0.000790193	  -9.91229	  -19.7548	
   -9.8846	-0.000793991	  -9.85903	-0.000787499	  -9.86435	-0.00079724	  -9.86933	-0.00079291	  -9.86933	  -19.8228	
  -9.84131	-0.000796769	  -9.81576	-0.000790249	  -9.82111	-0.000799934	  -9.82606	-0.000795651	  -9.82606	  -19.8913	
  -9.79781	-0.000799566	  -9.77206	-0.000793015	  -9.77758	-0.00080274	  -9.78248	-0.00079844	  -9.78248	   -19.961	
  -9.75389	-0.000802395	  -9.72781	-0.000795794	  -9.73347	-0.000805611	  -9.73839	-0.000801267	  -9.73839	  -20.0317	
  -9.70948	-0.00080525	  -9.68319	-0.000798568	  -9.68896	-0.000808466	  -9.69388	-0.000804095	  -9.69388	  -20.1024	
  -9.66477	-0.000808096	  -9.63839	-0.000801309	  -9.64424	-0.000811216	  -9.64914	-0.000806874	  -9.64914	  -20.1718	
  -9.61963	-0.000810895	  -9.59311	-0.000803988	  -9.59917	-0.000813798	  -9.60397	-0.00080956	  -9.60397	   -20.239	
  -9.57392	-0.000813615	  -9.54737	-0.000806591	   -9.5536	-0.000816224	  -9.55829	-0.000812143	  -9.55829	  -20.3036	
  -9.52784	-0.000816245	  -9.50136	-0.000809125	  -9.50773	-0.00081856	  -9.51231	-0.000814643	  -9.51231	  -20.3661	
  -9.48145	-0.000818804	  -9.45526	-0.000811609	  -9.46149	-0.000820882	  -9.46607	-0.000817099	  -9.46607	  -20.4275	
  -9.43458	-0.000821326	  -9.40877	-0.00081408	  -9.41484	-0.000823282	   -9.4194	-0.000819563	   -9.4194	  -20.4891	
  -9.38728	-0.000823839	   -9.3619	-0.000816568	  -9.36781	-0.000825778	  -9.37233	-0.000822062	  -9.37233	  -20.5515	
  -9.33973	-0.000826365	  -9.31486	-0.000819072	  -9.32059	-0.000828371	  -9.32506	-0.000824603	  -9.32506	  -20.6151	
  -9.29196	-0.00082891	  -9.26748	-0.000821571	  -9.27273	-0.000830967	  -9.27739	-0.000827149	  -9.27739	  -20.6787	
  -9.24368	-0.000831465	  -9.21965	-0.00082403	  -9.22443	-0.000833488	  -9.22925	-0.000829661	  -9.22925	  -20.7415	
  -9.19508	-0.000834015	  -9.17157	-0.00082641	   -9.1759	-0.000835849	  -9.18085	-0.000832091	  -9.18085	  -20.8023	
  -9.14635	-0.000836533	  -9.12293	-0.000828703	  -9.12684	-0.000838039	  -9.13204	-0.000834425	  -9.13204	  -20.8606	
   -9.0972	 -0.000839	   -9.0738	-0.000830918	  -9.07746	-0.000840087	  -9.08282	-0.000836668	  -9.08282	  -20.9167	
  -9.04767	-0.000841399	  -9.02437	-0.000833084	   -9.0278	-0.000842068	  -9.03328	-0.00083885	  -9.03328	  -20.9713	
  -8.99795	-0.000843734	  -8.97468	-0.000835245	  -8.97788	-0.000844049	  -8.98351	-0.000841009	  -8.98351	  -21.0252	
  -8.94773	-0.000846014	  -8.92445	-0.000837431	  -8.92743	-0.000846102	   -8.9332	-0.000843182	   -8.9332	  -21.0796	
  -8.89709	-0.000848259	  -8.87388	-0.000839643	  -8.87665	-0.000848241	  -8.88254	-0.000845381	  -8.88254	  -21.1345	
  -8.84622	-0.0008505	  -8.82318	-0.000841859	  -8.82559	-0.000850444	  -8.83166	-0.000847601	  -8.83166	    -21.19	
   -8.7947	-0.000852742	   -8.7719	-0.000844051	  -8.77411	-0.000852656	  -8.78024	-0.000849816	  -8.78024	  -21.2454	
  -8.74274	-0.000854989	  -8.72025	-0.000846172	  -8.72244	-0.000854821	  -8.72848	-0.000851994	  -8.72848	  -21.2999	
  -8.69056	-0.000857226	  -8.66828	-0.000848216	  -8.67044	-0.000856888	  -8.67642	-0.00085411	  -8.67642	  -21.3528	
  -8.63809	-0.000859416	  -8.61584	-0.000850189	  -8.61822	-0.000858843	  -8.62405	-0.000856149	  -8.62405	  -21.4037	
  -8.58516	-0.000861535	  -8.56317	-0.000852123	  -8.56559	-0.000860697	  -8.57131	-0.000858118	  -8.57131	   -21.453	
  -8.53198	-0.000863527	  -8.51016	-0.000854047	  -8.51277	-0.000862493	   -8.5183	-0.000860022	   -8.5183	  -21.5006	
  -8.47859	-0.000865405	  -8.45686	-0.000855985	  -8.45947	-0.000864272	  -8.46497	-0.000861887	  -8.46497	  -21.5472	
  -8.42487	-0.00086722	  -8.40315	-0.000857935	  -8.40575	-0.000866076	  -8.41126	-0.000863744	  -8.41126	  -21.5936	
  -8.37087	-0.000869033	  -8.34925	-0.000859891	  -8.35183	-0.000867917	  -8.35732	-0.000865613	  -8.35732	  -21.6403	
  -8.31655	-0.000870917	  -8.29509	-0.000861834	  -8.29765	-0.00086978	   -8.3031	-0.00086751	   -8.3031	  -21.6878	
  -8.26126	-0.000872905	  -8.24051	-0.000863738	  -8.24304	-0.000871631	  -8.24827	-0.000869424	  -8.24827	  -21.7356	
  -8.20464	-0.000874975	  -8.18572	-0.000865579	  -8.18822	-0.000873427	  -8.19286	-0.000871327	  -8.19286	  -21.7832	
  -8.14793	-0.000877069	  -8.13061	-0.000867347	  -8.13322	-0.000875136	  -8.13725	-0.000873184	  -8.13725	  -21.8296	
  -8.09007	-0.000879103	  -8.07507	-0.000869037	  -8.07778	-0.000876745	  -8.08097	-0.000874962	  -8.08097	   -21.874	
  -8.03262	-0.000880976	  -8.01933	-0.000870665	  -8.02212	-0.000878281	  -8.02469	-0.000876641	  -8.02469	   -21.916	
  -7.97526	-0.000882644	  -7.96326	-0.000872249	  -7.96612	-0.000879778	  -7.96822	-0.000878224	  -7.96822	  -21.9556	
  -7.91722	-0.00088411	  -7.90678	-0.000873813	  -7.90969	-0.000881276	  -7.91123	-0.000879733	  -7.91123	  -21.9933	
  -7.86047	-0.000885439	  -7.85011	-0.000875377	  -7.85305	-0.000882802	  -7.85454	-0.000881206	  -7.85454	  -22.0301	
  -7.80337	-0.000886739	  -7.79297	-0.000876966	  -7.79609	-0.000884353	  -7.79748	-0.000882686	  -7.79748	  -22.0671	
  -7.74646	-0.000888117	  -7.73544	-0.000878578	  -7.73871	-0.000885902	   -7.7402	-0.000884199	   -7.7402	   -22.105	
  -7.68904	-0.000889641	  -7.67761	-0.000880204	  -7.68114	-0.000887416	   -7.6826	-0.000885754	   -7.6826	  -22.1438	
  -7.63095	-0.000891324	  -7.61921	-0.000881812	  -7.62328	-0.00088886	  -7.62448	-0.000887332	  -7.62448	  -22.1833	
  -7.57229	-0.0008931	  -7.56047	-0.000883372	  -7.56518	-0.000890218	  -7.56598	-0.000888896	  -7.56598	  -22.2224	
  -7.51283	-0.000894849	  -7.50146	-0.000884857	  -7.50674	-0.000891496	  -7.50701	-0.000890401	  -7.50701	    -22.26	
    -7.453	-0.000896456	  -7.44209	-0.000886264	  -7.44802	-0.000892715	  -7.44771	-0.000891812	  -7.44771	  -22.2953	
  -7.39255	-0.000897828	  -7.38258	-0.000887597	  -7.38894	-0.0008939	  -7.38803	-0.000893108	  -7.38803	  -22.3277	
  -7.33217	-0.000898943	  -7.32299	-0.000888893	  -7.32972	-0.00089508	  -7.32829	-0.000894305	  -7.32829	  -22.3576	
  -7.27193	-0.00089986	   -7.2632	-0.000890176	  -7.26995	-0.000896271	  -7.26836	-0.000895436	  -7.26836	  -22.3859	
  -7.21171	-0.000900696	  -7.20313	-0.000891464	  -7.20985	-0.000897484	  -7.20823	-0.000896548	  -7.20823	  -22.4137	
  -7.15186	-0.000901576	  -7.14298	-0.000892754	  -7.14951	-0.000898716	  -7.14812	-0.000897682	  -7.14812	  -22.4421	
  -7.09177	-0.00090259	   -7.0825	-0.000894033	  -7.08867	-0.000899945	  -7.08765	-0.000898856	  -7.08765	  -22.4714	
   -7.0315	-0.000903758	  -7.02176	-0.000895269	  -7.02759	-0.000901147	  -7.02695	-0.000900058	  -7.02695	  -22.5015	
  -6.97086	-0.000905022	  -6.96073	-0.000896428	  -6.96634	-0.000902284	  -6.96598	-0.000901245	  -6.96598	  -22.5311	
  -6.90939	-0.000906264	  -6.89927	-0.000897504	  -6.90466	-0.000903332	  -6.90444	-0.000902367	  -6.90444	  -22.5592	
  -6.84753	-0.000907374	  -6.83761	-0.000898526	  -6.84278	-0.000904287	  -6.84264	-0.000903396	  -6.84264	  -22.5849	
  -6.78503	-0.000908274	   -6.7755	-0.000899529	  -6.78062	-0.00090518	  -6.78038	-0.000904328	  -6.78038	  -22.6082	
  -6.72216	-0.000908959	  -6.71304	-0.000900565	  -6.71808	-0.000906049	  -6.71776	-0.000905191	  -6.71776	  -22.6298	
  -6.65916	-0.000909487	  -6.65033	-0.000901642	  -6.65528	-0.00090694	  -6.65493	-0.000906023	  -6.65493	  -22.6506	
  -6.59594	-0.000909969	  -6.58725	-0.000902742	  -6.59227	-0.000907861	  -6.59182	-0.000906857	  -6.59182	  -22.6714	
  -6.53256	-0.00091051	   -6.5239	-0.000903821	  -6.52896	-0.000908806	  -6.52847	-0.000907712	  -6.52847	  -22.6928	
   -6.4691	-0.000911168	  -6.46034	-0.000904825	  -6.46558	-0.000909736	  -6.46501	-0.000908576	  -6.46501	  -22.7144	
  -6.40546	-0.000911934	  -6.39633	-0.000905701	  -6.40172	-0.000910591	  -6.40117	-0.000909409	  -6.40117	  -22.7352	
  -6.34155	-0.000912741	  -6.33213	-0.000906458	  -6.33763	-0.000911349	   -6.3371	-0.000910183	   -6.3371	  -22.7546	
   -6.2776	-0.00091349	  -6.26771	-0.000907148	   -6.2733	-0.00091199	  -6.27287	-0.000910876	  -6.27287	  -22.7719	
  -6.21322	-0.000914098	  -6.20293	-0.000907823	  -6.20874	-0.00091255	   -6.2083	-0.00091149	   -6.2083	  -22.7873	
  -6.14864	-0.000914525	  -6.13804	-0.000908548	  -6.14403	-0.000913073	  -6.14357	-0.000912049	  -6.14357	  -22.8012	
  -6.08378	-0.000914801	  -6.07295	-0.00090933	  -6.07892	-0.000913614	  -6.07855	-0.000912581	  -6.07855	  -22.8145	
  -6.01858	-0.000914998	  -6.00757	-0.000910156	  -6.01352	-0.000914195	  -6.01322	-0.000913116	  -6.01322	  -22.8279	
  -5.95326	-0.000915209	  -5.94183	-0.000910966	  -5.94805	-0.000914819	  -5.94771	-0.000913665	  -5.94771	  -22.8416	
  -5.88782	-0.000915507	  -5.87592	-0.000911695	  -5.88224	-0.00091545	    -5.882	-0.000914218	    -5.882	  -22.8554	
  -5.82211	-0.000915916	  -5.80983	-0.000912286	  -5.81621	-0.000916051	  -5.81605	-0.000914751	  -5.81605	  -22.8688	
  -5.75619	-0.000916396	  -5.74346	-0.000912748	  -5.75005	-0.000916585	   -5.7499	-0.000915243	   -5.7499	  -22.8811	
  -5.69001	-0.000916877	  -5.67692	-0.000913112	  -5.68351	-0.000917031	  -5.68348	-0.000915674	  -5.68348	  -22.8918	
  -5.62364	-0.000917269	  -5.61027	-0.000913434	  -5.61685	-0.000917385	  -5.61692	-0.00091603	  -5.61692	  -22.9007	
  -5.55716	-0.000917512	  -5.54344	-0.000913768	  -5.54998	-0.000917656	  -5.55019	-0.000916312	  -5.55019	  -22.9078	
  -5.49046	-0.000917595	  -5.47635	-0.000914151	  -5.48284	-0.000917848	  -5.48322	-0.000916531	  -5.48322	  -22.9133	
  -5.42366	-0.000917573	  -5.40925	-0.000914578	   -5.4155	-0.000917984	  -5.41614	-0.000916712	  -5.41614	  -22.9178	
  -5.35667	-0.000917523	  -5.34173	-0.00091502	  -5.34806	-0.000918088	  -5.34882	-0.000916877	  -5.34882	  -22.9219	
  -5.28941	-0.000917532	  -5.27405	-0.000915437	  -5.28044	-0.00091818	   -5.2813	-0.00091705	   -5.2813	  -22.9262	
  -5.22198	-0.000917646	   -5.2063	-0.00091579	   -5.2127	-0.00091827	  -5.21366	-0.000917236	  -5.21366	  -22.9309	
   -5.1544	-0.000917865	  -5.13823	-0.000916049	  -5.14464	-0.000918364	  -5.14575	-0.000917426	  -5.14575	  -22.9357	
  -5.08664	-0.000918131	   -5.0701	-0.000916207	  -5.07648	-0.00091846	  -5.07774	-0.000917599	  -5.07774	    -22.94	
  -5.01864	-0.000918349	  -5.00182	-0.000916268	  -5.00801	-0.000918548	  -5.00949	-0.000917722	  -5.00949	   -22.943	
  -4.95034	-0.000918438	  -4.93332	-0.000916254	  -4.93931	-0.000918609	  -4.94099	-0.000917767	  -4.94099	  -22.9442	
  -4.88197	-0.000918367	  -4.86469	-0.000916193	  -4.87047	-0.000918614	  -4.87238	-0.000917725	  -4.87238	  -22.9431	
  -4.81331	-0.000918155	   -4.7957	-0.000916121	  -4.80143	-0.000918551	  -4.80348	-0.000917609	  -4.80348	  -22.9402	
  -4.74445	-0.00091788	  -4.72661	-0.00091606	  -4.73228	-0.000918412	  -4.73445	-0.000917451	  -4.73445	  -22.9363	
  -4.67533	-0.000917622	  -4.65735	-0.000916022	  -4.66278	-0.000918204	  -4.66515	-0.000917283	  -4.66515	  -22.9321	
  -4.60588	-0.000917454	  -4.58784	 -0.000916	  -4.59303	-0.000917951	  -4.59558	-0.000917135	  -4.59558	  -22.9284	
  -4.53636	-0.000917383	  -4.51818	-0.00091597	  -4.52314	-0.000917674	  -4.52589	-0.000917009	  -4.52589	  -22.9252	
  -4.46653	-0.000917369	  -4.44814	-0.000915893	  -4.45287	-0.000917391	  -4.45585	-0.000916884	  -4.45585	  -22.9221	
   -4.3965	-0.000917322	  -4.37799	-0.000915743	  -4.38249	-0.000917106	  -4.38566	-0.000916724	  -4.38566	  -22.9181	
  -4.32639	-0.000917171	   -4.3076	-0.000915505	  -4.31187	-0.000916808	  -4.31529	-0.000916495	  -4.31529	  -22.9124	
  -4.25595	-0.000916851	  -4.23696	-0.000915186	  -4.24101	-0.00091648	  -4.24464	-0.000916172	  -4.24464	  -22.9043	
  -4.18542	-0.000916384	  -4.16617	-0.000914812	  -4.17017	-0.0009161	  -4.17392	-0.000915765	  -4.17392	  -22.8941	
  -4.11474	-0.000915824	  -4.09518	-0.00091442	  -4.09926	-0.000915661	  -4.10306	-0.000915302	  -4.10306	  -22.8825	
  -4.04385	-0.000915258	  -4.02408	-0.00091403	  -4.02822	-0.000915157	  -4.03205	-0.000914815	  -4.03205	  -22.8704	
  -3.97269	-0.000914755	  -3.95279	-0.00091365	  -3.95714	-0.000914605	  -3.96087	-0.000914337	  -3.96087	  -22.8584	
  -3.90119	-0.00091435	  -3.88126	-0.000913267	  -3.88579	-0.000914015	  -3.88941	-0.000913878	  -3.88941	  -22.8469	
  -3.82947	-0.000914012	   -3.8096	-0.000912855	  -3.81426	-0.000913407	  -3.81778	-0.000913424	  -3.81778	  -22.8356	
  -3.75747	-0.000913674	  -3.73788	-0.000912385	  -3.74266	-0.000912788	  -3.74601	-0.000912949	  -3.74601	  -22.8237	
  -3.68531	-0.000913257	  -3.66605	-0.000911843	  -3.67092	-0.00091216	  -3.67409	-0.00091242	  -3.67409	  -22.8105	
   -3.6129	-0.000912707	  -3.59418	-0.000911223	  -3.59912	-0.000911511	  -3.60207	-0.000911814	  -3.60207	  -22.7953	
  -3.54022	-0.000912004	  -3.52207	-0.000910546	  -3.52705	-0.000910824	  -3.52978	-0.000911125	  -3.52978	  -22.7781	
  -3.46751	-0.000911184	  -3.44995	-0.000909846	  -3.45496	-0.000910088	  -3.45747	-0.000910373	  -3.45747	  -22.7593	
  -3.39471	-0.000910309	  -3.37762	-0.000909158	  -3.38263	-0.000909279	  -3.38499	-0.000909582	  -3.38499	  -22.7396	
  -3.32176	-0.00090945	  -3.30516	-0.000908502	  -3.31016	-0.000908402	  -3.31236	-0.000908785	  -3.31236	  -22.7196	
  -3.24876	-0.000908649	  -3.23268	-0.000907874	  -3.23765	-0.000907467	   -3.2397	-0.000907997	   -3.2397	  -22.6999	
  -3.17564	-0.000907912	  -3.15994	-0.000907241	  -3.16487	-0.000906491	  -3.16682	-0.000907214	  -3.16682	  -22.6804	
  -3.10249	-0.000907198	  -3.08709	-0.000906568	  -3.09196	-0.000905498	  -3.09385	-0.000906421	  -3.09385	  -22.6605	
  -3.02894	-0.000906446	  -3.01403	-0.000905816	  -3.01883	-0.000904502	   -3.0206	-0.000905588	   -3.0206	  -22.6397	
  -2.95526	-0.00090559	  -2.94086	-0.000904959	  -2.94558	-0.000903506	  -2.94724	-0.000904685	  -2.94724	  -22.6171	
  -2.88171	-0.000904595	  -2.86752	-0.000904004	  -2.87232	-0.000902506	  -2.87385	-0.000903702	  -2.87385	  -22.5925	
   -2.8079	-0.00090347	  -2.79412	-0.000902993	   -2.7988	-0.000901473	  -2.80027	-0.000902645	  -2.80027	  -22.5661	
  -2.73409	-0.000902265	  -2.72074	-0.00090196	  -2.72531	-0.000900385	  -2.72671	-0.000901537	  -2.72671	  -22.5384	
   -2.6604	-0.000901041	  -2.64726	-0.000900944	  -2.65171	-0.000899229	  -2.65312	-0.000900405	  -2.65312	  -22.5101	
  -2.58657	-0.000899856	  -2.57352	-0.000899956	  -2.57799	-0.000897999	  -2.57936	-0.000899271	  -2.57936	  -22.4818	
  -2.51254	-0.000898732	  -2.49946	-0.000899006	  -2.50443	-0.000896712	  -2.50548	-0.00089815	  -2.50548	  -22.4538	
  -2.43826	-0.000897647	  -2.42491	-0.000898062	  -2.43061	-0.000895404	  -2.43126	-0.000897038	  -2.43126	  -22.4259	
    -2.364	-0.000896546	  -2.35013	-0.000897096	  -2.35682	-0.000894102	  -2.35698	-0.000895914	  -2.35698	  -22.3979	
  -2.28984	-0.000895369	  -2.27509	-0.000896065	  -2.28297	-0.000892826	  -2.28264	-0.000894753	  -2.28264	  -22.3688	
  -2.21556	-0.000894068	  -2.20007	-0.000894936	  -2.20901	-0.000891562	  -2.20821	-0.000893522	  -2.20821	  -22.3381	
  -2.14126	-0.00089265	  -2.12514	-0.000893653	  -2.13518	-0.000890301	  -2.13386	-0.000892201	  -2.13386	   -22.305	
  -2.06687	-0.000891232	  -2.05055	-0.000892385	  -2.06111	-0.000888965	  -2.05951	-0.00089086	  -2.05951	  -22.2715	
  -1.99233	-0.000889815	   -1.9762	-0.000891135	  -1.98705	-0.000887521	  -1.98519	-0.000889491	  -1.98519	  -22.2373	
  -1.91775	-0.000888383	  -1.90218	-0.00088989	  -1.91278	-0.000885965	   -1.9109	-0.000888079	   -1.9109	   -22.202	
  -1.84306	-0.00088691	  -1.82855	-0.000888601	  -1.83841	-0.000884335	  -1.83667	-0.000886615	  -1.83667	  -22.1654	
