# User: ACHyster
# File name: C:/ACHYSTER/ACHyster SENS/SHAMS/CoFe2O4-1gl-water-32 Glycerol-Sens-07-03-2023/CoFe2O4-1gl-water-32 Glycerol- 10_100F- 12 kAm -Sens-07-03-20230007#1.txt
# Saved at: ma. mar. 7 16:12:31 2023
# Hyster Loop (3 iterations). Intensity: 12.0 kA/m; Tuned frequency: 101.8 kHz
# Units x axis: (kA/m)
# Units y axis: "Repeats y" & "Average y" (10^(-3)Am^2); "Mass avg y" (Am^2/kg)
# Magnetic mass: 4e-05 g
# Parameter      	Repeat   1	Repeat   2	Repeat   3	Average   	Sigma     
# H_C (kA/m)     	      10.4	      10.5	      10.6	      10.5	       0.1
# M_R (Am^2/kg)  	      14.0	      13.6	      13.3	      13.6	       0.3
# M_max (Am^2/kg)	       7.8	       7.6	       7.0	       7.5	       0.3
# Area (mJ/kg)   	     647.5	     634.1	     620.4	     634.0	      11.1
# SAR (W/g)      	      65.9	      64.6	      63.2	      64.5	       1.1
#Repeat 1 x	Repeat 1 y	Repeat 2 x	Repeat 2 y	Repeat 3 x	Repeat 3 y	Average x 	Average y 	Mass avg x 	Mass avg y 
  -1.87661	-0.000594987	  -1.86791	-0.00058157	   -1.8644	-0.000565463	  -1.86964	-0.000580673	  -1.86964	  -14.5168	
  -1.80162	-0.000593805	  -1.79328	-0.000580505	  -1.79007	-0.000564417	  -1.79499	-0.000579576	  -1.79499	  -14.4894	
  -1.72662	-0.000592623	  -1.71859	-0.000579451	   -1.7157	-0.000563389	  -1.72031	-0.000578487	  -1.72031	  -14.4622	
  -1.65147	-0.00059143	  -1.64391	-0.000578376	  -1.64133	-0.000562363	  -1.64557	-0.000577389	  -1.64557	  -14.4347	
   -1.5762	-0.000590212	  -1.56906	-0.000577243	   -1.5668	-0.000561325	  -1.57068	-0.00057626	  -1.57068	  -14.4065	
  -1.50106	-0.000588955	  -1.49429	-0.00057602	  -1.49234	-0.000560259	   -1.4959	-0.000575078	   -1.4959	  -14.3769	
  -1.42568	-0.000587648	  -1.41925	-0.000574682	  -1.41761	-0.000559148	  -1.42085	-0.000573826	  -1.42085	  -14.3456	
  -1.35033	-0.000586286	  -1.34419	-0.000573218	  -1.34285	-0.000557977	  -1.34579	-0.000572494	  -1.34579	  -14.3123	
  -1.27503	-0.000584867	  -1.26914	-0.000571636	  -1.26791	-0.00055674	  -1.27069	-0.000571081	  -1.27069	   -14.277	
  -1.19992	-0.000583396	  -1.19396	-0.00056996	  -1.19283	-0.000555434	  -1.19557	-0.000569596	  -1.19557	  -14.2399	
  -1.12473	-0.00058188	  -1.11868	-0.00056822	  -1.11787	-0.00055406	  -1.12043	-0.000568053	  -1.12043	  -14.2013	
  -1.04932	-0.000580329	  -1.04316	-0.000566459	  -1.04295	-0.000552623	  -1.04514	-0.00056647	  -1.04514	  -14.1618	
 -0.973919	-0.000578758	 -0.967658	-0.000564722	 -0.968015	-0.000551142	 -0.969864	-0.000564874	 -0.969864	  -14.1219	
 -0.898195	-0.000577183	 -0.892108	-0.000563049	 -0.892711	-0.000549638	 -0.894338	-0.00056329	 -0.894338	  -14.0822	
   -0.8224	-0.000575616	 -0.816457	-0.000561467	   -0.8173	-0.000548133	 -0.818719	-0.000561739	 -0.818719	  -14.0435	
 -0.746772	-0.000574065	 -0.740944	-0.000559988	 -0.742021	-0.000546649	 -0.743246	-0.000560234	 -0.743246	  -14.0058	
 -0.670953	-0.000572531	 -0.665212	-0.000558606	 -0.666518	-0.0005452	 -0.667561	-0.000558779	 -0.667561	  -13.9695	
 -0.595188	-0.00057101	 -0.589511	-0.000557294	 -0.591037	-0.000543799	 -0.591912	-0.000557368	 -0.591912	  -13.9342	
 -0.519418	-0.000569487	 -0.513781	-0.000556014	 -0.515521	-0.000542442	  -0.51624	-0.000555981	  -0.51624	  -13.8995	
 -0.443585	-0.000567949	 -0.437966	-0.000554718	 -0.439914	-0.000541115	 -0.440488	-0.000554594	 -0.440488	  -13.8648	
 -0.367925	-0.000566378	 -0.362305	-0.000553355	 -0.364454	-0.000539795	 -0.364895	-0.000553176	 -0.364895	  -13.8294	
 -0.292276	-0.000564756	 -0.286636	-0.000551879	 -0.288785	-0.000538454	 -0.289232	-0.000551696	 -0.289232	  -13.7924	
 -0.216673	-0.000563071	 -0.210997	-0.000550263	 -0.213155	-0.000537064	 -0.213608	-0.000550133	 -0.213608	  -13.7533	
 -0.140962	-0.000561313	 -0.135427	-0.00054849	 -0.137601	-0.000535596	 -0.137996	-0.000548467	 -0.137996	  -13.7117	
-0.0651877	-0.000559483	-0.0597641	-0.000546561	-0.0619623	-0.000534028	-0.0623047	-0.000546691	-0.0623047	  -13.6673	
 0.0106031	-0.000557588	 0.0157523	-0.0005445	 0.0137143	-0.000532351	 0.0133565	-0.000544813	 0.0133565	  -13.6203	
 0.0862743	-0.000555638	 0.0914798	-0.000542343	 0.0892911	-0.000530567	 0.0890151	-0.000542849	 0.0890151	  -13.5712	
  0.161893	-0.000553653	  0.167171	-0.000540137	  0.164835	-0.000528695	  0.164633	-0.000540828	  0.164633	  -13.5207	
  0.237234	-0.000551648	  0.242596	-0.000537922	  0.240404	-0.000526763	  0.240078	-0.000538778	  0.240078	  -13.4695	
  0.312663	-0.000549643	  0.318124	-0.000535744	  0.316055	-0.000524809	  0.315614	-0.000536732	  0.315614	  -13.4183	
  0.387945	-0.000547653	  0.393515	-0.000533637	  0.391551	-0.000522862	  0.391004	-0.000534717	  0.391004	  -13.3679	
  0.463147	-0.000545682	  0.468837	-0.00053162	  0.467248	-0.000520949	  0.466411	-0.00053275	  0.466411	  -13.3188	
  0.538334	-0.000543733	  0.544152	-0.000529684	  0.542898	-0.000519104	  0.541795	-0.000530841	  0.541795	   -13.271	
  0.613564	-0.000541802	   0.61923	-0.000527814	  0.618275	-0.000517332	  0.617023	-0.000528983	  0.617023	  -13.2246	
  0.688893	-0.000539877	  0.694439	-0.000525981	  0.693745	-0.000515627	  0.692359	-0.000527162	  0.692359	   -13.179	
  0.764084	-0.000537942	  0.769536	-0.000524142	  0.769072	-0.000513971	  0.767564	-0.000525352	  0.767564	  -13.1338	
  0.839301	-0.000535977	  0.844687	-0.000522259	  0.844227	-0.000512325	  0.842738	-0.00052352	  0.842738	   -13.088	
  0.914506	-0.000533963	  0.919849	-0.000520303	  0.919379	-0.000510655	  0.917911	-0.00052164	  0.917911	   -13.041	
  0.989469	-0.000531887	  0.994792	-0.000518252	    0.9943	-0.000508927	  0.992854	-0.000519689	  0.992854	  -12.9922	
   1.06456	-0.000529736	   1.06959	-0.000516096	   1.06935	-0.000507106	   1.06783	-0.000517646	   1.06783	  -12.9411	
   1.13953	-0.000527503	   1.14432	-0.000513843	    1.1443	-0.000505169	   1.14272	-0.000515505	   1.14272	  -12.8876	
   1.21436	-0.000525201	   1.21895	-0.000511525	   1.21912	-0.00050312	   1.21748	-0.000513282	   1.21748	  -12.8321	
   1.28922	-0.000522837	   1.29363	-0.000509166	   1.29396	-0.000500972	   1.29227	-0.000510992	   1.29227	  -12.7748	
   1.36406	-0.000520425	   1.36834	-0.000506796	    1.3686	-0.000498742	     1.367	-0.000508654	     1.367	  -12.7164	
   1.43903	-0.000517989	   1.44293	-0.000504455	   1.44283	-0.00049647	    1.4416	-0.000506305	    1.4416	  -12.6576	
   1.51391	-0.000515552	   1.51747	-0.000502166	   1.51703	-0.000494196	   1.51614	-0.000503972	   1.51614	  -12.5993	
   1.58876	-0.000513136	   1.59204	-0.000499943	   1.59126	-0.000491958	   1.59069	-0.000501679	   1.59069	   -12.542	
   1.66364	-0.000510757	   1.66649	-0.000497789	   1.66559	-0.00048978	   1.66524	-0.000499442	   1.66524	  -12.4861	
   1.73832	-0.000508425	    1.7408	-0.000495692	   1.73977	-0.00048768	   1.73963	-0.000497266	   1.73963	  -12.4316	
   1.81297	-0.000506144	   1.81514	-0.000493627	   1.81398	-0.000485665	   1.81403	-0.000495145	   1.81403	  -12.3786	
   1.88756	-0.000503904	   1.88947	-0.00049156	   1.88817	-0.00048371	    1.8884	-0.000493058	    1.8884	  -12.3265	
   1.96187	-0.000501695	   1.96356	-0.000489463	   1.96214	-0.000481786	   1.96252	-0.000490981	   1.96252	  -12.2745	
   2.03606	-0.000499489	   2.03741	-0.000487299	   2.03623	-0.000479858	   2.03657	-0.000488882	   2.03657	   -12.222	
   2.11013	-0.000497256	   2.11117	-0.000485042	   2.11022	-0.000477881	   2.11051	-0.000486726	   2.11051	  -12.1682	
   2.18403	-0.00049497	   2.18484	-0.000482682	   2.18407	-0.000475822	   2.18431	-0.000484491	   2.18431	  -12.1123	
   2.25795	-0.000492605	   2.25857	-0.000480213	   2.25796	-0.000473651	   2.25816	-0.000482156	   2.25816	  -12.0539	
   2.33165	-0.000490139	   2.33214	-0.000477642	   2.33167	-0.000471357	   2.33182	-0.000479713	   2.33182	  -11.9928	
   2.40523	-0.000487564	   2.40562	-0.000474992	   2.40526	-0.000468949	   2.40537	-0.000477169	   2.40537	  -11.9292	
   2.47874	-0.000484882	   2.47908	-0.000472289	   2.47881	-0.000466442	   2.47888	-0.000474538	   2.47888	  -11.8634	
   2.55197	-0.000482107	    2.5523	-0.000469559	    2.5521	-0.000463865	   2.55212	-0.000471843	   2.55212	  -11.7961	
   2.62511	-0.000479255	   2.62565	-0.000466832	    2.6253	-0.000461264	   2.62535	-0.000469117	   2.62535	  -11.7279	
   2.69813	-0.000476366	    2.6989	-0.000464131	    2.6984	-0.000458679	   2.69848	-0.000466392	   2.69848	  -11.6598	
    2.7711	-0.000473465	   2.77183	-0.000461465	   2.77118	-0.000456137	   2.77137	-0.000463689	   2.77137	  -11.5922	
   2.84409	-0.000470572	   2.84482	-0.000458832	   2.84402	-0.000453662	   2.84431	-0.000461022	   2.84431	  -11.5255	
   2.91688	-0.000467711	   2.91792	-0.000456225	   2.91669	-0.000451263	   2.91716	-0.0004584	   2.91716	    -11.46	
   2.98983	-0.000464892	   2.99063	-0.000453624	   2.98955	-0.000448932	      2.99	-0.000455816	      2.99	  -11.3954	
   3.06272	-0.000462111	   3.06332	-0.000451003	   3.06237	-0.000446641	    3.0628	-0.000453252	    3.0628	  -11.3313	
   3.13532	-0.000459355	   3.13577	-0.000448349	   3.13494	-0.000444364	   3.13534	-0.000450689	   3.13534	  -11.2672	
   3.20801	-0.000456604	   3.20806	-0.000445652	   3.20761	-0.000442071	    3.2079	-0.000448109	    3.2079	  -11.2027	
   3.28056	-0.000453836	   3.28029	-0.000442904	   3.28018	-0.000439717	   3.28034	-0.000445486	   3.28034	  -11.1371	
   3.35305	-0.000451034	   3.35223	-0.000440104	   3.35241	-0.000437275	   3.35256	-0.000442804	   3.35256	  -11.0701	
   3.42555	-0.000448185	   3.42426	-0.000437258	   3.42451	-0.000434731	   3.42477	-0.000440058	   3.42477	  -11.0014	
   3.49784	-0.000445278	   3.49616	-0.000434376	   3.49645	-0.000432078	   3.49682	-0.000437244	   3.49682	  -10.9311	
    3.5701	-0.000442304	    3.5679	-0.000431468	    3.5686	-0.00042932	   3.56887	-0.000434364	   3.56887	  -10.8591	
    3.6423	-0.000439272	   3.63966	-0.000428549	   3.64072	-0.000426483	   3.64089	-0.000431435	   3.64089	  -10.7859	
   3.71422	-0.000436194	   3.71123	-0.00042563	    3.7126	-0.00042359	   3.71268	-0.000428472	   3.71268	  -10.7118	
   3.78605	-0.000433082	   3.78259	-0.000422714	   3.78442	-0.00042067	   3.78435	-0.000425488	   3.78435	  -10.6372	
   3.85777	-0.000429945	   3.85392	-0.000419804	   3.85616	-0.000417757	   3.85595	-0.000422502	   3.85595	  -10.5625	
   3.92918	-0.000426787	   3.92501	-0.000416896	    3.9276	-0.000414879	   3.92726	-0.000419521	   3.92726	   -10.488	
   4.00035	-0.000423607	   3.99624	-0.000413978	   3.99883	-0.000412053	   3.99847	-0.000416546	   3.99847	  -10.4136	
    4.0714	-0.000420423	   4.06737	-0.000411038	   4.06995	-0.000409288	   4.06957	-0.000413583	   4.06957	  -10.3396	
   4.14209	-0.000417253	    4.1382	-0.000408069	   4.14075	-0.000406578	   4.14035	-0.000410633	   4.14035	  -10.2658	
   4.21264	-0.000414105	   4.20892	-0.000405065	   4.21142	-0.000403904	     4.211	-0.000407691	     4.211	  -10.1923	
   4.28304	-0.000410983	   4.27952	-0.000402036	   4.28194	-0.000401243	    4.2815	-0.000404754	    4.2815	  -10.1188	
   4.35326	-0.000407898	   4.34978	-0.000398975	   4.35212	-0.000398566	   4.35172	-0.000401813	   4.35172	  -10.0453	
   4.42349	-0.000404858	   4.41982	-0.000395881	   4.42233	-0.000395844	   4.42188	-0.000398861	   4.42188	  -9.97153	
   4.49352	-0.00040186	   4.48971	-0.000392768	   4.49236	-0.000393052	   4.49186	-0.000395893	   4.49186	  -9.89732	
   4.56314	-0.000398878	   4.55925	-0.000389646	   4.56202	-0.000390174	   4.56147	-0.000392899	   4.56147	  -9.82248	
   4.63276	-0.00039589	   4.62885	-0.000386527	   4.63112	-0.000387208	   4.63091	-0.000389875	   4.63091	  -9.74688	
   4.70216	-0.000392876	   4.69827	-0.000383411	   4.70006	-0.000384155	   4.70016	-0.000386814	   4.70016	  -9.67035	
   4.77115	-0.00038981	   4.76762	-0.000380302	   4.76865	-0.00038103	   4.76914	-0.000383714	   4.76914	  -9.59285	
   4.84012	-0.000386672	   4.83677	-0.000377203	   4.83728	-0.000377856	   4.83806	-0.000380577	   4.83806	  -9.51442	
   4.90887	-0.000383443	   4.90573	-0.0003741	   4.90575	-0.000374655	   4.90678	-0.000377399	   4.90678	  -9.43498	
   4.97739	-0.000380105	   4.97449	-0.00037099	   4.97404	-0.000371454	   4.97531	-0.000374183	   4.97531	  -9.35457	
   5.04588	-0.000376669	   5.04296	-0.000367868	   5.04235	-0.000368281	   5.04373	-0.000370939	   5.04373	  -9.27348	
   5.11413	-0.000373149	   5.11123	-0.000364728	   5.11046	-0.000365157	   5.11194	-0.000367678	   5.11194	  -9.19194	
   5.18224	-0.000369582	   5.17941	-0.000361561	   5.17819	-0.000362089	   5.17995	-0.000364411	   5.17995	  -9.11026	
   5.25029	-0.000365984	   5.24728	-0.000358371	   5.24593	-0.000359079	   5.24784	-0.000361145	   5.24784	  -9.02862	
    5.3181	-0.000362379	   5.31496	-0.000355157	   5.31347	-0.000356121	   5.31551	-0.000357886	   5.31551	  -8.94714	
   5.38574	-0.000358811	   5.38225	-0.000351913	   5.38062	-0.000353194	   5.38287	-0.000354639	   5.38287	  -8.86598	
   5.45313	-0.000355312	   5.44956	-0.00034864	    5.4476	-0.000350276	    5.4501	-0.000351409	    5.4501	  -8.78523	
   5.52028	-0.000351887	   5.51667	-0.000345349	    5.5144	-0.000347342	   5.51712	-0.000348193	   5.51712	  -8.70482	
   5.58718	-0.000348518	    5.5834	-0.000342036	   5.58102	-0.000344368	   5.58387	-0.000344974	   5.58387	  -8.62435	
   5.65376	-0.000345189	   5.65014	-0.000338706	   5.64737	-0.000341337	   5.65043	-0.000341744	   5.65043	   -8.5436	
   5.72011	-0.000341874	   5.71671	-0.000335361	   5.71356	-0.000338233	   5.71679	-0.00033849	   5.71679	  -8.46224	
   5.78635	-0.00033853	   5.78289	-0.000331996	    5.7794	-0.000335051	   5.78288	-0.000335192	   5.78288	  -8.37981	
   5.85237	-0.000335118	   5.84892	-0.000328613	    5.8451	-0.000331791	    5.8488	-0.000331841	    5.8488	  -8.29602	
   5.91819	-0.000331618	   5.91478	-0.000325208	   5.91067	-0.000328469	   5.91455	-0.000328432	   5.91455	  -8.21079	
   5.98362	-0.000328017	   5.98059	-0.000321785	    5.9759	-0.000325103	   5.98004	-0.000324968	   5.98004	   -8.1242	
   6.04887	-0.000324308	   6.04623	-0.000318339	   6.04101	-0.000321713	   6.04537	-0.000321453	   6.04537	  -8.03633	
   6.11395	-0.000320522	   6.11171	-0.000314872	   6.10601	-0.00031833	   6.11055	-0.000317908	   6.11055	   -7.9477	
   6.17867	-0.000316682	   6.17684	-0.000311387	    6.1707	-0.000314977	    6.1754	-0.000314349	    6.1754	  -7.85872	
   6.24315	-0.000312821	   6.24204	-0.00030788	    6.2352	-0.000311665	   6.24013	-0.000310789	   6.24013	  -7.76972	
    6.3075	-0.000308979	   6.30709	-0.000304357	   6.29962	-0.000308401	   6.30474	-0.000307246	   6.30474	  -7.68114	
   6.37154	-0.000305191	   6.37181	-0.000300824	   6.36376	-0.000305191	   6.36903	-0.000303735	   6.36903	  -7.59338	
   6.43528	-0.000301478	   6.43621	-0.000297281	   6.42764	-0.000302019	   6.43304	-0.000300259	   6.43304	  -7.50648	
   6.49895	-0.000297843	   6.50051	-0.000293734	   6.49147	-0.000298862	   6.49698	-0.000296813	   6.49698	  -7.42032	
   6.56234	-0.00029428	   6.56453	-0.000290183	   6.55507	-0.000295704	   6.56065	-0.000293389	   6.56065	  -7.33473	
   6.62529	-0.000290772	   6.62809	-0.000286628	   6.61825	-0.000292524	   6.62388	-0.000289975	   6.62388	  -7.24937	
   6.68793	-0.000287285	   6.69102	-0.000283069	   6.68143	-0.000289293	   6.68679	-0.000286549	   6.68679	  -7.16372	
   6.75038	-0.000283785	   6.75377	-0.000279505	   6.74423	-0.000285992	   6.74946	-0.000283094	   6.74946	  -7.07736	
   6.81247	-0.000280248	   6.81616	-0.000275939	   6.80667	-0.000282617	   6.81176	-0.000279602	   6.81176	  -6.99004	
   6.87402	-0.000276642	   6.87801	-0.000272366	   6.86879	-0.000279168	   6.87361	-0.000276059	   6.87361	  -6.90147	
   6.93548	-0.000272954	   6.93977	-0.000268783	   6.93051	-0.000275646	   6.93526	-0.000272461	   6.93526	  -6.81152	
   6.99666	-0.00026918	   7.00125	-0.000265187	   6.99197	-0.000272076	   6.99663	-0.000268814	   6.99663	  -6.72036	
    7.0574	-0.000265327	   7.06229	-0.000261575	     7.053	-0.000268485	   7.05756	-0.000265129	   7.05756	  -6.62821	
   7.11811	-0.000261411	   7.12311	-0.000257948	   7.11363	-0.000264891	   7.11828	-0.000261417	   7.11828	  -6.53543	
   7.17863	-0.000257461	   7.18373	-0.000254306	    7.1741	-0.000261325	   7.17882	-0.000257697	   7.17882	  -6.44243	
   7.23877	-0.000253504	     7.244	-0.000250648	   7.23443	-0.000257805	   7.23907	-0.000253986	   7.23907	  -6.34964	
   7.29867	-0.000249564	   7.30404	-0.000246975	   7.29425	-0.000254341	   7.29899	-0.000250293	   7.29899	  -6.25733	
   7.35846	-0.000245662	   7.36398	-0.000243293	     7.354	-0.000250928	   7.35881	-0.000246628	   7.35881	   -6.1657	
   7.41796	-0.000241815	   7.42363	-0.000239604	    7.4135	-0.000247564	   7.41836	-0.000242995	   7.41836	  -6.07486	
   7.47702	-0.000238023	   7.48284	-0.000235906	   7.47258	-0.000244236	   7.47748	-0.000239388	   7.47748	   -5.9847	
   7.53567	-0.000234281	   7.54185	-0.000232199	    7.5313	-0.00024092	   7.53627	-0.0002358	   7.53627	  -5.89499	
   7.59416	-0.000230578	   7.60068	-0.000228486	   7.58988	-0.000237595	   7.59491	-0.00023222	   7.59491	  -5.80549	
   7.65232	-0.000226896	   7.65918	-0.000224767	   7.64815	-0.000234239	   7.65322	-0.000228634	   7.65322	  -5.71585	
   7.71028	-0.000223211	   7.71718	-0.000221045	   7.70597	-0.000230828	   7.71114	-0.000225028	   7.71114	   -5.6257	
   7.76798	-0.000219502	   7.77493	-0.000217317	   7.76358	-0.000227349	   7.76883	-0.000221389	   7.76883	  -5.53473	
   7.82546	-0.000215752	   7.83246	-0.000213584	   7.82099	-0.000223794	   7.82631	-0.00021771	   7.82631	  -5.44275	
   7.88256	-0.000211947	   7.88963	-0.00020984	   7.87807	-0.000220162	   7.88342	-0.000213983	   7.88342	  -5.34958	
   7.93941	-0.000208076	   7.94627	-0.000206084	   7.93465	-0.000216463	   7.94011	-0.000210208	   7.94011	  -5.25519	
   7.99587	-0.000204142	   8.00284	-0.000202315	   7.99119	-0.000212712	   7.99663	-0.00020639	   7.99663	  -5.15975	
   8.05209	-0.000200151	   8.05898	-0.000198533	    8.0475	-0.000208929	   8.05286	-0.000202538	   8.05286	  -5.06344	
    8.1079	-0.000196114	   8.11473	-0.000194735	   8.10345	-0.000205131	   8.10869	-0.00019866	   8.10869	   -4.9665	
   8.16337	-0.000192051	   8.16997	-0.000190923	   8.15926	-0.00020134	    8.1642	-0.000194771	    8.1642	  -4.86928	
   8.21844	-0.000187981	   8.22485	-0.000187096	   8.21468	-0.000197574	   8.21932	-0.000190884	   8.21932	  -4.77209	
   8.27327	-0.000183925	   8.27951	-0.000183256	   8.26987	-0.000193844	   8.27421	-0.000187008	   8.27421	   -4.6752	
    8.3277	-0.000179905	   8.33382	-0.000179403	   8.32466	-0.000190159	   8.32873	-0.000183156	   8.32873	  -4.57889	
   8.38181	-0.000175933	   8.38762	-0.000175542	   8.37894	-0.00018652	   8.38279	-0.000179332	   8.38279	   -4.4833	
   8.43582	-0.000172015	   8.44138	-0.000171676	   8.43314	-0.000182919	   8.43678	-0.000175537	   8.43678	  -4.38842	
   8.48959	-0.000168147	   8.49493	-0.000167804	    8.4871	-0.000179346	   8.49054	-0.000171766	   8.49054	  -4.29414	
   8.54296	-0.000164316	   8.54812	-0.000163931	   8.54069	-0.000175786	   8.54393	-0.000168011	   8.54393	  -4.20027	
   8.59582	-0.000160502	   8.60082	-0.000160057	   8.59396	-0.000172225	   8.59687	-0.000164262	   8.59687	  -4.10654	
    8.6486	-0.000156685	   8.65291	-0.000156187	   8.64686	-0.000168645	   8.64946	-0.000160506	   8.64946	  -4.01264	
   8.70115	-0.000152843	   8.70485	-0.000152325	   8.69955	-0.000165032	   8.70185	-0.000156733	   8.70185	  -3.91834	
   8.75334	-0.000148957	    8.7565	-0.000148475	   8.75189	-0.000161377	   8.75391	-0.000152936	   8.75391	   -3.8234	
   8.80502	-0.000145012	   8.80771	-0.000144633	   8.80374	-0.000157673	   8.80549	-0.000149106	   8.80549	  -3.72765	
   8.85628	-0.000141004	   8.85875	-0.000140795	   8.85517	-0.000153921	   8.85674	-0.00014524	   8.85674	  -3.63101	
   8.90737	-0.000136936	   8.90938	-0.000136955	   8.90645	-0.000150128	   8.90774	-0.000141339	   8.90774	  -3.53349	
   8.95816	-0.000132818	   8.95977	-0.000133108	   8.95724	-0.000146301	   8.95839	-0.000137409	   8.95839	  -3.43523	
    9.0085	-0.000128669	   9.00979	-0.000129245	   9.00761	-0.000142453	   9.00863	-0.000133455	   9.00863	  -3.33639	
   9.05829	-0.000124512	   9.05968	-0.000125361	   9.05744	-0.000138598	   9.05847	-0.00012949	   9.05847	  -3.23726	
    9.1077	-0.000120369	   9.10893	-0.000121455	   9.10721	-0.000134749	   9.10795	-0.000125524	   9.10795	  -3.13811	
   9.15689	-0.00011626	   9.15782	-0.000117531	   9.15675	-0.000130915	   9.15716	-0.000121569	   9.15716	  -3.03921	
   9.20574	-0.000112199	   9.20642	-0.000113595	   9.20594	-0.000127105	   9.20604	-0.000117633	   9.20604	  -2.94082	
   9.25413	-0.000108191	   9.25461	-0.000109654	   9.25466	-0.000123317	   9.25446	-0.000113721	   9.25446	  -2.84302	
   9.30212	-0.000104232	   9.30245	-0.000105718	   9.30279	-0.000119546	   9.30246	-0.000109832	   9.30246	   -2.7458	
    9.3497	-0.000100309	   9.34965	-0.000101796	   9.35052	-0.000115785	   9.34996	-0.000105963	   9.34996	  -2.64908	
   9.39706	-9.64091e-05	   9.39649	-9.78929e-05	   9.39803	-0.000112023	   9.39719	-0.000102108	   9.39719	  -2.55271	
   9.44405	-9.25138e-05	   9.44305	-9.40146e-05	   9.44518	-0.000108247	   9.44409	-9.82583e-05	   9.44409	  -2.45646	
   9.49057	-8.86001e-05	    9.4892	-9.01611e-05	   9.49186	-0.000104445	   9.49055	-9.4402e-05	   9.49055	  -2.36005	
    9.5368	-8.46499e-05	   9.53485	-8.63291e-05	   9.53797	-0.000100611	   9.53654	-9.053e-05	   9.53654	  -2.26325	
   9.58271	-8.06513e-05	   9.58026	-8.25125e-05	   9.58341	-9.67414e-05	   9.58213	-8.66351e-05	   9.58213	  -2.16588	
   9.62839	-7.65984e-05	   9.62552	-7.86884e-05	   9.62837	-9.28361e-05	   9.62743	-8.27077e-05	   9.62743	  -2.06769	
    9.6737	-7.24925e-05	    9.6705	-7.48525e-05	   9.67305	-8.89031e-05	   9.67242	-7.87493e-05	   9.67242	  -1.96873	
   9.71854	-6.83421e-05	   9.71508	-7.09978e-05	   9.71734	-8.4951e-05	   9.71698	-7.47636e-05	   9.71698	  -1.86909	
   9.76281	-6.41596e-05	   9.75915	-6.71156e-05	   9.76112	-8.09892e-05	   9.76103	-7.07548e-05	   9.76103	  -1.76887	
   9.80662	-5.99612e-05	   9.80282	-6.32014e-05	   9.80449	-7.70309e-05	   9.80464	-6.67312e-05	   9.80464	  -1.66828	
   9.84995	-5.57681e-05	   9.84636	-5.92547e-05	   9.84774	-7.30885e-05	   9.84802	-6.27037e-05	   9.84802	  -1.56759	
     9.893	-5.15958e-05	   9.88946	-5.52885e-05	   9.89075	-6.91712e-05	   9.89107	-5.86852e-05	   9.89107	  -1.46713	
   9.93567	-4.74572e-05	   9.93222	-5.13124e-05	    9.9334	-6.52846e-05	   9.93376	-5.46847e-05	   9.93376	  -1.36712	
   9.97785	-4.33585e-05	   9.97453	-4.73383e-05	    9.9756	-6.14299e-05	   9.97599	-5.07089e-05	   9.97599	  -1.26772	
   10.0195	-3.93053e-05	   10.0163	-4.33837e-05	   10.0175	-5.76023e-05	   10.0178	-4.67638e-05	   10.0178	  -1.16909	
   10.0604	-3.52954e-05	   10.0574	-3.94636e-05	   10.0588	-5.3792e-05	   10.0589	-4.28503e-05	   10.0589	  -1.07126	
   10.1012	-3.13142e-05	   10.0982	-3.55828e-05	   10.0999	-4.99912e-05	   10.0998	-3.89627e-05	   10.0998	 -0.974068	
   10.1417	-2.73478e-05	   10.1385	-3.17548e-05	   10.1408	-4.61878e-05	   10.1403	-3.50968e-05	   10.1403	  -0.87742	
   10.1818	-2.33828e-05	   10.1785	-2.79729e-05	   10.1812	-4.23674e-05	   10.1805	-3.1241e-05	   10.1805	 -0.781026	
   10.2215	-1.93944e-05	   10.2181	-2.42206e-05	   10.2212	-3.85234e-05	   10.2203	-2.73795e-05	   10.2203	 -0.684487	
   10.2607	-1.53693e-05	   10.2572	-2.04807e-05	   10.2607	-3.46491e-05	   10.2595	-2.34997e-05	   10.2595	 -0.587493	
   10.2994	-1.1299e-05	   10.2957	-1.67344e-05	   10.2995	-3.07448e-05	   10.2982	-1.95927e-05	   10.2982	 -0.489818	
   10.3377	-7.18307e-06	   10.3337	-1.29668e-05	   10.3378	-2.68084e-05	   10.3364	-1.56528e-05	   10.3364	 -0.391319	
   10.3755	-3.02627e-06	   10.3716	-9.15688e-06	   10.3756	-2.28424e-05	   10.3742	-1.16752e-05	   10.3742	  -0.29188	
   10.4129	1.16149e-06	   10.4093	-5.29517e-06	   10.4131	-1.88612e-05	   10.4118	-7.66496e-06	   10.4118	 -0.191624	
     10.45	5.36267e-06	   10.4466	-1.3794e-06	   10.4503	-1.48864e-05	    10.449	-3.63438e-06	    10.449	-0.0908594	
   10.4866	9.56134e-06	   10.4834	2.58734e-06	    10.487	-1.0919e-05	   10.4857	4.09895e-07	   10.4857	 0.0102474	
   10.5227	 1.374e-05	   10.5198	6.59233e-06	   10.5232	-6.97486e-06	   10.5219	4.45248e-06	   10.5219	  0.111312	
   10.5585	1.78761e-05	   10.5557	1.06156e-05	   10.5588	-3.07259e-06	   10.5577	8.47303e-06	   10.5577	  0.211826	
   10.5939	2.19645e-05	    10.591	1.46355e-05	   10.5943	7.82487e-07	   10.5931	1.24608e-05	   10.5931	   0.31152	
   10.6288	2.60042e-05	   10.6261	1.86311e-05	   10.6293	4.58939e-06	   10.6281	1.64082e-05	   10.6281	  0.410206	
   10.6635	2.99966e-05	   10.6608	2.25841e-05	    10.664	8.34661e-06	   10.6628	2.03091e-05	   10.6628	  0.507728	
   10.6978	3.39534e-05	   10.6952	2.64759e-05	   10.6984	1.20557e-05	   10.6971	2.41617e-05	   10.6971	  0.604043	
   10.7317	3.78881e-05	   10.7291	3.02992e-05	   10.7324	1.57305e-05	   10.7311	2.79726e-05	   10.7311	  0.699315	
    10.765	4.18197e-05	   10.7626	3.40563e-05	   10.7659	1.93819e-05	   10.7645	3.17527e-05	   10.7645	  0.793817	
   10.7978	4.57686e-05	   10.7956	3.77531e-05	   10.7988	2.30276e-05	   10.7974	3.55164e-05	   10.7974	  0.887911	
   10.8303	4.97525e-05	    10.828	4.14036e-05	   10.8311	2.66903e-05	   10.8298	3.92821e-05	   10.8298	  0.982053	
   10.8624	5.37802e-05	   10.8601	4.5029e-05	   10.8632	3.03843e-05	   10.8619	4.30645e-05	   10.8619	   1.07661	
   10.8941	5.78511e-05	   10.8921	4.86521e-05	   10.8948	3.41219e-05	   10.8936	4.6875e-05	   10.8936	   1.17188	
   10.9255	6.19597e-05	   10.9236	5.22922e-05	   10.9259	3.79108e-05	    10.925	5.07209e-05	    10.925	   1.26802	
   10.9566	6.60947e-05	   10.9549	5.59681e-05	   10.9568	4.17579e-05	   10.9561	5.46069e-05	   10.9561	   1.36517	
   10.9873	7.02392e-05	   10.9857	5.9698e-05	   10.9873	4.56546e-05	   10.9868	5.85306e-05	   10.9868	   1.46326	
   11.0175	7.43724e-05	   11.0162	6.34915e-05	   11.0174	4.95917e-05	    11.017	6.24852e-05	    11.017	   1.56213	
   11.0472	7.84763e-05	   11.0461	6.73487e-05	    11.047	5.35517e-05	   11.0468	6.64589e-05	   11.0468	   1.66147	
   11.0764	8.25403e-05	   11.0755	7.12622e-05	    11.076	5.75143e-05	    11.076	7.04389e-05	    11.076	   1.76097	
   11.1049	8.65592e-05	   11.1044	7.52154e-05	   11.1045	6.14591e-05	   11.1046	7.44112e-05	   11.1046	   1.86028	
    11.133	9.05325e-05	   11.1327	7.91881e-05	   11.1324	6.53638e-05	   11.1327	7.83614e-05	   11.1327	   1.95904	
   11.1607	9.44678e-05	   11.1607	8.31567e-05	   11.1596	6.9218e-05	   11.1603	8.22809e-05	   11.1603	   2.05702	
    11.188	9.83716e-05	   11.1879	8.70962e-05	   11.1863	7.30104e-05	   11.1874	8.61594e-05	   11.1874	   2.15399	
    11.215	0.00010226	    11.215	9.09816e-05	   11.2125	7.67419e-05	   11.2142	8.99946e-05	   11.2142	   2.24987	
   11.2418	0.000106154	   11.2413	9.4798e-05	   11.2385	8.04245e-05	   11.2406	9.37923e-05	   11.2406	   2.34481	
   11.2682	0.000110061	   11.2674	9.85398e-05	   11.2643	8.40651e-05	   11.2667	9.75553e-05	   11.2667	   2.43888	
   11.2942	0.000113985	   11.2932	0.000102209	   11.2898	8.76801e-05	   11.2924	0.000101292	   11.2924	   2.53229	
   11.3198	0.000117929	   11.3186	0.000105819	   11.3148	9.12944e-05	   11.3177	0.000105014	   11.3177	   2.62536	
   11.3448	0.000121882	   11.3435	0.000109392	   11.3395	9.49272e-05	   11.3426	0.000108734	   11.3426	   2.71835	
   11.3693	0.000125838	   11.3679	0.000112958	   11.3637	9.8595e-05	    11.367	0.000112464	    11.367	   2.81159	
   11.3933	0.000129789	   11.3918	0.000116545	   11.3873	0.000102306	   11.3908	0.000116213	   11.3908	   2.90533	
   11.4166	0.000133716	   11.4152	0.000120181	   11.4105	0.000106061	   11.4141	0.000119986	   11.4141	   2.99966	
   11.4394	0.000137611	    11.438	0.000123888	   11.4331	0.000109853	   11.4368	0.000123784	   11.4368	    3.0946	
   11.4614	0.000141483	   11.4601	0.000127676	    11.455	0.000113666	   11.4589	0.000127609	   11.4589	   3.19022	
   11.4832	0.00014534	   11.4817	0.000131548	   11.4764	0.000117483	   11.4804	0.000131457	   11.4804	   3.28643	
   11.5044	0.000149184	   11.5028	0.000135492	   11.4973	0.000121276	   11.5015	0.000135317	   11.5015	   3.38293	
   11.5249	0.000153023	   11.5235	0.000139483	   11.5179	0.000125025	   11.5221	0.000139177	   11.5221	   3.47943	
    11.545	0.000156872	   11.5437	0.00014349	   11.5382	0.00012872	   11.5423	0.000143028	   11.5423	   3.57569	
   11.5647	0.000160722	   11.5637	0.000147481	    11.558	0.000132357	   11.5621	0.000146854	   11.5621	   3.67134	
   11.5841	0.000164576	   11.5833	0.000151422	   11.5776	0.000135941	   11.5817	0.000150646	   11.5817	   3.76616	
   11.6033	0.000168446	   11.6026	0.000155287	   11.5968	0.000139485	   11.6009	0.000154406	   11.6009	   3.86015	
    11.622	0.000172303	   11.6214	0.000159062	   11.6152	0.000143013	   11.6195	0.000158126	   11.6195	   3.95314	
   11.6403	0.000176131	   11.6397	0.000162746	   11.6333	0.000146545	   11.6378	0.000161808	   11.6378	   4.04519	
   11.6583	0.000179947	   11.6577	0.000166342	   11.6512	0.000150102	   11.6557	0.000165464	   11.6557	   4.13659	
   11.6759	0.000183746	   11.6754	0.000169874	   11.6687	0.000153697	   11.6733	0.000169106	   11.6733	   4.22764	
   11.6931	0.000187512	   11.6924	0.000173369	    11.686	0.000157335	   11.6905	0.000172739	   11.6905	   4.31847	
   11.7099	0.000191249	   11.7091	0.000176849	   11.7028	0.000161019	   11.7073	0.000176372	   11.7073	   4.40931	
   11.7263	0.000194975	   11.7254	0.00018035	   11.7192	0.000164741	   11.7236	0.000180022	   11.7236	   4.50055	
   11.7423	0.000198681	   11.7413	0.000183893	   11.7353	0.000168484	   11.7396	0.000183686	   11.7396	   4.59216	
   11.7578	0.000202363	   11.7567	0.000187495	   11.7509	0.000172225	   11.7551	0.000187361	   11.7551	   4.68403	
   11.7728	0.00020605	   11.7718	0.000191167	   11.7661	0.000175943	   11.7702	0.000191053	   11.7702	   4.77633	
   11.7873	0.000209734	   11.7864	0.000194903	   11.7808	0.000179615	   11.7848	0.000194751	   11.7848	   4.86877	
   11.8013	0.000213405	   11.8005	0.000198689	    11.795	0.000183234	    11.799	0.000198442	    11.799	   4.96106	
   11.8149	0.000217069	   11.8142	0.000202501	   11.8088	0.000186798	   11.8126	0.000202123	   11.8126	   5.05307	
   11.8279	0.000220728	   11.8274	0.000206314	   11.8221	 0.0001903	   11.8258	0.000205781	   11.8258	   5.14452	
   11.8405	0.000224367	   11.8401	0.000210106	    11.835	0.000193744	   11.8385	0.000209405	   11.8385	   5.23514	
   11.8525	0.000227981	   11.8524	0.000213849	   11.8473	0.000197154	   11.8508	0.000212995	   11.8508	   5.32486	
   11.8641	0.000231574	   11.8642	0.000217527	   11.8592	0.000200549	   11.8625	0.00021655	   11.8625	   5.41374	
   11.8752	0.000235139	   11.8755	0.000221135	   11.8706	0.00020394	   11.8738	0.000220072	   11.8738	   5.50179	
   11.8858	0.000238672	   11.8864	0.000224674	   11.8815	0.000207343	   11.8845	0.000223563	   11.8845	   5.58908	
   11.8959	0.000242186	   11.8967	0.000228155	   11.8919	0.000210772	   11.8948	0.000227038	   11.8948	   5.67594	
   11.9055	0.000245684	   11.9067	0.000231595	   11.9019	0.000214235	   11.9047	0.000230505	   11.9047	   5.76262	
   11.9147	0.000249168	   11.9161	0.000235022	   11.9114	0.000217721	   11.9141	0.00023397	   11.9141	   5.84925	
   11.9234	0.000252649	   11.9251	0.000238464	   11.9205	0.000221228	    11.923	0.000237447	    11.923	   5.93617	
   11.9316	0.000256133	   11.9337	0.000241947	   11.9291	0.000224744	   11.9315	0.000240941	   11.9315	   6.02353	
   11.9394	0.000259615	   11.9418	0.000245489	   11.9372	0.000228259	   11.9395	0.000244455	   11.9395	   6.11136	
   11.9468	 0.0002631	   11.9495	0.000249094	    11.945	0.000231756	   11.9471	0.000247983	   11.9471	   6.19958	
   11.9538	0.000266587	   11.9568	0.000252757	   11.9523	0.000235226	   11.9543	0.000251523	   11.9543	   6.28809	
   11.9604	0.000270068	   11.9637	0.000256461	   11.9592	0.000238666	   11.9611	0.000255065	   11.9611	   6.37662	
   11.9665	0.000273535	   11.9702	0.000260179	   11.9657	0.000242065	   11.9675	0.000258593	   11.9675	   6.46482	
   11.9723	0.000276992	   11.9763	0.000263879	   11.9719	0.000245425	   11.9735	0.000262098	   11.9735	   6.55246	
   11.9777	0.000280429	   11.9817	0.000267526	   11.9776	0.000248751	    11.979	0.000265569	    11.979	   6.63922	
   11.9828	0.000283842	   11.9869	0.000271094	   11.9827	0.000252045	   11.9841	0.000268994	   11.9841	   6.72484	
   11.9875	0.00028724	   11.9913	0.000274568	   11.9875	0.000255324	   11.9887	0.000272377	   11.9887	   6.80943	
   11.9919	0.000290645	   11.9954	0.000277942	   11.9919	0.000258597	   11.9931	0.000275728	   11.9931	    6.8932	
   11.9958	0.000294049	    11.999	0.000281219	   11.9959	0.000261867	   11.9969	0.000279045	   11.9969	   6.97613	
   11.9993	0.000297447	   12.0024	0.000284426	    11.999	0.000265148	   12.0002	0.00028234	   12.0002	   7.05851	
   12.0022	0.000300845	   12.0052	0.000287598	   12.0015	0.000268442	    12.003	0.000285628	    12.003	   7.14071	
   12.0046	0.00030423	   12.0072	0.000290773	   12.0035	0.000271754	   12.0051	0.000288919	   12.0051	   7.22297	
   12.0062	0.000307596	   12.0084	0.000293984	   12.0048	0.000275079	   12.0065	0.00029222	   12.0065	   7.30549	
   12.0074	0.000310929	   12.0093	0.00029726	   12.0054	0.000278416	   12.0074	0.000295535	   12.0074	   7.38837	
   12.0079	0.000314226	   12.0096	0.000300619	   12.0054	0.000281753	   12.0076	0.000298866	   12.0076	   7.47164	
   12.0077	0.000317482	   12.0092	0.000304056	   12.0048	0.000285078	   12.0072	0.000302205	   12.0072	   7.55513	
   12.0072	0.000320693	   12.0083	0.000307544	   12.0037	0.000288383	   12.0064	0.00030554	   12.0064	   7.63849	
   12.0062	0.000323868	   12.0069	0.000311057	   12.0021	0.000291658	   12.0051	0.000308861	   12.0051	   7.72153	
   12.0046	0.000327005	   12.0051	0.000314574	   12.0001	0.000294894	   12.0033	0.000312158	   12.0033	   7.80394	
   12.0026	0.000330112	   12.0028	0.000318034	   11.9976	0.000298087	    12.001	0.000315411	    12.001	   7.88528	
   12.0001	0.000333212	   12.0002	0.000321401	   11.9948	0.000301239	   11.9984	0.000318617	   11.9984	   7.96543	
   11.9971	0.000336324	   11.9972	0.000324667	   11.9915	0.000304353	   11.9953	0.000321781	   11.9953	   8.04454	
   11.9937	0.000339462	   11.9939	0.000327819	   11.9879	0.000307438	   11.9919	0.000324907	   11.9919	   8.12266	
   11.9901	0.000342635	   11.9904	0.000330856	   11.9841	0.000310503	   11.9882	0.000327998	   11.9882	   8.19995	
   11.9858	0.000345845	   11.9863	0.000333802	   11.9798	0.000313561	    11.984	0.00033107	    11.984	   8.27674	
   11.9812	0.000349091	   11.9815	0.000336703	   11.9749	0.000316625	   11.9792	0.00033414	   11.9792	   8.35349	
   11.9759	0.000352364	   11.9759	0.000339589	   11.9693	0.000319705	   11.9737	0.000337219	   11.9737	   8.43048	
   11.9698	0.00035565	   11.9698	0.000342491	   11.9632	0.000322804	   11.9676	0.000340315	   11.9676	   8.50787	
   11.9632	0.00035893	   11.9631	0.000345454	   11.9565	0.000325922	   11.9609	0.000343435	   11.9609	   8.58588	
   11.9561	0.000362181	   11.9559	0.000348488	   11.9493	0.000329053	   11.9538	0.000346574	   11.9538	   8.66435	
   11.9485	0.000365387	   11.9483	0.000351597	   11.9417	0.000332189	   11.9462	0.000349724	   11.9462	   8.74311	
   11.9404	0.000368532	   11.9404	0.000354775	   11.9337	0.000335312	   11.9382	0.000352873	   11.9382	   8.82183	
   11.9321	0.000371606	   11.9319	0.000358005	   11.9254	0.000338409	   11.9298	0.000356007	   11.9298	   8.90017	
   11.9234	0.000374608	   11.9232	0.000361248	   11.9166	0.000341466	   11.9211	0.000359107	   11.9211	   8.97768	
   11.9141	0.000377546	   11.9138	0.000364466	   11.9076	0.000344471	   11.9118	0.000362161	   11.9118	   9.05403	
   11.9041	0.000380435	   11.9038	0.000367628	   11.8978	0.000347419	   11.9019	0.000365161	   11.9019	   9.12901	
   11.8936	0.000383293	   11.8932	0.000370704	   11.8874	0.00035031	   11.8914	0.000368103	   11.8914	   9.20256	
   11.8825	0.000386143	    11.882	0.000373679	   11.8765	0.00035315	   11.8803	0.00037099	   11.8803	   9.27476	
   11.8709	0.000389001	   11.8703	0.000376551	    11.865	0.00035595	   11.8688	0.000373834	   11.8688	   9.34585	
   11.8589	0.000391881	   11.8583	0.000379333	   11.8532	0.00035873	   11.8568	0.000376648	   11.8568	    9.4162	
   11.8465	0.00039479	   11.8459	0.000382041	    11.841	0.000361514	   11.8445	0.000379448	   11.8445	   9.48621	
   11.8338	0.00039773	   11.8333	0.000384708	   11.8286	0.000364319	   11.8319	0.000382252	   11.8319	   9.55631	
   11.8209	0.000400689	   11.8202	0.000387366	   11.8159	0.000367159	    11.819	0.000385071	    11.819	   9.62679	
   11.8074	0.000403656	   11.8065	0.000390046	   11.8027	0.000370048	   11.8055	0.000387917	   11.8055	   9.69792	
   11.7932	0.000406616	   11.7923	0.000392774	   11.7888	0.000372991	   11.7915	0.000390794	   11.7915	   9.76984	
   11.7785	0.000409555	   11.7775	0.000395565	   11.7744	0.000375975	   11.7768	0.000393699	   11.7768	   9.84246	
   11.7633	0.000412447	   11.7623	0.000398419	   11.7595	0.000378982	   11.7617	0.000396616	   11.7617	   9.91541	
   11.7477	0.000415278	   11.7466	0.000401324	   11.7442	0.000381996	   11.7462	0.000399533	   11.7462	   9.98832	
   11.7318	0.000418052	   11.7306	0.000404264	   11.7286	0.00038499	   11.7303	0.000402435	   11.7303	   10.0609	
   11.7156	0.000420785	   11.7143	0.00040721	   11.7124	0.000387935	   11.7141	0.00040531	   11.7141	   10.1328	
   11.6993	0.000423483	   11.6974	0.000410131	   11.6955	0.00039081	   11.6974	0.000408141	   11.6974	   10.2035	
   11.6823	0.000426162	   11.6799	0.000412997	   11.6782	0.000393601	   11.6801	0.00041092	   11.6801	    10.273	
   11.6647	0.000428856	   11.6618	0.00041578	   11.6604	0.000396303	   11.6623	0.000413646	   11.6623	   10.3412	
   11.6466	0.00043158	   11.6434	0.000418464	   11.6422	0.000398919	    11.644	0.000416321	    11.644	    10.408	
   11.6281	0.000434347	   11.6244	0.000421047	   11.6236	0.000401461	   11.6254	0.000418952	   11.6254	   10.4738	
   11.6093	0.000437158	    11.605	0.00042354	   11.6048	0.000403951	   11.6063	0.00042155	   11.6063	   10.5387	
   11.5899	0.000440005	   11.5852	0.000425957	   11.5852	0.000406422	   11.5867	0.000424128	   11.5867	   10.6032	
   11.5698	0.000442872	   11.5648	0.000428328	   11.5649	0.000408902	   11.5665	0.000426701	   11.5665	   10.6675	
   11.5491	0.000445747	   11.5439	0.000430687	   11.5443	0.000411414	   11.5458	0.000429283	   11.5458	   10.7321	
    11.528	0.000448605	   11.5226	0.00043306	   11.5233	0.000413976	   11.5246	0.00043188	   11.5246	    10.797	
   11.5065	0.000451419	    11.501	0.000435467	   11.5019	0.000416597	   11.5031	0.000434494	   11.5031	   10.8624	
   11.4847	0.000454166	   11.4786	0.000437921	     11.48	0.000419269	   11.4811	0.000437119	   11.4811	    10.928	
   11.4624	0.000456831	   11.4556	0.000440425	   11.4577	0.000421972	   11.4586	0.000439743	   11.4586	   10.9936	
   11.4395	0.000459402	    11.432	0.000442974	   11.4349	0.000424687	   11.4355	0.000442354	   11.4355	   11.0589	
   11.4161	0.000461889	    11.408	0.000445555	   11.4117	0.000427389	   11.4119	0.000444944	   11.4119	   11.1236	
   11.3922	0.000464301	   11.3837	0.000448149	    11.388	0.000430053	   11.3879	0.000447501	   11.3879	   11.1875	
    11.368	0.000466646	   11.3591	0.000450725	    11.364	0.000432657	   11.3637	0.000450009	   11.3637	   11.2502	
   11.3436	0.000468953	   11.3342	0.000453259	   11.3396	0.000435192	   11.3392	0.000452468	   11.3392	   11.3117	
   11.3185	0.000471251	   11.3088	0.000455734	   11.3146	0.000437657	   11.3139	0.000454881	   11.3139	    11.372	
   11.2928	0.000473565	   11.2828	0.000458128	    11.289	0.000440057	   11.2882	0.00045725	   11.2882	   11.4312	
   11.2667	 0.0004759	   11.2565	0.000460445	    11.263	0.00044241	   11.2621	0.000459585	   11.2621	   11.4896	
   11.2402	0.000478271	     11.23	0.000462692	   11.2367	0.000444739	   11.2356	0.000461901	   11.2356	   11.5475	
    11.213	0.000480692	    11.203	0.00046488	   11.2099	0.000447067	   11.2086	0.000464213	   11.2086	   11.6053	
   11.1851	0.000483147	   11.1754	0.000467017	   11.1827	0.000449418	    11.181	0.000466527	    11.181	   11.6632	
   11.1567	0.000485634	   11.1473	0.000469134	    11.155	0.000451809	    11.153	0.000468859	    11.153	   11.7215	
   11.1278	0.000488135	   11.1188	0.000471263	   11.1268	0.000454246	   11.1245	0.000471215	   11.1245	   11.7804	
   11.0987	0.000490643	   11.0902	0.000473411	   11.0984	0.000456725	   11.0958	0.000473593	   11.0958	   11.8398	
   11.0695	0.000493126	   11.0614	0.000475595	   11.0697	0.000459234	   11.0669	0.000475985	   11.0669	   11.8996	
   11.0398	0.000495564	   11.0319	0.000477832	   11.0404	0.00046175	   11.0374	0.000478382	   11.0374	   11.9595	
   11.0096	0.000497938	    11.002	0.000480112	   11.0106	0.000464248	   11.0074	0.000480766	   11.0074	   12.0192	
    10.979	0.000500239	   10.9718	0.000482419	   10.9803	0.000466698	    10.977	0.000483119	    10.977	    12.078	
   10.9481	0.000502464	   10.9413	0.000484744	   10.9499	0.000469079	   10.9464	0.000485429	   10.9464	   12.1357	
   10.9169	0.000504599	   10.9105	0.000487075	   10.9188	0.000471375	   10.9154	0.000487683	   10.9154	   12.1921	
   10.8851	0.000506647	   10.8792	0.000489376	   10.8872	0.000473579	   10.8838	0.000489868	   10.8838	   12.2467	
   10.8529	0.000508622	   10.8474	0.00049164	   10.8551	0.000475697	   10.8518	0.000491986	   10.8518	   12.2997	
   10.8203	0.000510539	   10.8153	0.000493857	   10.8227	0.000477741	   10.8195	0.000494046	   10.8195	   12.3511	
   10.7876	0.000512426	   10.7828	0.000496015	   10.7898	0.000479733	   10.7867	0.000496058	   10.7867	   12.4014	
   10.7542	0.000514304	     10.75	0.000498111	   10.7565	 0.0004817	   10.7535	0.000498039	   10.7535	    12.451	
   10.7203	0.000516187	   10.7167	0.000500154	   10.7227	0.000483672	   10.7199	0.000500004	   10.7199	   12.5001	
    10.686	0.000518093	    10.683	0.000502151	   10.6885	0.000485667	   10.6858	0.00050197	   10.6858	   12.5493	
   10.6515	0.000520036	   10.6491	0.000504113	   10.6538	0.000487701	   10.6515	0.00050395	   10.6515	   12.5987	
   10.6165	0.000522032	   10.6147	0.000506061	   10.6187	0.000489779	   10.6167	0.000505957	   10.6167	   12.6489	
    10.581	0.000524074	   10.5798	0.000508016	   10.5833	0.000491896	   10.5814	0.000507995	   10.5814	   12.6999	
   10.5451	0.000526155	   10.5445	0.000509983	   10.5476	0.00049404	   10.5457	0.000510059	   10.5457	   12.7515	
    10.509	0.000528263	    10.509	0.000511971	   10.5113	0.000496196	   10.5097	0.000512143	   10.5097	   12.8036	
   10.4727	0.000530379	   10.4733	0.000513987	   10.4744	0.00049834	   10.4734	0.000514235	   10.4734	   12.8559	
   10.4359	0.00053248	    10.437	0.000516023	   10.4371	0.000500454	   10.4367	0.000516319	   10.4367	    12.908	
   10.3986	0.000534544	   10.4003	0.000518073	   10.3995	0.000502529	   10.3995	0.000518382	   10.3995	   12.9596	
   10.3611	0.000536552	   10.3633	0.000520126	   10.3616	0.000504557	    10.362	0.000520412	    10.362	   13.0103	
   10.3235	0.000538494	   10.3256	0.000522163	   10.3237	0.000506536	   10.3243	0.000522397	   10.3243	   13.0599	
   10.2852	0.000540363	   10.2874	0.000524166	   10.2852	0.000508478	   10.2859	0.000524336	   10.2859	   13.1084	
   10.2466	0.000542167	   10.2487	0.000526126	   10.2464	 0.0005104	   10.2472	0.000526231	   10.2472	   13.1558	
   10.2076	0.000543911	   10.2096	0.000528035	   10.2073	0.000512317	   10.2082	0.000528088	   10.2082	   13.2022	
   10.1683	0.00054561	   10.1702	0.000529887	   10.1678	0.000514238	   10.1688	0.000529912	   10.1688	   13.2478	
   10.1284	0.000547283	   10.1302	0.000531684	    10.128	0.00051617	   10.1289	0.000531713	   10.1289	   13.2928	
   10.0881	0.00054895	   10.0899	0.000533435	   10.0878	0.000518112	   10.0886	0.000533499	   10.0886	   13.3375	
   10.0473	0.000550626	   10.0494	0.00053515	   10.0474	0.000520054	    10.048	0.000535277	    10.048	   13.3819	
   10.0062	0.000552324	   10.0082	0.000536843	   10.0066	0.000521985	    10.007	0.000537051	    10.007	   13.4263	
   9.96468	0.000554046	   9.96659	0.000538531	    9.9652	0.000523885	   9.96549	0.000538821	   9.96549	   13.4705	
   9.92278	0.000555789	   9.92467	0.000540223	   9.92351	0.000525733	   9.92365	0.000540582	   9.92365	   13.5145	
    9.8807	0.000557542	   9.88231	0.00054193	   9.88135	0.000527515	   9.88146	0.000542329	   9.88146	   13.5582	
   9.83801	0.000559291	   9.83939	0.000543663	   9.83861	0.000529221	   9.83867	0.000544058	   9.83867	   13.6015	
   9.79488	0.000561019	   9.79609	0.000545416	   9.79545	0.000530846	   9.79547	0.00054576	   9.79547	    13.644	
   9.75148	0.000562712	   9.75237	0.000547181	   9.75185	0.000532397	    9.7519	0.00054743	    9.7519	   13.6857	
   9.70768	0.000564362	    9.7083	0.000548936	   9.70759	0.000533894	   9.70786	0.000549064	   9.70786	   13.7266	
   9.66335	0.000565961	   9.66376	0.000550653	   9.66287	0.000535362	   9.66333	0.000550659	   9.66333	   13.7665	
   9.61867	0.000567506	   9.61892	0.000552311	   9.61784	0.000536829	   9.61848	0.000552215	   9.61848	   13.8054	
   9.57381	0.000568998	   9.57375	0.000553906	   9.57249	0.000538324	   9.57335	0.000553743	   9.57335	   13.8436	
   9.52833	0.000570448	   9.52802	0.000555432	   9.52659	0.000539868	   9.52765	0.000555249	   9.52765	   13.8812	
   9.48244	0.000571864	   9.48193	0.000556896	   9.48032	0.000541473	   9.48156	0.000556745	   9.48156	   13.9186	
   9.43629	0.000573264	   9.43565	0.000558318	   9.43386	0.000543145	   9.43527	0.000558242	   9.43527	   13.9561	
   9.38976	0.000574657	   9.38903	0.000559724	   9.38708	0.000544871	   9.38862	0.000559751	   9.38862	   13.9938	
   9.34274	0.000576055	   9.34197	0.000561139	   9.33985	0.000546631	   9.34152	0.000561275	   9.34152	   14.0319	
   9.29541	0.000577463	   9.29463	0.000562588	   9.29235	0.000548398	   9.29413	0.000562816	   9.29413	   14.0704	
   9.24794	0.000578888	     9.247	0.000564095	   9.24456	0.000550141	    9.2465	0.000564374	    9.2465	   14.1094	
    9.1999	0.000580325	   9.19885	0.000565671	   9.19627	0.000551827	   9.19834	0.000565941	   9.19834	   14.1485	
   9.15149	0.000581768	   9.15038	0.000567318	   9.14765	0.000553429	   9.14984	0.000567505	   9.14984	   14.1876	
   9.10288	0.000583212	   9.10176	0.000569031	   9.09888	0.000554929	   9.10117	0.000569057	   9.10117	   14.2264	
   9.05386	0.000584647	   9.05276	0.000570778	   9.04975	0.000556321	   9.05212	0.000570582	   9.05212	   14.2646	
   9.00441	0.000586061	   9.00337	0.000572522	   9.00022	0.000557614	   9.00267	0.000572066	   9.00267	   14.3016	
   8.95472	0.000587446	   8.95348	0.000574225	    8.9505	0.000558822	    8.9529	0.000573498	    8.9529	   14.3374	
   8.90457	0.000588794	    8.9032	0.000575845	   8.90036	0.000559971	   8.90271	0.00057487	   8.90271	   14.3718	
   8.85397	0.000590099	   8.85251	0.000577348	   8.84979	0.000561086	   8.85209	0.000576178	   8.85209	   14.4044	
    8.8031	0.000591362	    8.8014	0.000578706	   8.79879	0.000562198	    8.8011	0.000577422	    8.8011	   14.4356	
   8.75214	0.000592585	   8.74998	0.000579914	   8.74746	0.000563334	   8.74986	0.000578611	   8.74986	   14.4653	
   8.70068	0.000593772	   8.69813	0.000580976	   8.69569	0.000564504	   8.69816	0.00057975	   8.69816	   14.4938	
    8.6489	0.000594927	   8.64576	0.000581918	   8.64366	0.00056572	   8.64611	0.000580855	   8.64611	   14.5214	
   8.59681	0.000596058	   8.59316	0.000582782	   8.59138	0.000566977	   8.59378	0.000581939	   8.59378	   14.5485	
   8.54421	0.000597177	   8.54013	0.000583611	   8.53863	0.000568262	   8.54099	0.000583016	   8.54099	   14.5754	
   8.49128	0.000598291	   8.48686	0.000584452	   8.48561	0.000569555	   8.48792	 0.0005841	   8.48792	   14.6025	
   8.43822	0.000599405	   8.43325	0.000585351	   8.43193	0.000570835	   8.43447	0.000585197	   8.43447	   14.6299	
   8.38463	0.000600521	    8.3792	0.000586335	    8.3781	0.00057208	   8.38064	0.000586312	   8.38064	   14.6578	
   8.33071	0.00060164	    8.3249	0.000587416	   8.32399	0.000573263	   8.32653	0.000587439	   8.32653	    14.686	
   8.27637	0.000602759	   8.27027	0.000588589	   8.26979	0.000574369	   8.27214	0.000588572	   8.27214	   14.7143	
    8.2217	0.00060387	   8.21538	0.000589837	   8.21512	0.00057539	    8.2174	0.000589699	    8.2174	   14.7425	
   8.16671	0.000604966	   8.16025	0.000591124	   8.16016	0.000576324	   8.16237	0.000590805	   8.16237	   14.7701	
   8.11139	0.000606034	   8.10486	0.000592411	   8.10511	0.000577182	   8.10712	0.000591876	   8.10712	   14.7969	
   8.05557	0.000607066	   8.04902	0.000593656	   8.04957	0.000577981	   8.05139	0.000592901	   8.05139	   14.8225	
   7.99945	0.000608059	   7.99294	0.000594822	   7.99374	0.000578743	   7.99538	0.000593874	   7.99538	   14.8469	
   7.94322	0.000609011	   7.93623	0.000595879	   7.93783	0.000579492	   7.93909	0.000594794	   7.93909	   14.8699	
   7.88667	0.000609924	    7.8793	0.000596817	   7.88142	0.000580251	   7.88246	0.000595664	   7.88246	   14.8916	
   7.82983	0.000610805	   7.82215	0.000597635	   7.82473	0.000581035	   7.82557	0.000596492	   7.82557	   14.9123	
   7.77258	0.000611661	   7.76469	0.000598347	   7.76767	0.000581854	   7.76831	0.000597287	   7.76831	   14.9322	
   7.71486	0.000612501	   7.70683	0.00059898	   7.71016	0.000582712	   7.71061	0.000598064	   7.71061	   14.9516	
   7.65687	0.000613332	   7.64877	0.000599568	   7.65239	0.000583603	   7.65268	0.000598834	   7.65268	   14.9709	
   7.59862	0.00061416	   7.59033	0.000600142	   7.59458	0.000584514	   7.59451	0.000599605	   7.59451	   14.9901	
   7.53993	0.000614986	   7.53152	0.000600738	   7.53632	0.000585434	   7.53592	0.000600386	   7.53592	   15.0097	
   7.48101	0.000615811	   7.47255	0.000601382	   7.47783	0.000586339	   7.47713	0.000601178	   7.47713	   15.0294	
   7.42177	0.000616628	   7.41304	0.00060209	    7.4193	0.000587202	   7.41803	0.000601973	   7.41803	   15.0493	
   7.36231	0.000617431	   7.35321	0.00060286	   7.36035	0.000588002	   7.35862	0.000602764	   7.35862	   15.0691	
   7.30266	0.000618209	   7.29326	0.000603686	   7.30118	0.000588741	   7.29903	0.000603545	   7.29903	   15.0886	
   7.24261	0.000618953	   7.23283	0.000604542	    7.2416	 0.0005894	   7.23901	0.000604299	   7.23901	   15.1075	
   7.18219	0.000619655	   7.17212	 0.0006054	   7.18164	0.000589971	   7.17865	0.000605009	   7.17865	   15.1252	
   7.12162	0.000620309	   7.11134	0.000606228	   7.12152	0.000590454	   7.11816	0.000605664	   7.11816	   15.1416	
   7.06051	0.00062091	   7.05012	0.000606997	   7.06103	0.000590866	   7.05722	0.000606258	   7.05722	   15.1564	
    6.9991	0.000621462	   6.98866	0.000607678	   7.00021	0.000591226	   6.99599	0.000606789	   6.99599	   15.1697	
    6.9374	0.000621972	   6.92699	0.000608258	   6.93907	0.000591543	   6.93449	0.000607258	   6.93449	   15.1814	
   6.87524	0.000622448	   6.86521	0.000608733	   6.87745	0.000591843	   6.87263	0.000607675	   6.87263	   15.1919	
   6.81285	0.000622901	   6.80323	0.000609109	   6.81557	0.000592144	   6.81055	0.000608052	   6.81055	   15.2013	
   6.75015	0.00062334	   6.74098	0.000609406	   6.75334	0.000592455	   6.74815	 0.0006084	   6.74815	     15.21	
   6.68706	0.000623774	   6.67837	0.000609651	    6.6907	0.000592794	   6.68538	0.00060874	   6.68538	   15.2185	
   6.62381	0.000624207	   6.61562	0.000609876	   6.62788	0.000593162	   6.62244	0.000609082	   6.62244	    15.227	
   6.56041	0.000624647	   6.55255	0.000610109	   6.56488	0.000593544	   6.55928	0.000609434	   6.55928	   15.2358	
   6.49668	0.000625091	   6.48919	0.000610372	   6.50153	0.000593932	    6.4958	0.000609798	    6.4958	    15.245	
   6.43285	0.000625532	   6.42575	0.00061068	   6.43806	0.000594305	   6.43222	0.000610172	   6.43222	   15.2543	
   6.36892	0.000625964	   6.36205	0.000611035	   6.37407	0.000594663	   6.36835	0.000610554	   6.36835	   15.2639	
   6.30472	0.000626377	   6.29811	0.000611434	   6.30982	0.000594997	   6.30422	0.000610936	   6.30422	   15.2734	
   6.24045	0.000626762	   6.23396	0.000611858	   6.24513	0.000595291	   6.23985	0.000611303	   6.23985	   15.2826	
   6.17575	0.000627106	   6.16941	0.000612281	   6.18005	0.000595545	   6.17507	0.000611644	   6.17507	   15.2911	
   6.11085	0.000627401	   6.10471	0.000612679	   6.11481	0.000595759	   6.11012	0.000611946	   6.11012	   15.2987	
   6.04597	0.000627643	   6.03977	0.000613024	   6.04932	0.000595945	   6.04502	0.000612204	   6.04502	   15.3051	
   5.98071	0.000627834	   5.97452	0.000613292	   5.98353	0.000596097	   5.97959	0.000612408	   5.97959	   15.3102	
   5.91532	0.00062797	   5.90919	0.000613465	   5.91765	0.000596221	   5.91405	0.000612552	   5.91405	   15.3138	
   5.84961	0.000628055	    5.8434	0.000613544	    5.8517	0.00059633	   5.84824	0.000612643	   5.84824	   15.3161	
   5.78362	0.000628101	   5.77739	0.000613537	    5.7855	0.00059643	   5.78217	0.000612689	   5.78217	   15.3172	
   5.71758	0.000628118	    5.7111	0.000613461	   5.71927	0.00059652	   5.71598	 0.0006127	   5.71598	   15.3175	
    5.6513	0.000628115	   5.64445	0.000613343	   5.65265	0.000596597	   5.64947	0.000612685	   5.64947	   15.3171	
   5.58481	0.000628106	   5.57768	0.000613208	   5.58587	0.000596663	   5.58279	0.000612659	   5.58279	   15.3165	
   5.51815	0.000628105	   5.51062	0.000613084	   5.51895	0.000596716	   5.51591	0.000612635	   5.51591	   15.3159	
   5.45114	0.000628119	   5.44331	0.000612988	   5.45172	0.000596748	   5.44872	0.000612618	   5.44872	   15.3155	
   5.38402	0.000628154	   5.37596	0.000612933	   5.38442	0.000596758	   5.38147	0.000612615	   5.38147	   15.3154	
   5.31642	0.000628209	   5.30851	0.000612923	   5.31696	0.000596742	   5.31396	0.000612624	   5.31396	   15.3156	
    5.2486	0.000628279	   5.24088	0.000612953	   5.24928	 0.0005967	   5.24625	0.000612644	   5.24625	   15.3161	
   5.18077	0.000628356	   5.17328	0.00061301	   5.18131	0.000596633	   5.17845	0.000612666	   5.17845	   15.3167	
   5.11256	0.00062843	   5.10535	0.000613079	   5.11299	0.000596538	    5.1103	0.000612682	    5.1103	   15.3171	
   5.04421	0.000628486	   5.03732	0.000613133	   5.04457	0.000596412	   5.04203	0.000612677	   5.04203	   15.3169	
   4.97557	0.000628502	   4.96901	0.000613147	   4.97606	0.000596256	   4.97355	0.000612635	   4.97355	   15.3159	
   4.90666	0.000628468	   4.90048	0.000613098	    4.9073	0.000596074	   4.90481	0.000612546	   4.90481	   15.3137	
   4.83772	0.00062837	   4.83165	0.000612966	   4.83851	0.000595872	   4.83596	0.000612403	   4.83596	   15.3101	
   4.76839	0.000628201	   4.76247	0.00061274	   4.76934	0.000595648	   4.76673	0.000612196	   4.76673	   15.3049	
   4.69891	0.000627959	   4.69319	0.000612415	   4.70003	0.000595412	   4.69737	0.000611929	   4.69737	   15.2982	
   4.62931	0.000627649	   4.62364	0.000611992	    4.6306	0.000595168	   4.62785	0.000611603	   4.62785	   15.2901	
   4.55943	0.000627278	   4.55385	0.000611484	   4.56089	0.000594903	   4.55806	0.000611222	   4.55806	   15.2805	
   4.48951	0.000626862	   4.48406	0.000610914	   4.49114	0.000594623	   4.48824	0.000610799	   4.48824	     15.27	
   4.41918	0.00062642	   4.41392	0.000610307	   4.42099	0.000594333	   4.41803	0.000610353	   4.41803	   15.2588	
   4.34869	0.000625967	   4.34365	0.000609688	   4.35049	0.000594021	   4.34761	0.000609892	   4.34761	   15.2473	
   4.27828	0.00062552	   4.27319	0.000609084	   4.27979	0.000593684	   4.27709	0.000609429	   4.27709	   15.2357	
   4.20757	0.000625092	    4.2025	0.000608525	   4.20882	0.000593323	    4.2063	0.00060898	    4.2063	   15.2245	
    4.1368	0.000624687	   4.13179	0.000608029	   4.13784	0.000592934	   4.13548	0.00060855	   4.13548	   15.2138	
   4.06561	0.000624306	   4.06101	 0.0006076	   4.06676	0.000592505	   4.06446	0.000608137	   4.06446	   15.2034	
   3.99427	0.00062394	   3.99008	0.000607226	   3.99554	0.000592034	    3.9933	0.000607733	    3.9933	   15.1933	
   3.92299	0.000623578	   3.91895	0.000606887	   3.92409	0.000591525	   3.92201	0.00060733	   3.92201	   15.1833	
   3.85161	0.000623202	   3.84775	0.000606557	   3.85258	0.000590977	   3.85065	0.000606912	   3.85065	   15.1728	
   3.77987	0.000622793	   3.77622	0.000606197	   3.78102	0.000590386	   3.77904	0.000606459	   3.77904	   15.1615	
   3.70793	0.000622335	   3.70452	0.000605772	   3.70925	0.000589766	   3.70723	0.000605958	   3.70723	   15.1489	
   3.63582	0.000621813	   3.63268	0.000605253	   3.63733	0.000589121	   3.63527	0.000605396	   3.63527	   15.1349	
   3.56358	0.000621219	   3.56093	0.00060462	   3.56548	0.000588452	   3.56333	0.000604764	   3.56333	   15.1191	
   3.49107	0.000620552	   3.48891	0.000603872	   3.49333	0.000587768	   3.49111	0.000604064	   3.49111	   15.1016	
   3.41853	0.000619815	   3.41687	0.000603017	   3.42095	0.00058708	   3.41878	0.000603304	   3.41878	   15.0826	
   3.34589	0.000619021	   3.34444	0.000602074	   3.34847	0.000586383	   3.34626	0.000602493	   3.34626	   15.0623	
    3.2731	0.000618183	   3.27188	0.000601073	   3.27583	0.000585676	    3.2736	0.000601644	    3.2736	   15.0411	
   3.20038	0.000617319	   3.19923	0.00060006	   3.20308	0.000584961	    3.2009	0.00060078	    3.2009	   15.0195	
   3.12739	0.000616446	   3.12633	0.000599072	   3.13007	0.000584223	   3.12793	0.000599914	   3.12793	   14.9978	
   3.05436	0.000615577	   3.05343	0.000598123	   3.05703	0.000583455	   3.05494	0.000599052	   3.05494	   14.9763	
   2.98123	0.000614721	   2.98046	0.00059724	    2.9842	0.000582654	   2.98197	0.000598205	   2.98197	   14.9551	
   2.90795	0.000613881	   2.90736	0.000596423	    2.9112	0.000581813	   2.90884	0.000597372	   2.90884	   14.9343	
   2.83446	0.000613051	   2.83408	0.000595651	   2.83799	0.000580925	   2.83551	0.000596542	   2.83551	   14.9136	
   2.76071	0.000612223	   2.76056	0.000594905	    2.7645	0.000579993	   2.76192	0.000595707	   2.76192	   14.8927	
   2.68696	0.000611385	   2.68704	0.000594161	   2.69099	0.000579041	   2.68833	0.000594862	   2.68833	   14.8716	
   2.61303	0.00061052	   2.61319	0.000593374	   2.61731	0.000578082	   2.61451	0.000593992	   2.61451	   14.8498	
   2.53899	0.000609611	   2.53925	0.000592508	   2.54349	0.000577119	   2.54058	0.000593079	   2.54058	    14.827	
   2.46506	0.000608644	   2.46516	0.000591551	   2.46978	0.00057615	   2.46667	0.000592115	   2.46667	   14.8029	
   2.39089	0.000607611	   2.39106	0.000590494	   2.39581	0.000575177	   2.39259	0.000591094	   2.39259	   14.7773	
   2.31672	0.000606509	     2.317	0.000589326	   2.32184	0.000574195	   2.31852	0.00059001	   2.31852	   14.7502	
   2.24259	0.000605344	   2.24281	0.000588064	   2.24789	0.000573196	   2.24443	0.000588868	   2.24443	   14.7217	
   2.16833	0.000604121	   2.16853	0.000586748	   2.17381	0.000572171	   2.17022	0.00058768	   2.17022	    14.692	
     2.094	0.000602855	    2.0944	0.000585393	   2.09944	0.000571107	   2.09594	0.000586451	   2.09594	   14.6613	
   2.01943	0.000601562	   2.02005	0.000584028	   2.02485	0.000569994	   2.02144	0.000585195	   2.02144	   14.6299	
   1.94487	0.000600258	   1.94574	0.000582685	   1.95027	0.000568831	   1.94696	0.000583925	   1.94696	   14.5981	
   1.86998	0.000598955	   1.87111	0.000581376	   1.87566	0.00056761	   1.87225	0.000582647	   1.87225	   14.5662	
   1.79502	0.000597662	   1.79641	0.00058011	   1.80095	0.000566328	   1.79746	0.000581367	   1.79746	   14.5342	
   1.71992	0.000596383	   1.72188	0.000578879	   1.72638	0.000564994	   1.72273	0.000580085	   1.72273	   14.5021	
   1.64464	0.000595116	   1.64716	0.000577677	   1.65188	0.000563625	   1.64789	0.000578806	   1.64789	   14.4701	
   1.56943	0.000593854	   1.57248	0.000576475	   1.57738	0.000562244	    1.5731	0.000577524	    1.5731	   14.4381	
   1.49423	0.000592584	   1.49751	0.00057525	   1.50283	0.00056087	   1.49819	0.000576235	   1.49819	   14.4059	
   1.41897	0.000591295	   1.42248	0.000573991	   1.42816	0.00055952	    1.4232	0.000574935	    1.4232	   14.3734	
   1.34359	0.000589968	   1.34764	0.000572672	   1.35333	0.000558211	   1.34819	0.000573617	   1.34819	   14.3404	
   1.26806	0.000588593	   1.27262	0.000571275	   1.27848	0.000556949	   1.27305	0.000572272	   1.27305	   14.3068	
   1.19261	0.000587162	   1.19767	0.000569804	   1.20364	0.000555737	   1.19797	0.000570901	   1.19797	   14.2725	
   1.11708	0.00058567	   1.12243	0.000568258	   1.12867	0.000554562	   1.12273	0.000569496	   1.12273	   14.2374	
   1.04153	0.000584119	   1.04715	0.000566647	   1.05361	0.000553407	   1.04743	0.000568058	   1.04743	   14.2014	
  0.965976	0.000582512	  0.971877	0.000564993	  0.978505	0.000552245	  0.972119	0.000566583	  0.972119	   14.1646	
  0.890282	0.000580859	  0.896456	0.00056331	  0.903202	0.000551051	  0.896647	0.000565073	  0.896647	   14.1268	
  0.814688	0.000579173	   0.82113	0.000561616	  0.827948	0.000549801	  0.821255	0.00056353	  0.821255	   14.0882	
  0.739224	0.000577463	   0.74593	0.000559924	  0.752778	0.000548473	  0.745977	0.000561954	  0.745977	   14.0488	
  0.663726	0.000575744	   0.67069	0.000558249	  0.677529	0.000547054	  0.670648	0.000560349	  0.670648	   14.0087	
  0.588426	0.000574021	  0.595452	0.000556586	  0.602248	0.000545539	  0.595375	0.000558715	  0.595375	   13.9679	
  0.513253	0.000572297	   0.52006	0.000554935	   0.52678	0.000543935	  0.520031	0.000557056	  0.520031	   13.9264	
  0.438136	0.00057057	  0.444757	0.00055329	   0.45137	0.000542257	  0.444754	0.000555372	  0.444754	   13.8843	
  0.362724	0.000568833	  0.369188	0.000551637	  0.375958	0.000540526	   0.36929	0.000553665	   0.36929	   13.8416	
   0.28727	0.000567083	  0.293605	0.000549961	  0.300484	0.000538767	  0.293786	0.000551937	  0.293786	   13.7984	
  0.212009	0.000565308	  0.218241	0.000548248	  0.225183	0.000537003	  0.218478	0.000550186	  0.218478	   13.7547	
  0.136579	0.000563499	  0.142734	0.000546483	  0.149891	0.00053526	  0.143068	0.000548414	  0.143068	   13.7103	
 0.0612263	0.000561649	 0.0673255	0.000544654	 0.0746448	0.00053355	 0.0677322	0.000546618	 0.0677322	   13.6654	
-0.0144033	0.000559748	-0.00804836	0.000542761	-0.000907093	0.00053188	-0.00778624	0.000544796	-0.00778624	   13.6199	
-0.0900566	0.000557792	-0.0834498	0.00054081	-0.0765096	0.000530248	-0.0833386	0.00054295	-0.0833386	   13.5737	
 -0.165501	0.000555777	 -0.158646	0.000538807	 -0.151928	0.000528647	 -0.158692	0.000541077	 -0.158692	   13.5269	
 -0.240905	0.000553709	 -0.234001	0.000536771	 -0.227329	0.000527057	 -0.234078	0.000539179	 -0.234078	   13.4795	
 -0.316235	0.000551601	 -0.309271	0.000534726	 -0.302678	0.000525454	 -0.309395	0.000537261	 -0.309395	   13.4315	
 -0.391458	0.000549468	 -0.384616	0.000532692	 -0.377939	0.000523811	 -0.384671	0.000535324	 -0.384671	   13.3831	
 -0.466738	0.000547322	 -0.459995	0.000530688	 -0.453275	0.000522109	 -0.460002	0.000533373	 -0.460002	   13.3343	
  -0.54184	0.000545178	 -0.535364	0.000528731	 -0.528449	0.000520331	 -0.535218	0.000531413	 -0.535218	   13.2853	
 -0.617124	0.000543048	  -0.61059	0.000526827	  -0.60382	0.000518468	 -0.610511	0.000529448	 -0.610511	   13.2362	
 -0.692345	0.000540939	 -0.685743	0.000524971	 -0.679142	0.000516522	 -0.685743	0.000527477	 -0.685743	   13.1869	
 -0.767278	0.000538845	 -0.760885	0.000523148	 -0.754475	0.000514499	 -0.760879	0.000525497	 -0.760879	   13.1374	
 -0.842294	0.00053676	 -0.836077	0.000521332	 -0.829878	0.000512416	 -0.836083	0.000523502	 -0.836083	   13.0876	
 -0.917157	0.000534672	 -0.911086	0.000519491	 -0.905115	0.000510292	 -0.911119	0.000521485	 -0.911119	   13.0371	
 -0.992227	0.000532571	 -0.985984	0.000517595	 -0.980546	0.000508153	 -0.986252	0.00051944	 -0.986252	    12.986	
  -1.06726	0.000530443	  -1.06084	0.000515618	  -1.05593	0.00050602	  -1.06134	0.000517361	  -1.06134	    12.934	
  -1.14202	0.000528271	  -1.13572	0.00051354	  -1.13103	0.00050391	  -1.13626	0.00051524	  -1.13626	    12.881	
  -1.21689	0.000526043	  -1.21067	0.000511357	  -1.20641	0.000501837	  -1.21133	0.000513079	  -1.21133	    12.827	
  -1.29163	0.000523752	  -1.28547	0.000509073	  -1.28163	0.000499801	  -1.28625	0.000510875	  -1.28625	   12.7719	
  -1.36621	0.000521403	  -1.36028	0.000506703	  -1.35686	0.000497795	  -1.36112	0.000508634	  -1.36112	   12.7158	
   -1.4408	0.000519003	  -1.43506	0.000504274	  -1.43205	0.000495807	  -1.43597	0.000506361	  -1.43597	    12.659	
  -1.51516	0.000516562	  -1.50978	0.000501819	  -1.50717	0.000493814	   -1.5107	0.000504065	   -1.5107	   12.6016	
  -1.58967	0.000514089	  -1.58431	0.00049937	  -1.58238	0.000491793	  -1.58546	0.000501751	  -1.58546	   12.5438	
  -1.66409	0.000511588	  -1.65872	0.00049696	  -1.65745	0.000489731	  -1.66009	0.000499426	  -1.66009	   12.4857	
  -1.73849	0.000509066	  -1.73339	0.000494609	  -1.73215	0.000487605	  -1.73468	0.000497094	  -1.73468	   12.4273	
  -1.81292	0.000506526	  -1.80805	0.000492329	  -1.80687	0.000485407	  -1.80928	0.000494754	  -1.80928	   12.3689	
  -1.88716	0.000503967	  -1.88267	0.000490116	  -1.88137	0.000483134	  -1.88373	0.000492406	  -1.88373	   12.3101	
  -1.96129	0.000501379	  -1.95712	0.000487954	  -1.95603	0.000480792	  -1.95814	0.000490042	  -1.95814	    12.251	
  -2.03537	0.000498758	  -2.03148	0.000485819	  -2.03059	0.000478394	  -2.03248	0.000487657	  -2.03248	   12.1914	
  -2.10918	0.000496102	  -2.10581	0.000483679	  -2.10484	0.000475954	  -2.10661	0.000485245	  -2.10661	   12.1311	
   -2.1831	0.000493408	  -2.18018	0.000481505	  -2.17915	0.000473492	  -2.18081	0.000482802	  -2.18081	     12.07	
  -2.25689	0.000490665	  -2.25465	0.000479267	  -2.25329	0.00047103	  -2.25494	0.000480321	  -2.25494	    12.008	
  -2.33071	0.000487887	  -2.32888	0.000476941	  -2.32744	0.000468579	  -2.32901	0.000477802	  -2.32901	   11.9451	
  -2.40454	0.000485085	  -2.40304	0.000474513	  -2.40155	0.000466153	  -2.40304	0.00047525	  -2.40304	   11.8813	
  -2.47814	0.000482268	  -2.47712	0.000471984	   -2.4754	0.000463755	  -2.47689	0.000472669	  -2.47689	   11.8167	
  -2.55188	0.000479456	  -2.55127	0.000469367	  -2.54907	0.000461378	  -2.55074	0.000470067	  -2.55074	   11.7517	
  -2.62554	0.000476658	  -2.62527	0.000466679	  -2.62265	0.000459014	  -2.62449	0.00046745	  -2.62449	   11.6863	
  -2.69908	0.000473887	  -2.69909	0.00046395	  -2.69611	0.000456653	  -2.69809	0.00046483	  -2.69809	   11.6208	
  -2.77238	0.000471144	   -2.7729	0.00046121	  -2.76961	0.000454277	  -2.77163	0.00046221	  -2.77163	   11.5553	
  -2.84552	0.000468423	  -2.84667	0.000458483	  -2.84293	0.000451869	  -2.84504	0.000459592	  -2.84504	   11.4898	
  -2.91859	0.000465715	  -2.92028	0.000455794	  -2.91615	0.000449417	  -2.91834	0.000456975	  -2.91834	   11.4244	
  -2.99166	0.000462997	   -2.9938	0.000453156	  -2.98914	0.00044691	  -2.99153	0.000454354	  -2.99153	   11.3589	
  -3.06449	0.000460252	    -3.067	0.00045057	   -3.0619	0.000444342	  -3.06446	0.000451721	  -3.06446	    11.293	
  -3.13708	0.000457462	  -3.14028	0.000448031	   -3.1346	0.000441713	  -3.13732	0.000449068	  -3.13732	   11.2267	
   -3.2096	0.000454608	   -3.2134	0.000445519	  -3.20721	0.000439027	  -3.21007	0.000446385	  -3.21007	   11.1596	
  -3.28205	0.00045168	  -3.28634	0.000443008	  -3.27953	0.000436291	  -3.28264	0.00044366	  -3.28264	   11.0915	
  -3.35457	0.000448677	  -3.35928	0.000440474	  -3.35164	0.000433517	  -3.35516	0.000440889	  -3.35516	   11.0222	
  -3.42695	0.000445607	  -3.43199	0.000437893	  -3.42363	0.000430717	  -3.42752	0.000438072	  -3.42752	   10.9518	
  -3.49917	0.000442481	  -3.50446	0.000435242	  -3.49548	0.000427904	   -3.4997	0.000435209	   -3.4997	   10.8802	
  -3.57112	0.000439321	  -3.57687	0.00043251	  -3.56736	0.000425088	  -3.57178	0.000432306	  -3.57178	   10.8077	
  -3.64288	0.000436153	  -3.64901	0.000429697	  -3.63905	0.000422279	  -3.64365	0.000429376	  -3.64365	   10.7344	
  -3.71483	0.000433001	  -3.72126	0.000426808	  -3.71093	0.000419481	  -3.71567	0.00042643	  -3.71567	   10.6607	
  -3.78673	0.000429889	  -3.79338	0.000423853	  -3.78276	0.000416696	  -3.78762	0.000423479	  -3.78762	    10.587	
  -3.85837	0.000426824	  -3.86516	0.000420856	  -3.85432	0.000413921	  -3.85928	0.000420534	  -3.85928	   10.5133	
  -3.92993	0.000423802	   -3.9368	0.000417839	   -3.9258	0.000411154	  -3.93084	0.000417598	  -3.93084	     10.44	
  -4.00139	0.000420811	  -4.00827	0.000414821	  -3.99718	0.00040838	  -4.00228	0.00041467	  -4.00228	   10.3668	
  -4.07254	0.000417835	  -4.07938	0.000411823	  -4.06825	0.000405596	  -4.07339	0.000411751	  -4.07339	   10.2938	
  -4.14348	0.000414848	  -4.15051	0.000408856	   -4.1391	0.000402786	  -4.14436	0.00040883	  -4.14436	   10.2207	
  -4.21429	0.000411821	  -4.22144	0.000405922	  -4.20983	0.000399935	  -4.21519	0.000405892	  -4.21519	   10.1473	
  -4.28477	0.000408732	  -4.29198	0.000403015	  -4.28023	0.00039704	  -4.28566	0.000402929	  -4.28566	   10.0732	
  -4.35531	0.000405568	  -4.36251	0.000400123	  -4.35068	0.000394104	  -4.35617	0.000399932	  -4.35617	   9.99829	
  -4.42568	0.000402324	  -4.43282	0.000397232	  -4.42097	0.000391115	  -4.42649	0.000396891	  -4.42649	   9.92226	
  -4.49569	0.000399008	  -4.50299	0.000394321	   -4.4909	0.000388087	  -4.49653	0.000393805	  -4.49653	   9.84513	
  -4.56572	0.000395635	  -4.57293	0.000391372	  -4.56065	0.000385029	  -4.56643	0.000390679	  -4.56643	   9.76697	
  -4.63556	0.000392225	  -4.64262	0.000388372	  -4.63023	0.000381953	  -4.63613	0.000387517	  -4.63613	   9.68792	
    -4.705	0.000388804	  -4.71226	0.000385308	  -4.69943	0.000378867	  -4.70556	0.000384326	  -4.70556	   9.60816	
  -4.77445	0.000385399	  -4.78183	0.00038218	  -4.76865	0.000375785	  -4.77498	0.000381121	  -4.77498	   9.52803	
  -4.84369	0.000382031	  -4.85112	0.000378992	  -4.83768	0.00037272	  -4.84416	0.000377915	  -4.84416	   9.44786	
  -4.91253	0.000378711	  -4.92023	0.000375752	  -4.90661	0.000369668	  -4.91312	0.000374711	  -4.91312	   9.36776	
  -4.98136	0.000375435	  -4.98926	0.000372475	  -4.97552	0.000366632	  -4.98204	0.000371514	  -4.98204	   9.28785	
  -5.04997	0.000372197	    -5.058	0.000369175	   -5.0442	0.000363618	  -5.05072	0.00036833	  -5.05072	   9.20826	
  -5.11846	0.000368985	  -5.12626	0.000365872	  -5.11276	0.000360611	  -5.11916	0.000365156	  -5.11916	    9.1289	
  -5.18673	0.000365779	  -5.19444	0.000362577	  -5.18128	0.000357599	  -5.18748	0.000361985	  -5.18748	   9.04962	
  -5.25478	0.000362542	  -5.26235	0.000359299	  -5.24955	0.000354572	  -5.25556	0.000358805	  -5.25556	   8.97011	
  -5.32241	0.000359253	   -5.3298	0.000356042	  -5.31757	0.000351517	  -5.32326	0.000355604	  -5.32326	    8.8901	
  -5.39003	0.000355904	   -5.3972	0.000352807	  -5.38555	0.000348421	  -5.39093	0.000352377	  -5.39093	   8.80943	
  -5.45743	0.000352493	  -5.46433	0.000349588	  -5.45328	0.000345278	  -5.45835	0.00034912	  -5.45835	     8.728	
  -5.52472	0.000349022	  -5.53131	0.000346375	  -5.52056	0.000342088	  -5.52553	0.000345828	  -5.52553	   8.64571	
  -5.59197	 0.0003455	  -5.59803	0.000343155	  -5.58781	0.000338856	   -5.5926	0.000342503	   -5.5926	   8.56259	
  -5.65899	0.000341959	  -5.66452	0.000339917	  -5.65482	0.000335587	  -5.65944	0.000339154	  -5.65944	   8.47885	
   -5.7256	0.000338414	  -5.73086	0.000336648	   -5.7217	0.000332299	  -5.72605	0.000335787	  -5.72605	   8.39468	
    -5.792	0.000334885	  -5.79716	0.00033334	  -5.78834	0.000329003	   -5.7925	0.000332409	   -5.7925	   8.31024	
  -5.85821	0.000331387	  -5.86322	0.000329986	  -5.85475	0.00032571	  -5.85873	0.000329028	  -5.85873	    8.2257	
  -5.92403	0.000327918	  -5.92905	0.000326588	  -5.92095	0.000322438	  -5.92467	0.000325648	  -5.92467	   8.14121	
  -5.98958	0.000324476	  -5.99455	0.000323151	  -5.98683	0.000319197	  -5.99032	0.000322275	  -5.99032	   8.05688	
  -6.05497	0.000321052	  -6.05985	0.000319685	  -6.05252	0.00031599	  -6.05578	0.000318909	  -6.05578	   7.97273	
  -6.12002	0.000317635	  -6.12476	0.000316199	  -6.11783	0.00031281	  -6.12087	0.000315548	  -6.12087	    7.8887	
  -6.18474	0.000314206	  -6.18969	0.000312705	  -6.18297	0.000309645	   -6.1858	0.000312185	   -6.1858	   7.80463	
  -6.24934	0.000310743	  -6.25444	0.000309215	  -6.24794	0.00030647	  -6.25057	0.000308809	  -6.25057	   7.72023	
  -6.31364	0.000307236	  -6.31901	0.000305743	  -6.31256	0.00030328	  -6.31507	0.00030542	  -6.31507	    7.6355	
  -6.37776	0.000303675	  -6.38303	0.000302297	  -6.37667	0.000300061	  -6.37915	0.000302011	  -6.37915	   7.55027	
  -6.44179	0.000300059	  -6.44692	0.000298886	  -6.44068	0.000296791	  -6.44313	0.000298579	  -6.44313	   7.46446	
  -6.50555	0.000296401	  -6.51051	0.000295515	   -6.5044	0.000293463	  -6.50682	0.000295126	  -6.50682	   7.37816	
  -6.56886	0.000292705	  -6.57361	0.000292179	  -6.56767	0.000290089	  -6.57005	0.000291658	  -6.57005	   7.29144	
  -6.63196	0.000288978	  -6.63627	0.000288861	   -6.6307	0.000286671	  -6.63298	0.00028817	  -6.63298	   7.20424	
  -6.69486	0.000285241	  -6.69871	0.000285539	  -6.69352	0.000283212	   -6.6957	0.000284664	   -6.6957	    7.1166	
  -6.75737	0.000281503	  -6.76076	0.00028219	  -6.75595	0.000279732	  -6.75803	0.000281142	  -6.75803	   7.02854	
  -6.81964	0.000277771	  -6.82227	0.000278784	  -6.81812	0.000276247	  -6.82001	0.000277601	  -6.82001	   6.94001	
  -6.88177	0.000274045	  -6.88346	0.000275295	  -6.88015	0.000272772	  -6.88179	0.000274038	  -6.88179	   6.85094	
  -6.94359	0.000270334	  -6.94408	0.000271711	  -6.94186	0.000269313	  -6.94318	0.000270452	  -6.94318	   6.76131	
  -7.00513	0.000266633	   -7.0039	0.000268022	  -7.00347	0.000265873	  -7.00416	0.000266842	  -7.00416	   6.67106	
  -7.06602	0.000262928	  -7.06318	0.000264232	   -7.0647	0.000262435	  -7.06463	0.000263198	  -7.06463	   6.57996	
   -7.1267	0.000259217	  -7.12177	0.000260362	  -7.12568	0.000258977	  -7.12472	0.000259519	  -7.12472	   6.48797	
  -7.18702	0.000255491	  -7.18014	0.000256435	  -7.18625	 0.0002555	  -7.18447	0.000255809	  -7.18447	   6.39522	
   -7.2468	0.000251747	  -7.23811	0.000252483	  -7.24625	0.000251992	  -7.24372	0.000252074	  -7.24372	   6.30184	
  -7.30649	0.000247983	  -7.29555	0.000248545	  -7.30593	0.000248438	  -7.30266	0.000248322	  -7.30266	   6.20805	
  -7.36591	0.000244197	  -7.35289	0.000244659	  -7.36532	0.000244844	  -7.36138	0.000244567	  -7.36138	   6.11417	
  -7.42491	0.00024039	  -7.41036	0.00024086	  -7.42427	0.000241213	  -7.41985	0.000240821	  -7.41985	   6.02052	
  -7.48361	0.000236559	  -7.46795	0.000237168	  -7.48292	0.000237553	  -7.47816	0.000237093	  -7.47816	   5.92734	
  -7.54216	0.000232713	  -7.52549	0.000233595	  -7.54139	0.000233885	  -7.53635	0.000233398	  -7.53635	   5.83494	
  -7.60039	0.000228854	  -7.58337	0.000230133	  -7.59953	0.000230229	  -7.59443	0.000229739	  -7.59443	   5.74347	
  -7.65814	0.000224983	   -7.6414	0.000226758	  -7.65719	0.000226606	  -7.65224	0.000226116	  -7.65224	    5.6529	
  -7.71585	0.000221108	  -7.69967	0.00022344	  -7.71479	0.000223027	  -7.71011	0.000222525	  -7.71011	   5.56313	
  -7.77336	0.000217236	  -7.75828	0.000220134	  -7.77218	0.000219497	  -7.76794	0.000218955	  -7.76794	   5.47389	
  -7.83049	0.000213363	  -7.81702	0.000216793	  -7.82919	0.00021601	  -7.82556	0.000215388	  -7.82556	   5.38471	
   -7.8871	0.000209496	  -7.87569	0.000213387	  -7.88567	0.000212536	  -7.88282	0.000211806	  -7.88282	   5.29516	
  -7.94345	0.000205634	  -7.93413	0.000209884	  -7.94189	0.000209045	  -7.93982	0.000208187	  -7.93982	   5.20469	
  -7.99958	0.000201773	  -7.99217	0.000206273	  -7.99787	0.000205519	  -7.99654	0.000204522	  -7.99654	   5.11304	
  -8.05532	0.000197917	  -8.04967	0.000202546	  -8.05347	0.000201942	  -8.05282	0.000200801	  -8.05282	   5.02003	
  -8.11054	0.000194059	  -8.10707	0.000198715	  -8.10883	0.000198277	  -8.10881	0.000197017	  -8.10881	   4.92542	
   -8.1657	0.000190198	  -8.16401	0.000194812	   -8.1639	0.000194525	  -8.16454	0.000193178	  -8.16454	   4.82946	
  -8.22061	0.000186327	  -8.22055	0.000190866	  -8.21873	0.00019071	  -8.21996	0.000189301	  -8.21996	   4.73253	
  -8.27515	0.000182447	  -8.27654	0.000186925	  -8.27317	0.000186832	  -8.27495	0.000185401	  -8.27495	   4.63503	
  -8.32945	0.000178555	  -8.33186	0.000183021	  -8.32736	0.000182918	  -8.32956	0.000181498	  -8.32956	   4.53745	
  -8.38347	0.000174651	  -8.38658	0.000179179	  -8.38146	0.000179008	  -8.38384	0.000177613	  -8.38384	   4.44032	
  -8.43725	0.000170734	  -8.44096	0.000175423	  -8.43531	0.000175139	  -8.43784	0.000173765	  -8.43784	   4.34413	
  -8.49065	0.000166804	  -8.49487	0.000171749	  -8.48875	0.000171331	  -8.49142	0.000169962	  -8.49142	   4.24904	
  -8.54354	0.00016286	  -8.54837	0.000168149	  -8.54186	0.000167603	  -8.54459	0.000166204	  -8.54459	    4.1551	
  -8.59608	0.000158906	  -8.60113	0.000164601	   -8.5943	0.000163969	  -8.59717	0.000162492	  -8.59717	   4.06229	
  -8.64824	0.000154945	  -8.65364	0.000161073	  -8.64653	0.000160402	  -8.64947	0.000158807	  -8.64947	   3.97016	
  -8.70007	0.000150981	  -8.70574	0.000157537	  -8.69843	0.000156876	  -8.70141	0.000155131	  -8.70141	   3.87828	
  -8.75164	0.000147018	  -8.75732	0.000153958	  -8.75004	0.000153369	    -8.753	0.000151448	    -8.753	    3.7862	
  -8.80262	0.000143062	  -8.80854	0.000150311	  -8.80133	0.000149842	  -8.80416	0.000147738	  -8.80416	   3.69346	
  -8.85348	0.000139112	  -8.85956	0.000146584	  -8.85245	0.000146261	  -8.85516	0.000143985	  -8.85516	   3.59964	
  -8.90406	0.000135168	  -8.91024	0.000142776	  -8.90327	 0.0001426	  -8.90585	0.000140182	  -8.90585	   3.50454	
  -8.95424	0.00013123	  -8.96064	0.000138908	  -8.95364	0.000138851	  -8.95617	0.00013633	  -8.95617	   3.40825	
  -9.00417	0.000127297	  -9.01045	0.000134996	  -9.00373	0.000135006	  -9.00612	0.000132433	  -9.00612	   3.31083	
  -9.05374	0.000123364	  -9.06012	0.00013106	  -9.05343	0.000131083	  -9.05576	0.000128502	  -9.05576	   3.21256	
  -9.10309	0.000119428	  -9.10953	0.000127117	  -9.10288	0.000127107	  -9.10517	0.000124551	  -9.10517	   3.11377	
  -9.15211	0.000115487	  -9.15854	0.000123185	  -9.15197	0.000123109	   -9.1542	0.000120594	   -9.1542	   3.01484	
  -9.20066	0.000111537	  -9.20702	0.000119279	  -9.20057	0.00011912	  -9.20275	0.000116645	  -9.20275	   2.91613	
  -9.24864	0.000107577	  -9.25517	 0.0001154	  -9.24914	0.00011518	  -9.25098	0.000112719	  -9.25098	   2.81798	
  -9.29632	0.000103605	  -9.30315	0.000111549	  -9.29736	0.00011131	  -9.29894	0.000108822	  -9.29894	   2.72054	
  -9.34378	9.96214e-05	  -9.35082	0.000107722	  -9.34528	0.00010752	  -9.34663	0.000104955	  -9.34663	   2.62386	
  -9.39088	9.56282e-05	  -9.39807	0.000103914	  -9.39279	0.000103813	  -9.39392	0.000101118	  -9.39392	   2.52796	
  -9.43752	9.1628e-05	  -9.44479	0.000100116	  -9.43977	0.000100175	   -9.4407	9.73063e-05	   -9.4407	   2.43266	
  -9.48397	8.76225e-05	  -9.49105	9.6311e-05	  -9.48632	9.65806e-05	  -9.48712	9.35047e-05	  -9.48712	   2.33762	
   -9.5303	8.36174e-05	  -9.53715	9.24869e-05	  -9.53271	9.30035e-05	  -9.53339	8.97026e-05	  -9.53339	   2.24256	
  -9.57637	7.96169e-05	  -9.58267	8.86342e-05	  -9.57881	8.94144e-05	  -9.57928	8.58885e-05	  -9.57928	   2.14721	
  -9.62206	7.56238e-05	   -9.6278	8.47466e-05	   -9.6245	8.57806e-05	  -9.62479	8.20503e-05	  -9.62479	   2.05126	
  -9.66727	7.16371e-05	  -9.67272	8.08231e-05	  -9.66968	8.20748e-05	  -9.66989	7.81783e-05	  -9.66989	   1.95446	
  -9.71188	6.76552e-05	  -9.71702	7.68607e-05	  -9.71425	7.82895e-05	  -9.71438	7.42685e-05	  -9.71438	   1.85671	
   -9.7564	6.36764e-05	  -9.76119	7.28614e-05	   -9.7584	7.44199e-05	  -9.75866	7.03192e-05	  -9.75866	   1.75798	
  -9.80069	5.96985e-05	  -9.80511	6.88103e-05	  -9.80232	7.04727e-05	  -9.80271	6.63272e-05	  -9.80271	   1.65818	
  -9.84462	5.57186e-05	  -9.84866	6.47348e-05	   -9.8459	6.64734e-05	  -9.84639	6.23089e-05	  -9.84639	   1.55772	
   -9.8881	5.1734e-05	  -9.89174	6.06569e-05	  -9.88903	6.24452e-05	  -9.88962	5.82787e-05	  -9.88962	   1.45697	
  -9.93103	4.77429e-05	  -9.93425	5.65871e-05	  -9.93161	5.84206e-05	   -9.9323	5.42502e-05	   -9.9323	   1.35626	
  -9.97351	4.37472e-05	  -9.97629	5.2553e-05	  -9.97374	5.44317e-05	  -9.97452	5.02439e-05	  -9.97452	    1.2561	
  -10.0155	3.97474e-05	  -10.0179	4.85718e-05	  -10.0154	5.05028e-05	  -10.0163	4.6274e-05	  -10.0163	   1.15685	
  -10.0573	3.57418e-05	  -10.0592	4.46663e-05	  -10.0569	4.66516e-05	  -10.0578	4.23532e-05	  -10.0578	   1.05883	
  -10.0987	3.17336e-05	  -10.1002	4.08362e-05	   -10.098	4.28804e-05	   -10.099	3.84834e-05	   -10.099	  0.962085	
  -10.1397	2.77265e-05	  -10.1407	3.70669e-05	  -10.1386	3.91818e-05	  -10.1397	3.46584e-05	  -10.1397	   0.86646	
  -10.1801	2.3725e-05	  -10.1806	3.33578e-05	  -10.1789	3.55376e-05	  -10.1799	3.08734e-05	  -10.1799	  0.771836	
  -10.2199	1.97286e-05	  -10.2202	2.96824e-05	  -10.2186	3.19203e-05	  -10.2196	2.71105e-05	  -10.2196	  0.677761	
  -10.2592	1.57423e-05	  -10.2595	2.60043e-05	  -10.2577	2.83013e-05	  -10.2588	2.33493e-05	  -10.2588	  0.583732	
  -10.2983	1.17659e-05	  -10.2985	2.22961e-05	  -10.2966	2.46515e-05	  -10.2978	1.95712e-05	  -10.2978	  0.489279	
   -10.337	7.79608e-06	   -10.337	1.8537e-05	  -10.3353	2.09436e-05	  -10.3364	1.57589e-05	  -10.3364	  0.393972	
  -10.3754	3.83214e-06	  -10.3751	1.46937e-05	  -10.3735	1.71623e-05	  -10.3747	1.1896e-05	  -10.3747	  0.297401	
  -10.4133	-1.29576e-07	  -10.4127	1.07569e-05	  -10.4112	1.33004e-05	  -10.4124	7.97592e-06	  -10.4124	  0.199398	
  -10.4506	-4.09006e-06	  -10.4497	6.72989e-06	  -10.4484	9.35584e-06	  -10.4495	3.99856e-06	  -10.4495	 0.0999639	
  -10.4876	-8.05025e-06	  -10.4862	2.62341e-06	  -10.4851	5.34327e-06	  -10.4863	-2.78577e-08	  -10.4863	-0.000696443	
  -10.5239	-1.20125e-05	  -10.5226	-1.54014e-06	  -10.5216	1.28933e-06	  -10.5227	-4.08779e-06	  -10.5227	 -0.102195	
  -10.5601	-1.59782e-05	  -10.5588	-5.71917e-06	   -10.558	-2.77285e-06	  -10.5589	-8.15675e-06	  -10.5589	 -0.203919	
  -10.5959	-1.99477e-05	  -10.5946	-9.87646e-06	   -10.594	-6.80996e-06	  -10.5948	-1.22114e-05	  -10.5948	 -0.305284	
  -10.6313	-2.39189e-05	    -10.63	-1.39801e-05	  -10.6296	-1.07895e-05	  -10.6303	-1.62295e-05	  -10.6303	 -0.405737	
  -10.6663	-2.78875e-05	  -10.6649	-1.80085e-05	  -10.6647	-1.46856e-05	  -10.6653	-2.01939e-05	  -10.6653	 -0.504847	
  -10.7007	-3.18519e-05	  -10.6993	-2.1944e-05	  -10.6992	-1.8485e-05	  -10.6997	-2.40937e-05	  -10.6997	 -0.602341	
  -10.7348	-3.58093e-05	  -10.7332	-2.57825e-05	  -10.7333	-2.21839e-05	  -10.7338	-2.79252e-05	  -10.7338	 -0.698131	
  -10.7684	-3.97568e-05	  -10.7667	-2.95438e-05	   -10.767	-2.57969e-05	  -10.7674	-3.16992e-05	  -10.7674	 -0.792479	
  -10.8017	-4.36938e-05	  -10.7999	-3.32543e-05	  -10.8005	-2.93507e-05	  -10.8007	-3.54329e-05	  -10.8007	 -0.885823	
  -10.8347	-4.76197e-05	  -10.8327	-3.69452e-05	  -10.8337	-3.28781e-05	  -10.8337	-3.91477e-05	  -10.8337	 -0.978691	
  -10.8673	-5.15351e-05	  -10.8653	-4.06546e-05	  -10.8666	-3.64147e-05	  -10.8664	-4.28681e-05	  -10.8664	   -1.0717	
  -10.8994	-5.54387e-05	  -10.8974	-4.44141e-05	  -10.8991	-3.99961e-05	  -10.8986	-4.66163e-05	  -10.8986	  -1.16541	
  -10.9311	-5.93326e-05	   -10.929	-4.82482e-05	   -10.931	-4.36465e-05	  -10.9304	-5.04091e-05	  -10.9304	  -1.26023	
  -10.9623	-6.32165e-05	  -10.9601	-5.21677e-05	  -10.9624	-4.73807e-05	  -10.9616	-5.42549e-05	  -10.9616	  -1.35637	
  -10.9929	-6.70916e-05	  -10.9906	-5.61719e-05	  -10.9932	-5.12016e-05	  -10.9922	-5.8155e-05	  -10.9922	  -1.45388	
  -11.0229	-7.09615e-05	  -11.0205	-6.02403e-05	  -11.0235	-5.50953e-05	  -11.0223	-6.2099e-05	  -11.0223	  -1.55248	
  -11.0525	-7.48309e-05	  -11.0497	-6.43491e-05	  -11.0531	-5.90238e-05	  -11.0518	-6.60679e-05	  -11.0518	   -1.6517	
  -11.0817	-7.87035e-05	  -11.0783	-6.8467e-05	  -11.0822	-6.29577e-05	  -11.0808	-7.00427e-05	  -11.0808	  -1.75107	
  -11.1105	-8.25818e-05	  -11.1068	-7.25634e-05	  -11.1108	-6.68694e-05	  -11.1094	-7.40049e-05	  -11.1094	  -1.85012	
   -11.139	-8.64691e-05	   -11.135	-7.66051e-05	  -11.1391	-7.07284e-05	  -11.1377	-7.79342e-05	  -11.1377	  -1.94836	
  -11.1672	-9.03704e-05	  -11.1629	-8.05733e-05	   -11.167	-7.45037e-05	  -11.1657	-8.18158e-05	  -11.1657	   -2.0454	
  -11.1951	-9.42873e-05	  -11.1904	-8.44599e-05	  -11.1946	-7.81871e-05	  -11.1934	-8.56448e-05	  -11.1934	  -2.14112	
  -11.2224	-9.82164e-05	  -11.2175	-8.82647e-05	  -11.2218	-8.17863e-05	  -11.2206	-8.94224e-05	  -11.2206	  -2.23556	
  -11.2493	-0.000102155	  -11.2441	-9.20036e-05	  -11.2484	-8.53114e-05	  -11.2473	-9.31566e-05	  -11.2473	  -2.32892	
  -11.2757	-0.000106097	  -11.2702	-9.56987e-05	  -11.2745	-8.8785e-05	  -11.2735	-9.68603e-05	  -11.2735	  -2.42151	
  -11.3014	-0.000110036	  -11.2957	-9.93737e-05	  -11.3001	-9.22415e-05	  -11.2991	-0.00010055	  -11.2991	  -2.51376	
  -11.3266	-0.00011396	  -11.3205	-0.000103059	   -11.325	-9.57218e-05	  -11.3241	-0.000104247	  -11.3241	  -2.60617	
  -11.3511	-0.000117861	  -11.3448	-0.00010678	  -11.3496	-9.92477e-05	  -11.3485	-0.000107963	  -11.3485	  -2.69907	
   -11.375	-0.000121731	  -11.3688	-0.000110553	  -11.3737	-0.000102834	  -11.3725	-0.000111706	  -11.3725	  -2.79265	
  -11.3985	-0.000125568	  -11.3923	-0.000114385	  -11.3974	-0.000106498	  -11.3961	-0.000115484	  -11.3961	  -2.88709	
  -11.4214	-0.00012937	  -11.4155	-0.000118272	  -11.4207	-0.000110238	  -11.4192	-0.000119293	  -11.4192	  -2.98234	
  -11.4442	-0.000133147	  -11.4385	-0.000122209	  -11.4438	-0.000114042	  -11.4422	-0.000123133	  -11.4422	  -3.07832	
  -11.4666	-0.000136907	  -11.4613	-0.000126176	  -11.4666	-0.000117878	  -11.4648	-0.000126987	  -11.4648	  -3.17468	
  -11.4886	-0.000140652	  -11.4837	-0.000130154	  -11.4888	-0.00012172	   -11.487	-0.000130842	   -11.487	  -3.27104	
  -11.5101	-0.000144393	  -11.5057	-0.000134123	  -11.5107	-0.000125537	  -11.5088	-0.000134684	  -11.5088	   -3.3671	
  -11.5313	-0.000148129	  -11.5274	-0.000138062	  -11.5321	-0.000129299	  -11.5303	-0.000138497	  -11.5303	  -3.46242	
   -11.552	-0.000151831	  -11.5486	-0.000141961	  -11.5532	-0.000132987	  -11.5513	-0.000142259	  -11.5513	  -3.55649	
  -11.5724	-0.000155522	  -11.5692	-0.000145812	  -11.5738	-0.000136584	  -11.5718	-0.000145972	  -11.5718	  -3.64931	
  -11.5924	-0.000159224	  -11.5892	-0.000149608	  -11.5939	-0.000140083	  -11.5918	-0.000149638	  -11.5918	  -3.74096	
  -11.6118	-0.000162937	  -11.6088	-0.000153345	  -11.6135	-0.000143497	  -11.6114	-0.000153259	  -11.6114	  -3.83148	
  -11.6308	-0.000166667	  -11.6279	-0.000157031	  -11.6326	-0.000146844	  -11.6305	-0.000156847	  -11.6305	  -3.92118	
  -11.6493	-0.000170413	  -11.6464	-0.000160677	  -11.6512	-0.00015015	   -11.649	-0.000160413	   -11.649	  -4.01033	
  -11.6673	-0.000174206	  -11.6644	-0.000164292	  -11.6692	-0.00015344	   -11.667	-0.000163979	   -11.667	  -4.09948	
  -11.6845	-0.000178043	  -11.6818	-0.000167895	  -11.6868	-0.000156741	  -11.6844	-0.00016756	  -11.6844	  -4.18899	
  -11.6998	-0.000181917	  -11.6986	-0.000171502	  -11.7039	-0.000160081	  -11.7008	-0.000171167	  -11.7008	  -4.27916	
  -11.7137	-0.000185836	  -11.7149	-0.00017513	  -11.7206	-0.00016348	  -11.7164	-0.000174816	  -11.7164	  -4.37039	
  -11.7277	-0.00018978	  -11.7306	-0.000178796	  -11.7367	-0.000166947	  -11.7317	-0.000178508	  -11.7317	  -4.46269	
  -11.7422	-0.000193733	  -11.7459	-0.000182504	  -11.7522	-0.000170485	  -11.7468	-0.000182241	  -11.7468	  -4.55602	
  -11.7551	-0.000197693	  -11.7607	-0.000186253	  -11.7672	-0.000174087	   -11.761	-0.000186011	   -11.761	  -4.65027	
  -11.7666	-0.000201627	  -11.7751	-0.000190038	  -11.7817	-0.000177742	  -11.7744	-0.000189802	  -11.7744	  -4.74506	
  -11.7792	-0.000205503	   -11.789	-0.000193847	  -11.7954	-0.000181429	  -11.7879	-0.000193593	  -11.7879	  -4.83983	
  -11.7931	-0.000209295	  -11.8021	-0.000197666	  -11.8086	-0.000185119	  -11.8013	-0.00019736	  -11.8013	    -4.934	
   -11.806	-0.000212998	  -11.8149	-0.000201475	  -11.8211	-0.000188789	   -11.814	-0.000201088	   -11.814	  -5.02719	
  -11.8174	-0.000216605	  -11.8271	-0.000205258	  -11.8334	-0.000192415	   -11.826	-0.000204759	   -11.826	  -5.11898	
  -11.8299	-0.000220111	   -11.839	-0.000209001	   -11.845	-0.000195976	   -11.838	-0.000208363	   -11.838	  -5.20907	
  -11.8439	-0.00022354	  -11.8503	-0.000212684	  -11.8563	-0.000199465	  -11.8502	-0.000211896	  -11.8502	  -5.29741	
  -11.8573	-0.000226916	  -11.8613	-0.000216312	   -11.867	-0.000202882	  -11.8619	-0.00021537	  -11.8619	  -5.38425	
    -11.87	-0.000230272	  -11.8718	-0.000219888	  -11.8772	-0.000206234	   -11.873	-0.000218798	   -11.873	  -5.46995	
  -11.8828	-0.00023365	  -11.8821	-0.00022342	  -11.8869	-0.000209535	  -11.8839	-0.000222202	  -11.8839	  -5.55504	
  -11.8954	-0.000237079	  -11.8919	-0.000226925	   -11.896	-0.000212804	  -11.8944	-0.000225602	  -11.8944	  -5.64006	
  -11.9069	-0.000240578	   -11.901	-0.000230417	  -11.9048	-0.000216066	  -11.9042	-0.00022902	  -11.9042	  -5.72551	
  -11.9172	-0.000244165	  -11.9096	-0.000233922	  -11.9131	-0.00021934	  -11.9133	-0.000232476	  -11.9133	  -5.81189	
  -11.9271	-0.000247846	  -11.9179	-0.000237447	  -11.9208	-0.000222645	  -11.9219	-0.000235979	  -11.9219	  -5.89949	
  -11.9369	-0.000251604	  -11.9256	-0.000240999	   -11.928	-0.000225995	  -11.9301	-0.000239533	  -11.9301	  -5.98832	
  -11.9457	-0.000255415	  -11.9327	-0.000244584	  -11.9346	-0.00022939	  -11.9377	-0.00024313	  -11.9377	  -6.07824	
  -11.9536	-0.000259249	  -11.9393	-0.000248197	  -11.9408	-0.000232824	  -11.9446	-0.000246756	  -11.9446	  -6.16891	
  -11.9609	-0.000263069	  -11.9454	-0.000251825	  -11.9465	-0.000236284	  -11.9509	-0.000250393	  -11.9509	  -6.25981	
  -11.9676	-0.000266842	   -11.951	-0.000255457	  -11.9517	-0.000239756	  -11.9568	-0.000254018	  -11.9568	  -6.35045	
  -11.9733	-0.000270547	  -11.9561	-0.000259081	  -11.9565	-0.000243225	   -11.962	-0.000257618	   -11.962	  -6.44044	
  -11.9783	-0.000274171	  -11.9607	-0.000262681	  -11.9609	-0.000246659	  -11.9666	-0.00026117	  -11.9666	  -6.52926	
  -11.9831	-0.000277705	   -11.965	-0.000266252	  -11.9649	-0.000250033	   -11.971	-0.000264663	   -11.971	  -6.61659	
   -11.988	-0.000281163	  -11.9688	-0.000269788	  -11.9686	-0.000253341	  -11.9751	-0.000268097	  -11.9751	  -6.70243	
  -11.9921	-0.000284566	  -11.9722	-0.000273293	  -11.9718	-0.000256581	  -11.9787	-0.00027148	  -11.9787	    -6.787	
  -11.9951	-0.000287934	  -11.9753	-0.00027677	  -11.9748	-0.000259741	  -11.9817	-0.000274815	  -11.9817	  -6.87037	
   -11.998	-0.000291291	   -11.978	-0.00028023	  -11.9774	-0.000262829	  -11.9845	-0.000278117	  -11.9845	  -6.95292	
  -12.0008	-0.000294664	  -11.9804	-0.00028368	  -11.9797	-0.000265879	  -11.9869	-0.000281408	  -11.9869	  -7.03519	
   -12.003	-0.000298076	  -11.9825	-0.000287126	  -11.9817	-0.000268921	   -11.989	-0.000284708	   -11.989	   -7.1177	
  -12.0043	-0.00030154	  -11.9843	-0.000290575	  -11.9834	-0.000271979	  -11.9907	-0.000288031	  -11.9907	  -7.20079	
  -12.0053	-0.000305062	  -11.9858	-0.000294024	  -11.9847	-0.000275078	  -11.9919	-0.000291388	  -11.9919	   -7.2847	
  -12.0061	-0.000308634	   -11.987	-0.000297471	  -11.9858	-0.000278241	   -11.993	-0.000294782	   -11.993	  -7.36955	
  -12.0064	-0.000312241	   -11.988	-0.000300909	  -11.9866	-0.000281475	  -11.9937	-0.000298208	  -11.9937	  -7.45521	
  -12.0059	-0.000315864	  -11.9882	-0.000304332	  -11.9871	-0.000284786	  -11.9937	-0.000301661	  -11.9937	  -7.54152	
  -12.0047	-0.000319481	  -11.9879	-0.000307734	  -11.9868	-0.000288158	  -11.9931	-0.000305124	  -11.9931	  -7.62811	
  -12.0032	-0.000323066	  -11.9872	-0.00031111	  -11.9859	-0.000291561	  -11.9921	-0.000308579	  -11.9921	  -7.71448	
  -12.0011	-0.0003266	  -11.9857	-0.000314455	  -11.9843	-0.000294959	  -11.9904	-0.000312005	  -11.9904	  -7.80012	
  -11.9984	-0.000330073	  -11.9837	-0.00031777	  -11.9821	-0.000298317	  -11.9881	-0.000315386	  -11.9881	  -7.88466	
  -11.9953	-0.000333476	  -11.9811	-0.000321058	  -11.9794	-0.000301604	  -11.9853	-0.000318713	  -11.9853	  -7.96782	
  -11.9916	-0.000336813	   -11.978	-0.000324337	  -11.9763	-0.000304793	   -11.982	-0.000321981	   -11.982	  -8.04953	
  -11.9876	-0.000340092	  -11.9744	-0.000327613	  -11.9727	-0.000307864	  -11.9782	-0.00032519	  -11.9782	  -8.12974	
  -11.9832	-0.000343328	  -11.9705	-0.000330895	  -11.9687	-0.00031082	  -11.9741	-0.000328348	  -11.9741	  -8.20869	
  -11.9784	-0.000346537	  -11.9662	-0.000334191	  -11.9644	-0.000313677	  -11.9696	-0.000331468	  -11.9696	  -8.28671	
  -11.9734	-0.00034974	  -11.9615	-0.000337501	  -11.9598	-0.000316469	  -11.9649	-0.00033457	  -11.9649	  -8.36425	
  -11.9681	-0.000352956	  -11.9566	-0.000340823	  -11.9549	-0.000319229	  -11.9598	-0.00033767	  -11.9598	  -8.44174	
  -11.9626	-0.00035619	  -11.9514	-0.000344145	  -11.9495	-0.000321989	  -11.9545	-0.000340775	  -11.9545	  -8.51937	
  -11.9569	-0.000359452	  -11.9455	-0.000347454	  -11.9437	-0.000324794	  -11.9487	-0.0003439	  -11.9487	  -8.59749	
  -11.9507	-0.000362742	  -11.9391	-0.00035074	  -11.9372	-0.000327668	  -11.9423	-0.00034705	  -11.9423	  -8.67625	
  -11.9439	-0.000366054	  -11.9322	-0.000353986	  -11.9301	-0.000330624	  -11.9354	-0.000350221	  -11.9354	  -8.75553	
  -11.9365	-0.000369378	  -11.9248	-0.000357184	  -11.9225	-0.000333661	  -11.9279	-0.000353407	  -11.9279	  -8.83518	
  -11.9286	-0.000372696	  -11.9168	-0.00036032	  -11.9144	-0.000336761	  -11.9199	-0.000356593	  -11.9199	  -8.91482	
  -11.9202	-0.000375994	  -11.9084	-0.000363391	  -11.9058	-0.0003399	  -11.9114	-0.000359761	  -11.9114	  -8.99403	
  -11.9114	-0.000379252	  -11.8994	-0.0003664	  -11.8969	-0.000343036	  -11.9025	-0.000362896	  -11.9025	  -9.07241	
  -11.9019	-0.000382462	    -11.89	-0.000369357	  -11.8876	-0.000346137	  -11.8932	-0.000365985	  -11.8932	  -9.14963	
  -11.8922	-0.000385616	  -11.8801	-0.00037228	  -11.8781	-0.000349168	  -11.8835	-0.000369021	  -11.8835	  -9.22553	
  -11.8819	-0.000388714	    -11.87	-0.000375187	   -11.868	-0.000352103	  -11.8733	-0.000372001	  -11.8733	  -9.30003	
  -11.8709	-0.000391761	  -11.8592	-0.000378096	  -11.8575	-0.000354935	  -11.8625	-0.00037493	  -11.8625	  -9.37326	
  -11.8592	-0.00039479	  -11.8479	-0.000381026	  -11.8463	-0.000357664	  -11.8512	-0.000377827	  -11.8512	  -9.44566	
  -11.8471	-0.000397784	   -11.836	-0.000383984	  -11.8346	-0.000360305	  -11.8392	-0.000380691	  -11.8392	  -9.51727	
  -11.8344	-0.000400751	  -11.8237	-0.000386982	  -11.8224	-0.000362886	  -11.8268	-0.000383539	  -11.8268	  -9.58848	
  -11.8214	-0.000403711	  -11.8109	-0.00039002	  -11.8098	-0.000365438	  -11.8141	-0.00038639	  -11.8141	  -9.65974	
  -11.8079	-0.000406686	  -11.7978	-0.000393083	  -11.7969	-0.000367998	  -11.8009	-0.000389256	  -11.8009	  -9.73139	
  -11.7935	-0.000409674	  -11.7845	-0.000396158	  -11.7837	-0.000370593	  -11.7872	-0.000392142	  -11.7872	  -9.80354	
  -11.7789	-0.000412659	  -11.7705	-0.000399232	  -11.7701	-0.000373248	  -11.7732	-0.000395046	  -11.7732	  -9.87615	
  -11.7636	-0.000415654	  -11.7559	-0.000402276	  -11.7561	-0.000375976	  -11.7585	-0.000397969	  -11.7585	  -9.94921	
  -11.7477	-0.000418648	  -11.7406	-0.000405265	  -11.7414	-0.00037877	  -11.7432	-0.000400894	  -11.7432	  -10.0224	
  -11.7314	-0.000421631	  -11.7248	-0.000408187	  -11.7262	-0.000381621	  -11.7275	-0.000403813	  -11.7275	  -10.0953	
  -11.7148	-0.000424601	  -11.7087	-0.000411035	  -11.7106	-0.000384501	  -11.7113	-0.000406713	  -11.7113	  -10.1678	
  -11.6979	-0.00042756	  -11.6921	-0.000413799	  -11.6946	-0.000387381	  -11.6949	-0.00040958	  -11.6949	  -10.2395	
  -11.6807	-0.000430485	  -11.6754	-0.000416474	   -11.678	-0.000390232	   -11.678	-0.000412397	   -11.678	  -10.3099	
  -11.6629	-0.00043337	  -11.6582	-0.000419083	   -11.661	-0.000393029	  -11.6607	-0.000415161	  -11.6607	   -10.379	
  -11.6444	-0.000436208	  -11.6404	-0.000421644	  -11.6433	-0.000395754	  -11.6427	-0.000417869	  -11.6427	  -10.4467	
  -11.6254	 -0.000439	  -11.6219	-0.000424173	   -11.625	-0.000398396	  -11.6241	-0.000420523	  -11.6241	  -10.5131	
  -11.6061	-0.000441744	   -11.603	-0.000426704	  -11.6063	-0.000400957	  -11.6051	-0.000423135	  -11.6051	  -10.5784	
  -11.5864	-0.000444431	  -11.5838	-0.000429261	  -11.5872	-0.000403446	  -11.5858	-0.000425713	  -11.5858	  -10.6428	
  -11.5665	-0.00044707	  -11.5639	-0.000431856	  -11.5678	-0.000405884	  -11.5661	-0.00042827	  -11.5661	  -10.7067	
  -11.5458	-0.000449663	  -11.5439	-0.000434498	  -11.5478	-0.000408297	  -11.5458	-0.000430819	  -11.5458	  -10.7705	
  -11.5248	-0.000452217	  -11.5232	-0.000437192	  -11.5274	-0.000410712	  -11.5251	-0.000433374	  -11.5251	  -10.8343	
  -11.5032	-0.000454738	  -11.5019	-0.000439929	  -11.5064	-0.000413153	  -11.5038	-0.00043594	  -11.5038	  -10.8985	
  -11.4812	-0.000457231	  -11.4801	-0.000442687	  -11.4849	-0.00041564	  -11.4821	-0.000438519	  -11.4821	   -10.963	
  -11.4589	-0.000459717	   -11.458	-0.00044545	   -11.463	-0.000418183	    -11.46	-0.000441117	    -11.46	  -11.0279	
  -11.4364	-0.000462202	  -11.4357	-0.000448187	  -11.4407	-0.000420781	  -11.4376	-0.000443723	  -11.4376	  -11.0931	
  -11.4135	-0.000464688	  -11.4128	-0.000450869	  -11.4176	-0.000423424	  -11.4146	-0.000446327	  -11.4146	  -11.1582	
    -11.39	-0.000467182	  -11.3896	-0.000453479	  -11.3939	-0.000426097	  -11.3911	-0.000448919	  -11.3911	   -11.223	
   -11.366	-0.000469685	  -11.3657	-0.000456003	  -11.3697	-0.000428773	  -11.3671	-0.000451487	  -11.3671	  -11.2872	
  -11.3414	-0.000472201	  -11.3415	-0.000458435	  -11.3451	-0.000431424	  -11.3427	-0.00045402	  -11.3427	  -11.3505	
  -11.3166	-0.000474719	  -11.3167	-0.000460784	  -11.3202	-0.00043402	  -11.3178	-0.000456508	  -11.3178	  -11.4127	
  -11.2916	-0.000477248	  -11.2917	-0.000463068	  -11.2951	-0.000436536	  -11.2928	-0.000458951	  -11.2928	  -11.4738	
   -11.266	-0.000479783	  -11.2661	-0.000465309	  -11.2694	-0.000438955	  -11.2672	-0.000461349	  -11.2672	  -11.5337	
  -11.2399	-0.000482301	  -11.2401	-0.000467535	  -11.2431	-0.000441271	   -11.241	-0.000463702	   -11.241	  -11.5926	
  -11.2134	-0.000484797	  -11.2136	-0.000469775	  -11.2165	-0.000443493	  -11.2145	-0.000466022	  -11.2145	  -11.6505	
  -11.1866	-0.000487266	  -11.1867	-0.000472045	  -11.1895	-0.00044564	  -11.1876	-0.000468317	  -11.1876	  -11.7079	
  -11.1592	-0.000489692	  -11.1595	-0.000474359	  -11.1619	-0.00044774	  -11.1602	-0.000470597	  -11.1602	  -11.7649	
  -11.1315	-0.000492072	  -11.1316	-0.000476724	   -11.134	-0.000449827	  -11.1323	-0.000472874	  -11.1323	  -11.8219	
  -11.1032	-0.000494403	  -11.1031	-0.000479133	  -11.1055	-0.000451936	   -11.104	-0.000475157	   -11.104	  -11.8789	
  -11.0746	-0.000496695	  -11.0743	-0.000481566	  -11.0767	-0.000454096	  -11.0752	-0.000477452	  -11.0752	  -11.9363	
  -11.0457	-0.000498942	  -11.0451	-0.000484002	  -11.0475	-0.000456332	  -11.0461	-0.000479759	  -11.0461	   -11.994	
   -11.016	-0.000501154	  -11.0158	-0.000486415	  -11.0177	-0.000458654	  -11.0165	-0.000482074	  -11.0165	  -12.0519	
  -10.9858	-0.000503342	  -10.9858	-0.000488777	  -10.9872	-0.000461059	  -10.9863	-0.000484393	  -10.9863	  -12.1098	
  -10.9551	-0.00050551	  -10.9553	-0.000491068	  -10.9562	-0.00046353	  -10.9556	-0.000486703	  -10.9556	  -12.1676	
  -10.9241	-0.000507668	  -10.9245	-0.000493278	   -10.925	-0.000466036	  -10.9245	-0.000488994	  -10.9245	  -12.2249	
  -10.8927	-0.000509825	  -10.8931	-0.000495405	  -10.8935	-0.000468544	  -10.8931	-0.000491258	  -10.8931	  -12.2814	
  -10.8607	-0.000511981	  -10.8611	-0.000497459	  -10.8613	-0.00047101	   -10.861	-0.000493483	   -10.861	  -12.3371	
  -10.8281	-0.000514137	  -10.8286	-0.000499457	  -10.8287	-0.000473399	  -10.8285	-0.000495664	  -10.8285	  -12.3916	
  -10.7952	-0.000516292	  -10.7956	-0.00050142	  -10.7956	-0.000475689	  -10.7955	-0.0004978	  -10.7955	   -12.445	
  -10.7618	-0.000518443	  -10.7624	-0.000503373	  -10.7622	-0.000477859	  -10.7621	-0.000499892	  -10.7621	  -12.4973	
  -10.7281	-0.000520584	  -10.7285	-0.00050534	  -10.7283	-0.000479908	  -10.7283	-0.000501944	  -10.7283	  -12.5486	
  -10.6938	-0.000522711	   -10.694	-0.000507343	  -10.6939	-0.000481851	  -10.6939	-0.000503968	  -10.6939	  -12.5992	
  -10.6591	-0.000524819	  -10.6591	-0.000509394	   -10.659	-0.00048371	  -10.6591	-0.000505974	  -10.6591	  -12.6494	
  -10.6242	-0.000526896	  -10.6239	-0.000511493	  -10.6239	-0.000485522	   -10.624	-0.00050797	   -10.624	  -12.6993	
  -10.5888	-0.000528943	  -10.5885	-0.000513637	  -10.5887	-0.00048732	  -10.5887	-0.000509966	  -10.5887	  -12.7492	
  -10.5529	-0.000530953	  -10.5526	-0.000515806	  -10.5528	-0.000489142	  -10.5528	-0.000511967	  -10.5528	  -12.7992	
  -10.5166	-0.000532922	  -10.5162	-0.00051798	  -10.5166	-0.000491014	  -10.5164	-0.000513972	  -10.5164	  -12.8493	
    -10.48	-0.000534852	  -10.4795	-0.000520135	    -10.48	-0.000492949	  -10.4798	-0.000515979	  -10.4798	  -12.8995	
   -10.443	-0.000536753	  -10.4424	-0.000522242	  -10.4432	-0.000494951	  -10.4429	-0.000517982	  -10.4429	  -12.9495	
  -10.4055	-0.00053863	  -10.4048	-0.000524286	  -10.4059	-0.00049701	  -10.4054	-0.000519975	  -10.4054	  -12.9994	
  -10.3676	-0.000540489	  -10.3667	-0.000526255	  -10.3681	-0.000499106	  -10.3675	-0.00052195	  -10.3675	  -13.0487	
  -10.3291	-0.000542333	  -10.3283	-0.000528145	    -10.33	-0.000501211	  -10.3291	-0.000523896	  -10.3291	  -13.0974	
  -10.2901	-0.000544169	  -10.2898	-0.000529959	  -10.2914	-0.000503294	  -10.2904	-0.000525807	  -10.2904	  -13.1452	
  -10.2506	-0.000545997	  -10.2507	-0.000531712	  -10.2521	-0.000505328	  -10.2511	-0.000527679	  -10.2511	   -13.192	
  -10.2107	-0.000547818	  -10.2111	-0.000533427	  -10.2125	-0.000507287	  -10.2115	-0.000529511	  -10.2115	  -13.2378	
  -10.1707	-0.000549632	  -10.1713	-0.000535123	  -10.1726	-0.00050916	  -10.1715	-0.000531305	  -10.1715	  -13.2826	
  -10.1302	-0.000551434	  -10.1311	-0.000536823	  -10.1324	-0.000510946	  -10.1312	-0.000533067	  -10.1312	  -13.3267	
  -10.0895	-0.000553215	  -10.0903	-0.000538548	  -10.0915	-0.000512647	  -10.0904	-0.000534803	  -10.0904	  -13.3701	
  -10.0484	-0.000554972	  -10.0491	-0.00054031	  -10.0503	-0.000514281	  -10.0493	-0.000536521	  -10.0493	   -13.413	
  -10.0071	-0.000556697	  -10.0077	-0.000542114	  -10.0089	-0.00051587	  -10.0079	-0.000538227	  -10.0079	  -13.4557	
  -9.96548	-0.000558387	  -9.96564	-0.000543956	  -9.96688	-0.000517437	    -9.966	-0.000539927	    -9.966	  -13.4982	
  -9.92337	-0.00056004	   -9.9231	-0.000545821	  -9.92436	-0.000519003	  -9.92361	-0.000541621	  -9.92361	  -13.5405	
  -9.88095	-0.000561656	  -9.88024	-0.00054769	  -9.88153	-0.000520582	  -9.88091	-0.000543309	  -9.88091	  -13.5827	
  -9.83818	-0.000563239	  -9.83704	-0.00054954	  -9.83836	-0.000522191	  -9.83786	-0.00054499	  -9.83786	  -13.6247	
  -9.79483	-0.000564794	  -9.79355	-0.000551345	  -9.79463	-0.000523828	  -9.79433	-0.000546656	  -9.79433	  -13.6664	
  -9.75108	-0.000566327	  -9.74963	-0.00055308	   -9.7505	-0.000525491	  -9.75041	-0.0005483	  -9.75041	  -13.7075	
   -9.7071	-0.000567841	  -9.70518	-0.000554737	  -9.70616	-0.000527168	  -9.70615	-0.000549915	  -9.70615	  -13.7479	
  -9.66275	-0.000569339	  -9.66065	-0.000556306	  -9.66117	-0.000528844	  -9.66152	-0.000551496	  -9.66152	  -13.7874	
   -9.6179	-0.000570829	  -9.61562	-0.000557792	  -9.61572	-0.000530504	  -9.61641	-0.000553042	  -9.61641	   -13.826	
  -9.57274	-0.000572312	  -9.57026	-0.000559208	  -9.56999	-0.000532137	    -9.571	-0.000554552	    -9.571	  -13.8638	
  -9.52705	-0.000573785	  -9.52473	-0.000560578	  -9.52394	-0.000533731	  -9.52524	-0.000556031	  -9.52524	  -13.9008	
   -9.4808	-0.000575245	  -9.47861	-0.000561927	  -9.47765	-0.000535278	  -9.47902	-0.000557483	  -9.47902	  -13.9371	
  -9.43419	-0.00057669	  -9.43209	-0.000563276	  -9.43099	-0.000536776	  -9.43242	-0.000558914	  -9.43242	  -13.9729	
  -9.38709	-0.000578118	  -9.38534	-0.00056465	  -9.38412	-0.000538228	  -9.38552	-0.000560332	  -9.38552	  -14.0083	
   -9.3398	-0.000579526	  -9.33794	-0.000566064	  -9.33683	-0.00053963	  -9.33819	-0.00056174	  -9.33819	  -14.0435	
  -9.29207	-0.00058091	  -9.29009	-0.000567524	  -9.28911	-0.000540994	  -9.29042	-0.000563143	  -9.29042	  -14.0786	
  -9.24409	-0.00058227	  -9.24197	-0.000569034	  -9.24092	-0.000542342	  -9.24233	-0.000564549	  -9.24233	  -14.1137	
  -9.19574	-0.000583604	  -9.19347	-0.00057058	  -9.19237	-0.000543671	  -9.19386	-0.000565952	  -9.19386	  -14.1488	
  -9.14691	-0.000584915	  -9.14446	-0.000572138	  -9.14335	-0.000544992	  -9.14491	-0.000567348	  -9.14491	  -14.1837	
  -9.09779	-0.0005862	  -9.09514	-0.000573686	  -9.09403	-0.00054632	  -9.09565	-0.000568735	  -9.09565	  -14.2184	
  -9.04854	-0.00058746	  -9.04569	-0.000575197	  -9.04459	-0.000547659	  -9.04627	-0.000570105	  -9.04627	  -14.2526	
  -8.99875	-0.000588698	  -8.99588	-0.000576649	  -8.99463	-0.000549003	  -8.99642	-0.00057145	  -8.99642	  -14.2863	
  -8.94862	-0.000589916	  -8.94542	-0.000578028	  -8.94433	-0.000550353	  -8.94612	-0.000572766	  -8.94612	  -14.3191	
  -8.89814	-0.000591116	  -8.89479	-0.000579326	  -8.89368	-0.00055171	  -8.89553	-0.00057405	  -8.89553	  -14.3513	
  -8.84709	-0.000592297	  -8.84387	-0.000580546	  -8.84276	-0.000553059	  -8.84458	-0.0005753	  -8.84458	  -14.3825	
  -8.79569	-0.000593458	  -8.79256	-0.000581701	  -8.79147	-0.000554388	  -8.79324	-0.000576516	  -8.79324	  -14.4129	
  -8.74412	-0.000594599	  -8.74076	-0.00058282	  -8.73999	-0.000555698	  -8.74162	-0.000577706	  -8.74162	  -14.4426	
  -8.69196	-0.000595718	  -8.68875	-0.000583924	   -8.6883	-0.000556979	  -8.68967	-0.000578874	  -8.68967	  -14.4718	
  -8.63944	-0.000596814	  -8.63634	-0.000585031	  -8.63619	-0.000558216	  -8.63732	-0.00058002	  -8.63732	  -14.5005	
  -8.58672	-0.000597887	   -8.5837	-0.00058615	  -8.58385	-0.000559407	  -8.58476	-0.000581148	  -8.58476	  -14.5287	
  -8.53362	-0.000598937	  -8.53063	-0.000587285	  -8.53127	-0.000560554	  -8.53184	-0.000582259	  -8.53184	  -14.5565	
  -8.48012	-0.000599961	  -8.47715	-0.000588433	  -8.47853	-0.000561655	   -8.4786	-0.00058335	   -8.4786	  -14.5837	
  -8.42642	-0.000600961	  -8.42343	-0.000589577	  -8.42551	-0.000562717	  -8.42512	-0.000584418	  -8.42512	  -14.6105	
   -8.3727	-0.000601939	  -8.36968	-0.000590698	  -8.37241	-0.00056375	  -8.37159	-0.000585462	  -8.37159	  -14.6366	
  -8.31855	-0.000602893	  -8.31604	-0.000591783	    -8.319	-0.000564766	  -8.31786	-0.000586481	  -8.31786	   -14.662	
  -8.26418	-0.000603827	   -8.2624	-0.000592816	  -8.26528	-0.000565772	  -8.26395	-0.000587472	  -8.26395	  -14.6868	
  -8.20937	-0.000604741	  -8.20881	-0.00059379	  -8.21125	-0.000566782	  -8.20981	-0.000588438	  -8.20981	   -14.711	
  -8.15415	-0.000605639	  -8.15468	-0.000594701	  -8.15671	-0.000567803	  -8.15518	-0.000589381	  -8.15518	  -14.7345	
   -8.0987	-0.000606522	   -8.1002	-0.000595549	  -8.10187	-0.000568833	  -8.10026	-0.000590301	  -8.10026	  -14.7575	
  -8.04293	-0.000607389	  -8.04558	-0.000596341	  -8.04664	-0.000569873	  -8.04505	-0.000591201	  -8.04505	    -14.78	
  -7.98675	-0.000608242	  -7.99069	-0.000597089	   -7.9912	-0.000570912	  -7.98955	-0.000592081	  -7.98955	   -14.802	
  -7.93036	-0.000609084	  -7.93487	-0.000597811	  -7.93546	-0.000571942	  -7.93356	-0.000592946	  -7.93356	  -14.8236	
  -7.87395	-0.000609914	  -7.87836	-0.000598522	  -7.87961	-0.00057295	  -7.87731	-0.000593795	  -7.87731	  -14.8449	
  -7.81712	-0.000610729	  -7.82177	-0.000599236	  -7.82326	-0.000573924	  -7.82071	-0.00059463	  -7.82071	  -14.8657	
  -7.75978	-0.000611526	  -7.76489	-0.000599958	  -7.76661	-0.000574854	  -7.76376	-0.000595446	  -7.76376	  -14.8862	
  -7.70243	-0.000612301	  -7.70754	-0.000600668	  -7.70986	-0.00057574	  -7.70661	-0.000596236	  -7.70661	  -14.9059	
  -7.64469	-0.00061305	  -7.64973	-0.000601371	  -7.65263	-0.000576589	  -7.64902	-0.000597003	  -7.64902	  -14.9251	
  -7.58675	-0.000613772	  -7.59169	-0.000602064	  -7.59511	-0.00057742	  -7.59119	-0.000597752	  -7.59119	  -14.9438	
  -7.52824	-0.000614467	  -7.53331	-0.000602737	  -7.53752	-0.000578243	  -7.53302	-0.000598483	  -7.53302	  -14.9621	
  -7.46937	-0.000615134	  -7.47452	-0.000603385	  -7.47945	-0.000579066	  -7.47444	-0.000599195	  -7.47444	  -14.9799	
  -7.41035	-0.000615773	  -7.41552	 -0.000604	  -7.42112	-0.000579895	  -7.41566	-0.000599889	  -7.41566	  -14.9972	
   -7.3508	-0.000616389	  -7.35651	-0.000604592	  -7.36215	-0.000580725	  -7.35649	-0.000600569	  -7.35649	  -15.0142	
  -7.29094	-0.000616984	  -7.29749	-0.000605156	  -7.30277	-0.000581548	  -7.29707	-0.000601229	  -7.29707	  -15.0307	
  -7.23098	-0.000617562	  -7.23738	-0.000605691	   -7.2432	-0.000582345	  -7.23718	-0.000601866	  -7.23718	  -15.0466	
  -7.17073	-0.000618128	  -7.17616	-0.000606209	  -7.18324	-0.000583097	  -7.17671	-0.000602478	  -7.17671	   -15.062	
  -7.11019	-0.000618685	  -7.11497	-0.000606717	  -7.12292	-0.000583787	  -7.11603	-0.000603063	  -7.11603	  -15.0766	
  -7.04939	-0.000619232	   -7.0541	-0.000607206	  -7.06245	-0.000584396	  -7.05531	-0.000603611	  -7.05531	  -15.0903	
  -6.98844	-0.000619768	  -6.99216	-0.000607673	  -7.00174	-0.000584914	  -6.99411	-0.000604118	  -6.99411	   -15.103	
  -6.92724	-0.00062029	  -6.92944	-0.000608123	  -6.94071	-0.000585336	  -6.93246	-0.000604583	  -6.93246	  -15.1146	
  -6.86601	-0.000620794	  -6.86732	-0.000608544	  -6.87928	-0.000585667	  -6.87087	-0.000605002	  -6.87087	   -15.125	
  -6.80435	-0.000621278	  -6.80597	-0.000608934	  -6.81757	-0.000585926	   -6.8093	-0.000605379	   -6.8093	  -15.1345	
  -6.74249	-0.000621738	  -6.74348	-0.000609289	   -6.7556	-0.000586141	  -6.74719	-0.000605723	  -6.74719	  -15.1431	
  -6.68025	-0.000622172	  -6.67986	-0.000609607	  -6.69319	-0.000586346	  -6.68443	-0.000606042	  -6.68443	   -15.151	
  -6.61765	-0.000622579	  -6.61681	-0.000609894	  -6.63039	-0.000586573	  -6.62162	-0.000606348	  -6.62162	  -15.1587	
  -6.55492	-0.000622957	  -6.55479	-0.000610153	  -6.56741	-0.000586848	  -6.55904	-0.000606653	  -6.55904	  -15.1663	
  -6.49187	-0.000623306	  -6.49217	-0.0006104	  -6.50445	-0.000587194	  -6.49616	-0.000606967	  -6.49616	  -15.1742	
  -6.42853	-0.000623629	  -6.42832	-0.000610644	  -6.44114	-0.000587617	  -6.43266	-0.000607297	  -6.43266	  -15.1824	
  -6.36492	-0.00062393	  -6.36478	-0.000610884	  -6.37769	-0.000588114	  -6.36913	-0.000607643	  -6.36913	  -15.1911	
  -6.30087	-0.000624211	  -6.30163	-0.000611133	  -6.31373	-0.000588667	  -6.30541	-0.000608004	  -6.30541	  -15.2001	
  -6.23662	-0.000624483	  -6.23701	-0.000611391	   -6.2495	-0.000589244	  -6.24104	-0.000608372	  -6.24104	  -15.2093	
  -6.17209	-0.00062475	  -6.17095	-0.000611653	  -6.18493	-0.00058981	  -6.17599	-0.000608738	  -6.17599	  -15.2184	
   -6.1072	-0.000625014	  -6.10559	-0.000611908	  -6.11995	-0.000590329	  -6.11091	-0.000609084	  -6.11091	  -15.2271	
  -6.04191	-0.000625272	  -6.04097	-0.000612143	  -6.05479	-0.000590764	  -6.04589	-0.000609393	  -6.04589	  -15.2348	
  -5.97633	-0.000625525	  -5.97579	-0.000612355	  -5.98929	-0.000591088	  -5.98047	-0.000609656	  -5.98047	  -15.2414	
  -5.91051	-0.000625768	  -5.90973	-0.000612526	  -5.92347	-0.000591289	  -5.91457	-0.000609861	  -5.91457	  -15.2465	
  -5.84465	-0.000625988	  -5.84391	-0.000612642	  -5.85756	-0.00059137	  -5.84871	  -0.00061	  -5.84871	    -15.25	
  -5.77859	-0.000626175	  -5.77842	-0.000612701	  -5.79139	-0.000591346	   -5.7828	-0.000610074	   -5.7828	  -15.2518	
  -5.71235	-0.000626324	  -5.71267	-0.000612704	  -5.72498	-0.000591244	  -5.71667	-0.00061009	  -5.71667	  -15.2523	
  -5.64595	-0.000626426	  -5.64631	-0.000612656	  -5.65837	-0.000591098	  -5.65021	-0.00061006	  -5.65021	  -15.2515	
  -5.57922	-0.000626474	  -5.58015	-0.000612569	   -5.5914	-0.00059094	  -5.58359	-0.000609994	  -5.58359	  -15.2499	
   -5.5124	-0.000626471	   -5.5142	-0.000612459	  -5.52429	-0.000590803	  -5.51696	-0.000609911	  -5.51696	  -15.2478	
   -5.4454	-0.000626415	  -5.44768	-0.000612339	  -5.45726	-0.000590715	  -5.45011	-0.000609823	  -5.45011	  -15.2456	
  -5.37817	-0.000626315	  -5.38026	-0.000612217	  -5.38993	-0.000590686	  -5.38279	-0.000609739	  -5.38279	  -15.2435	
  -5.31091	-0.000626183	   -5.3125	-0.000612106	  -5.32225	-0.000590721	  -5.31522	-0.00060967	  -5.31522	  -15.2418	
  -5.24327	-0.00062603	  -5.24493	-0.000612019	  -5.25416	-0.000590809	  -5.24745	-0.000609619	  -5.24745	  -15.2405	
  -5.17547	-0.000625863	  -5.17717	-0.000611946	   -5.1859	-0.000590929	  -5.17951	-0.00060958	  -5.17951	  -15.2395	
  -5.10745	-0.000625692	  -5.10885	-0.000611881	  -5.11769	-0.000591054	  -5.11133	-0.000609542	  -5.11133	  -15.2386	
  -5.03915	-0.000625525	  -5.04042	-0.000611811	  -5.04916	-0.000591149	  -5.04291	-0.000609495	  -5.04291	  -15.2374	
   -4.9708	-0.000625361	  -4.97249	-0.000611721	  -4.98054	-0.000591172	  -4.97461	-0.000609418	  -4.97461	  -15.2355	
  -4.90222	-0.000625195	  -4.90426	-0.000611592	  -4.91167	-0.000591109	  -4.90605	-0.000609299	  -4.90605	  -15.2325	
  -4.83346	-0.000625023	  -4.83548	-0.000611409	  -4.84259	-0.000590948	  -4.83718	-0.000609127	  -4.83718	  -15.2282	
  -4.76454	-0.000624837	  -4.76651	-0.000611169	  -4.77333	-0.000590694	  -4.76813	-0.0006089	  -4.76813	  -15.2225	
   -4.6953	-0.000624627	  -4.69776	-0.000610867	  -4.70373	-0.000590358	  -4.69893	-0.000608617	  -4.69893	  -15.2154	
  -4.62579	-0.000624387	  -4.62885	-0.000610508	  -4.63403	-0.000589959	  -4.62956	-0.000608285	  -4.62956	  -15.2071	
  -4.55615	-0.000624114	  -4.55943	-0.000610105	  -4.56417	-0.000589539	  -4.55991	-0.000607919	  -4.55991	   -15.198	
   -4.4863	-0.000623802	  -4.48974	-0.000609667	  -4.49407	-0.000589127	  -4.49004	-0.000607532	  -4.49004	  -15.1883	
   -4.4162	-0.000623454	  -4.42002	-0.00060921	   -4.4237	-0.000588749	  -4.41997	-0.000607138	  -4.41997	  -15.1784	
  -4.34578	-0.00062307	   -4.3502	-0.00060875	  -4.35327	-0.000588431	  -4.34975	-0.00060675	  -4.34975	  -15.1688	
  -4.27528	-0.000622655	  -4.28001	-0.000608299	  -4.28273	-0.000588177	  -4.27934	-0.000606377	  -4.27934	  -15.1594	
  -4.20465	-0.000622205	  -4.20933	-0.000607863	  -4.21229	-0.000587985	  -4.20876	-0.000606018	  -4.20876	  -15.1504	
  -4.13382	-0.000621733	  -4.13859	-0.000607444	   -4.1416	-0.000587845	    -4.138	-0.000605674	    -4.138	  -15.1419	
  -4.06273	-0.000621239	  -4.06782	-0.00060704	  -4.07059	-0.000587726	  -4.06705	-0.000605335	  -4.06705	  -15.1334	
  -3.99133	-0.000620731	  -3.99686	-0.00060664	  -3.99923	-0.000587586	  -3.99581	-0.000604986	  -3.99581	  -15.1246	
  -3.91987	-0.00062021	  -3.92575	-0.000606234	  -3.92775	-0.000587384	  -3.92446	-0.000604609	  -3.92446	  -15.1152	
  -3.84837	-0.000619668	  -3.85472	-0.000605809	  -3.85601	-0.000587089	  -3.85303	-0.000604189	  -3.85303	  -15.1047	
  -3.77667	-0.000619109	   -3.7834	-0.000605345	  -3.78404	-0.000586674	  -3.78137	-0.000603709	  -3.78137	  -15.0927	
  -3.70482	-0.00061852	  -3.71183	-0.00060483	  -3.71189	-0.000586123	  -3.70951	-0.000603158	  -3.70951	  -15.0789	
  -3.63266	-0.0006179	  -3.63988	-0.000604257	   -3.6397	-0.000585441	  -3.63741	-0.000602533	  -3.63741	  -15.0633	
  -3.56044	-0.000617249	  -3.56779	-0.000603622	  -3.56741	-0.000584639	  -3.56521	-0.000601837	  -3.56521	  -15.0459	
  -3.48799	-0.000616562	   -3.4956	-0.000602926	  -3.49505	-0.000583755	  -3.49288	-0.000601081	  -3.49288	   -15.027	
  -3.41538	-0.000615842	  -3.42316	-0.000602177	  -3.42247	-0.000582827	  -3.42034	-0.000600282	  -3.42034	  -15.0071	
  -3.34263	-0.000615091	  -3.35071	-0.000601386	  -3.34991	-0.000581899	  -3.34775	-0.000599459	  -3.34775	  -14.9865	
  -3.26959	-0.000614307	  -3.27789	-0.000600564	  -3.27729	-0.00058101	  -3.27493	-0.000598627	  -3.27493	  -14.9657	
  -3.19652	-0.000613497	  -3.20496	-0.000599725	  -3.20456	-0.000580193	  -3.20201	-0.000597805	  -3.20201	  -14.9451	
  -3.12335	-0.000612665	  -3.13214	-0.000598882	  -3.13166	-0.000579466	  -3.12905	-0.000597004	  -3.12905	  -14.9251	
  -3.05003	-0.000611815	  -3.05927	-0.000598042	  -3.05853	-0.000578829	  -3.05594	-0.000596229	  -3.05594	  -14.9057	
  -2.97649	-0.000610951	  -2.98638	-0.000597209	  -2.98543	-0.000578271	  -2.98276	-0.000595477	  -2.98276	  -14.8869	
  -2.90328	-0.000610074	   -2.9133	-0.000596387	  -2.91198	-0.000577766	  -2.90952	-0.000594742	  -2.90952	  -14.8686	
     -2.83	-0.000609188	   -2.8401	-0.000595566	  -2.83845	-0.000577276	  -2.83618	-0.00059401	  -2.83618	  -14.8503	
  -2.75661	-0.000608299	  -2.76699	-0.000594739	  -2.76478	-0.000576761	  -2.76279	-0.000593267	  -2.76279	  -14.8317	
  -2.68306	-0.000607413	  -2.69362	-0.000593895	  -2.69091	-0.000576184	   -2.6892	-0.000592497	   -2.6892	  -14.8124	
  -2.60956	-0.000606525	  -2.62024	-0.000593015	  -2.61709	-0.000575514	  -2.61563	-0.000591685	  -2.61563	  -14.7921	
  -2.53617	-0.000605619	  -2.54668	-0.000592089	  -2.54335	-0.000574727	  -2.54207	-0.000590812	  -2.54207	  -14.7703	
   -2.4627	-0.000604541	  -2.47299	-0.000591037	  -2.46952	-0.000573875	   -2.4684	-0.000589818	   -2.4684	  -14.7454	
    -2.389	-0.000603412	  -2.39942	-0.000589906	  -2.39564	-0.000572949	  -2.39468	-0.000588756	  -2.39468	  -14.7189	
  -2.31513	-0.00060224	  -2.32558	-0.000588712	  -2.32156	-0.000571957	  -2.32076	-0.000587636	  -2.32076	  -14.6909	
  -2.24131	-0.000601037	  -2.25155	-0.000587477	  -2.24751	-0.000570912	  -2.24679	-0.000586475	  -2.24679	  -14.6619	
  -2.16779	-0.00059982	  -2.17718	-0.000586236	  -2.17316	-0.000569827	  -2.17271	-0.000585294	  -2.17271	  -14.6324	
  -2.09475	-0.000598598	  -2.10271	-0.000585008	  -2.09874	-0.000568724	  -2.09873	-0.00058411	  -2.09873	  -14.6028	
   -2.0218	-0.000597382	   -2.0284	-0.000583814	   -2.0242	-0.000567621	   -2.0248	-0.000582939	   -2.0248	  -14.5735	
  -1.94878	-0.000596178	  -1.95387	-0.000582668	   -1.9495	-0.000566532	  -1.95071	-0.000581793	  -1.95071	  -14.5448	
