# User: ACHyster
# File name: C:/ACHYSTER/ACHyster SENS/SHAMS/CoFe2O4-1gl-water-32 Glycerol-Sens-07-03-2023/CoFe2O4-1gl-water-32 Glycerol- 10_100F- 12 kAm -Sens-07-03-20230002#1.txt
# Saved at: ma. mar. 7 15:58:13 2023
# Hyster Loop (3 iterations). Intensity: 12.0 kA/m; Tuned frequency: 29.5 kHz
# Units x axis: (kA/m)
# Units y axis: "Repeats y" & "Average y" (10^(-3)Am^2); "Mass avg y" (Am^2/kg)
# Magnetic mass: 4e-05 g
# Parameter      	Repeat   1	Repeat   2	Repeat   3	Average   	Sigma     
# H_C (kA/m)     	      10.5	      10.6	      10.5	      10.5	       0.0
# M_R (Am^2/kg)  	      34.8	      34.8	      34.8	      34.8	       0.0
# M_max (Am^2/kg)	      19.9	      19.6	      19.5	      19.7	       0.1
# Area (mJ/kg)   	    1640.4	    1641.9	    1634.2	    1638.8	       3.3
# SAR (W/g)      	      48.4	      48.4	      48.2	      48.3	       0.1
#Repeat 1 x	Repeat 1 y	Repeat 2 x	Repeat 2 y	Repeat 3 x	Repeat 3 y	Average x 	Average y 	Mass avg x 	Mass avg y 
  -1.72237	-0.00148411	   -1.7249	-0.00147482	  -1.71912	-0.00146962	  -1.72213	-0.00147618	  -1.72213	  -36.9046	
  -1.64706	-0.00148098	  -1.64981	-0.00147166	  -1.64445	-0.00146671	  -1.64711	-0.00147312	  -1.64711	   -36.828	
  -1.57198	-0.00147776	  -1.57485	-0.00146845	   -1.5699	-0.00146382	  -1.57224	-0.00147001	  -1.57224	  -36.7502	
  -1.49699	-0.00147439	  -1.49968	-0.00146521	  -1.49541	-0.00146083	  -1.49736	-0.00146681	  -1.49736	  -36.6702	
  -1.42191	-0.00147097	  -1.42452	-0.00146189	  -1.42097	-0.00145769	  -1.42247	-0.00146352	  -1.42247	  -36.5879	
  -1.34679	-0.00146756	  -1.34932	-0.0014585	  -1.34631	-0.00145449	  -1.34747	-0.00146018	  -1.34747	  -36.5046	
  -1.27154	-0.00146414	  -1.27416	-0.00145506	  -1.27132	-0.0014513	  -1.27234	-0.00145683	  -1.27234	  -36.4208	
   -1.1962	-0.00146064	  -1.19905	-0.0014516	  -1.19631	-0.00144808	  -1.19719	-0.00145344	  -1.19719	   -36.336	
  -1.12077	-0.00145702	  -1.12375	-0.0014481	  -1.12143	-0.00144476	  -1.12198	-0.00144996	  -1.12198	   -36.249	
  -1.04528	-0.00145334	  -1.04845	-0.00144448	  -1.04632	-0.00144132	  -1.04668	-0.00144638	  -1.04668	  -36.1595	
 -0.969831	-0.00144963	 -0.973011	-0.00144079	 -0.971296	-0.0014378	 -0.971379	-0.00144274	 -0.971379	  -36.0685	
 -0.894409	-0.00144591	 -0.897452	-0.00143707	 -0.896273	-0.00143424	 -0.896045	-0.00143908	 -0.896045	  -35.9769	
 -0.818967	-0.0014421	 -0.821964	-0.00143334	 -0.821363	-0.00143065	 -0.820764	-0.00143537	 -0.820764	  -35.8841	
 -0.743494	-0.0014382	 -0.746378	-0.00142953	 -0.746163	-0.00142701	 -0.745345	-0.00143158	 -0.745345	  -35.7894	
 -0.667794	-0.00143421	 -0.670815	-0.00142561	 -0.670631	-0.0014233	 -0.669747	-0.0014277	 -0.669747	  -35.6926	
 -0.592097	-0.00143017	 -0.595388	-0.00142165	  -0.59502	-0.00141953	 -0.594168	-0.00142378	 -0.594168	  -35.5945	
 -0.516141	-0.0014261	 -0.519839	-0.00141768	 -0.519549	-0.00141573	  -0.51851	-0.00141983	  -0.51851	  -35.4959	
 -0.440045	-0.00142202	 -0.444357	-0.00141366	  -0.44422	-0.00141188	 -0.442874	-0.00141586	 -0.442874	  -35.3964	
  -0.36383	-0.00141792	 -0.368842	-0.00140955	 -0.368778	-0.00140798	  -0.36715	-0.00141182	  -0.36715	  -35.2954	
 -0.287858	-0.00141369	  -0.29334	-0.00140536	 -0.293343	-0.00140403	 -0.291514	-0.0014077	 -0.291514	  -35.1924	
 -0.212278	-0.0014093	 -0.217967	-0.00140115	 -0.217959	-0.00140003	 -0.216068	-0.00140349	 -0.216068	  -35.0873	
  -0.13692	-0.00140486	 -0.142466	-0.00139687	 -0.142529	-0.00139597	 -0.140638	-0.00139923	 -0.140638	  -34.9808	
-0.0614133	-0.00140046	-0.0671049	-0.00139249	-0.0672343	-0.00139182	-0.0652508	-0.00139493	-0.0652508	  -34.8732	
 0.0144145	-0.00139608	0.00827262	-0.00138806	0.00824398	-0.00138764	 0.0103104	-0.0013906	 0.0103104	  -34.7649	
 0.0901952	-0.00139159	 0.0836521	-0.00138363	 0.0844361	-0.00138351	 0.0860944	-0.00138624	 0.0860944	  -34.6561	
  0.165834	-0.00138697	  0.159018	-0.00137917	  0.161112	-0.00137938	  0.161988	-0.00138184	  0.161988	   -34.546	
  0.241282	-0.00138228	  0.234519	-0.00137461	  0.237229	-0.00137511	  0.237676	-0.00137733	  0.237676	  -34.4333	
  0.316585	-0.00137759	  0.309885	-0.00136993	  0.312419	-0.00137067	  0.312963	-0.00137273	  0.312963	  -34.3182	
  0.392074	-0.00137288	  0.385373	-0.0013652	  0.387302	-0.00136618	   0.38825	-0.00136809	   0.38825	  -34.2022	
  0.467548	-0.00136811	  0.460859	-0.00136048	  0.462144	-0.00136176	  0.463517	-0.00136345	  0.463517	  -34.0863	
  0.542964	-0.00136325	  0.536227	-0.00135573	  0.537276	-0.00135737	  0.538822	-0.00135878	  0.538822	  -33.9696	
  0.618501	-0.00135828	  0.611733	-0.00135087	  0.612724	-0.00135285	  0.614319	 -0.001354	  0.614319	  -33.8499	
   0.69396	-0.00135323	  0.687106	-0.00134591	  0.688256	-0.00134817	  0.689774	-0.0013491	  0.689774	  -33.7276	
  0.769503	-0.00134819	  0.762586	-0.00134093	  0.763632	-0.00134347	   0.76524	-0.0013442	   0.76524	  -33.6049	
  0.845029	-0.00134318	  0.838068	-0.00133596	  0.838724	-0.00133884	  0.840607	-0.00133932	  0.840607	  -33.4831	
   0.92036	-0.0013381	  0.913616	-0.00133094	  0.913832	-0.00133418	  0.915936	-0.00133441	  0.915936	  -33.3602	
  0.995824	-0.00133288	  0.989293	-0.00132584	  0.989102	-0.00132938	  0.991406	-0.00132937	  0.991406	  -33.2342	
   1.07122	-0.00132756	   1.06483	-0.00132064	   1.06426	-0.00132446	   1.06677	-0.00132422	   1.06677	  -33.1055	
   1.14655	-0.0013222	   1.14022	-0.00131538	   1.13939	-0.00131955	   1.14205	-0.00131904	   1.14205	  -32.9761	
   1.22189	-0.00131687	   1.21562	-0.00131011	   1.21441	-0.00131463	   1.21731	-0.00131387	   1.21731	  -32.8469	
   1.29705	-0.00131153	   1.29077	-0.00130484	   1.28922	-0.00130962	   1.29235	-0.00130866	   1.29235	  -32.7166	
   1.37229	-0.00130607	   1.36595	-0.00129952	   1.36415	-0.0013045	   1.36746	-0.00130336	   1.36746	  -32.5841	
   1.44742	-0.00130047	   1.44103	-0.00129412	   1.43901	-0.00129933	   1.44249	-0.00129797	   1.44249	  -32.4494	
   1.52255	-0.00129485	   1.51598	-0.00128865	   1.51384	-0.00129413	   1.51746	-0.00129254	   1.51746	  -32.3136	
    1.5977	-0.00128927	   1.59099	-0.00128315	   1.58874	-0.00128883	   1.59248	-0.00128708	   1.59248	  -32.1771	
   1.67263	-0.00128362	   1.66586	-0.00127763	   1.66346	-0.00128344	   1.66732	-0.00128156	   1.66732	  -32.0391	
   1.74757	-0.00127782	   1.74077	-0.00127205	   1.73807	-0.00127801	   1.74214	-0.00127596	   1.74214	   -31.899	
   1.82244	-0.00127193	   1.81562	-0.00126639	   1.81265	-0.00127256	    1.8169	-0.00127029	    1.8169	  -31.7574	
   1.89722	-0.00126608	   1.89032	-0.00126069	   1.88703	-0.00126704	   1.89152	-0.0012646	   1.89152	  -31.6151	
   1.97207	-0.00126022	   1.96504	-0.00125496	   1.96147	-0.00126142	   1.96619	-0.00125887	   1.96619	  -31.4717	
   2.04681	-0.00125424	   2.03959	-0.00124916	   2.03578	-0.00125572	   2.04073	-0.00125304	   2.04073	   -31.326	
   2.12163	-0.00124812	   2.11396	-0.00124326	   2.10994	-0.00124999	   2.11517	-0.00124712	   2.11517	   -31.178	
    2.1963	-0.00124197	   2.18832	-0.0012373	   2.18412	-0.00124422	   2.18958	-0.00124116	   2.18958	  -31.0291	
   2.27075	-0.00123586	   2.26251	-0.00123136	   2.25815	-0.00123838	    2.2638	-0.0012352	    2.2638	  -30.8799	
   2.34516	-0.00122973	   2.33676	-0.00122537	    2.3322	-0.00123244	   2.33804	-0.00122918	   2.33804	  -30.7295	
   2.41942	-0.00122347	   2.41092	-0.00121928	   2.40618	-0.00122644	   2.41217	-0.00122307	   2.41217	  -30.5767	
   2.49355	-0.00121709	   2.48513	-0.0012131	   2.47992	-0.00122041	    2.4862	-0.00121686	    2.4862	  -30.4216	
   2.56771	-0.00121067	   2.55929	-0.00120694	   2.55367	-0.00121433	   2.56022	-0.00121065	   2.56022	  -30.2662	
   2.64164	-0.00120429	   2.63382	-0.00120085	   2.62726	-0.00120818	   2.63424	-0.00120444	   2.63424	   -30.111	
   2.71559	-0.00119787	   2.70875	-0.00119473	    2.7007	-0.00120194	   2.70835	-0.00119818	   2.70835	  -29.9545	
   2.78947	-0.00119133	   2.78325	-0.00118844	   2.77416	-0.00119564	   2.78229	-0.00119181	   2.78229	  -29.7952	
    2.8632	-0.00118472	   2.85691	-0.00118202	   2.84737	-0.00118932	   2.85583	-0.00118535	   2.85583	  -29.6338	
   2.93679	-0.00117813	   2.93017	-0.00117559	   2.92055	-0.00118295	   2.92917	-0.00117889	   2.92917	  -29.4722	
   3.01024	-0.00117155	   3.00331	-0.0011692	   2.99365	-0.00117649	    3.0024	-0.00117241	    3.0024	  -29.3103	
   3.08351	-0.00116487	   3.07661	-0.00116279	   3.06665	-0.00116994	   3.07559	-0.00116587	   3.07559	  -29.1467	
    3.1568	-0.00115805	   3.14995	-0.00115625	   3.13966	-0.00116335	    3.1488	-0.00115922	    3.1488	  -28.9805	
   3.22986	-0.00115119	   3.22327	-0.00114962	   3.21251	-0.00115673	   3.22188	-0.00115252	   3.22188	  -28.8129	
    3.3027	-0.00114437	   3.29637	-0.00114298	   3.28521	-0.00115005	   3.29476	-0.0011458	   3.29476	   -28.645	
    3.3755	-0.00113752	    3.3692	-0.00113635	   3.35792	-0.00114327	   3.36754	-0.00113905	   3.36754	  -28.4762	
     3.448	-0.00113056	   3.44174	-0.00112965	    3.4304	-0.00113643	   3.44005	-0.00113222	   3.44005	  -28.3054	
   3.52049	-0.00112351	   3.51443	-0.00112284	    3.5027	-0.00112957	   3.51254	-0.00112531	   3.51254	  -28.1326	
   3.59287	-0.00111643	     3.587	-0.00111597	   3.57496	-0.00112268	   3.58494	-0.00111836	   3.58494	   -27.959	
   3.66496	-0.00110937	   3.65928	-0.00110909	   3.64693	-0.00111573	   3.65706	-0.00111139	   3.65706	  -27.7849	
   3.73705	-0.00110224	   3.73147	-0.00110218	   3.71878	-0.00110867	    3.7291	-0.00110437	    3.7291	  -27.6091	
   3.80896	 -0.001095	   3.80348	-0.00109519	   3.79054	-0.00110156	   3.80099	-0.00109725	   3.80099	  -27.4313	
    3.8807	-0.00108769	   3.87525	-0.00108811	   3.86211	-0.00109445	   3.87269	-0.00109009	   3.87269	  -27.2521	
   3.95229	-0.00108038	   3.94704	-0.00108098	   3.93368	-0.00108732	   3.94433	-0.0010829	   3.94433	  -27.0724	
   4.02366	-0.00107305	   4.01859	-0.00107384	   4.00508	-0.00108012	   4.01577	-0.00107567	   4.01577	  -26.8918	
   4.09474	-0.00106565	   4.08993	-0.00106664	   4.07624	-0.00107282	   4.08697	-0.00106837	   4.08697	  -26.7093	
   4.16572	-0.00105816	   4.16123	-0.00105937	   4.14728	-0.0010655	   4.15808	-0.00106101	   4.15808	  -26.5252	
   4.23653	-0.00105063	   4.23226	-0.00105201	   4.21811	-0.00105819	   4.22897	-0.00105361	   4.22897	  -26.3402	
   4.30722	-0.00104309	   4.30308	-0.00104462	   4.28873	-0.00105082	   4.29968	-0.00104618	   4.29968	  -26.1544	
   4.37784	-0.00103552	   4.37375	-0.00103721	   4.35934	-0.00104335	   4.37031	-0.00103869	   4.37031	  -25.9673	
   4.44829	-0.00102786	   4.44411	-0.00102973	    4.4297	-0.00103582	    4.4407	-0.00103114	    4.4407	  -25.7785	
   4.51846	-0.00102014	   4.51436	-0.00102218	   4.49975	-0.00102828	   4.51086	-0.00102353	   4.51086	  -25.5883	
   4.58853	-0.0010124	   4.58443	-0.00101456	   4.56977	-0.0010207	   4.58091	-0.00101589	   4.58091	  -25.3972	
   4.65826	-0.00100464	   4.65417	-0.00100693	   4.63951	-0.00101305	   4.65065	-0.0010082	   4.65065	  -25.2051	
   4.72788	-0.000996836	    4.7238	-0.00099927	   4.70911	-0.00100531	   4.72027	-0.00100047	   4.72027	  -25.0118	
   4.79738	-0.000988949	   4.79332	-0.000991546	   4.77865	-0.000997538	   4.78978	-0.000992678	   4.78978	  -24.8169	
   4.86659	-0.000980972	   4.86248	-0.000983751	   4.84789	-0.000989735	   4.85899	-0.00098482	   4.85899	  -24.6205	
   4.93532	-0.000972955	   4.93157	-0.000975917	   4.91693	-0.000981883	   4.92794	-0.000976918	   4.92794	   -24.423	
   5.00394	-0.00096497	   5.00052	-0.000968065	   4.98582	-0.000973952	   4.99676	-0.000968996	   4.99676	  -24.2249	
   5.07238	-0.000957001	   5.06927	-0.00096019	   5.05448	-0.000965962	   5.06537	-0.000961051	   5.06537	  -24.0263	
   5.14069	-0.000948914	   5.13787	-0.000952285	   5.12297	-0.000957957	   5.13384	-0.000953052	   5.13384	  -23.8263	
   5.20878	-0.000940669	   5.20631	-0.000944343	   5.19136	-0.000949936	   5.20215	-0.000944983	   5.20215	  -23.6246	
   5.27669	-0.000932381	   5.27437	-0.000936339	   5.25951	-0.000941845	   5.27019	-0.000936855	   5.27019	  -23.4214	
   5.34453	-0.00092417	   5.34222	-0.000928261	   5.32749	-0.00093367	   5.33808	-0.000928701	   5.33808	  -23.2175	
   5.41223	-0.000915958	   5.40991	-0.000920142	   5.39519	-0.000925464	   5.40578	-0.000920521	   5.40578	   -23.013	
    5.4797	-0.000907583	   5.47724	-0.000912015	   5.46257	-0.000917265	   5.47317	-0.000912288	   5.47317	  -22.8072	
   5.54684	-0.000899066	   5.54448	-0.00090386	   5.52976	-0.000909064	   5.54036	-0.000903997	   5.54036	  -22.5999	
   5.61392	-0.000890581	   5.61158	-0.000895646	   5.59678	-0.000900776	   5.60743	-0.000895668	   5.60743	  -22.3917	
   5.68104	-0.000882161	   5.67833	-0.000887382	   5.66317	-0.000892369	   5.67418	-0.000887304	   5.67418	  -22.1826	
     5.748	-0.000873669	   5.74494	-0.000879097	   5.72909	-0.000883938	   5.74068	-0.000878901	   5.74068	  -21.9725	
   5.81465	-0.000865019	   5.81143	-0.000870781	   5.79514	-0.000875555	   5.80707	-0.000870452	   5.80707	  -21.7613	
   5.88114	-0.000856312	   5.87757	-0.000862418	   5.86095	-0.000867159	   5.87322	-0.000861963	   5.87322	  -21.5491	
   5.94739	-0.000847675	    5.9434	-0.000854022	   5.92645	-0.000858652	   5.93908	-0.000853449	   5.93908	  -21.3362	
   6.01342	-0.000839096	   6.00915	-0.0008456	   5.99166	-0.000850077	   6.00474	-0.000844924	   6.00474	  -21.1231	
   6.07912	-0.00083044	   6.07458	-0.000837145	   6.05681	-0.000841565	   6.07017	-0.000836383	   6.07017	  -20.9096	
   6.14463	-0.000821642	   6.13971	-0.000828662	   6.12168	-0.000833098	   6.13534	-0.0008278	   6.13534	   -20.695	
   6.21004	-0.000812811	   6.20471	-0.000820157	   6.18649	-0.000824537	   6.20041	-0.000819169	   6.20041	  -20.4792	
   6.27514	-0.000804079	   6.26942	-0.000811625	   6.25095	-0.000815862	   6.26517	-0.000810522	   6.26517	  -20.2631	
   6.33988	-0.000795395	   6.33375	-0.000803044	   6.31552	-0.000807181	   6.32972	-0.000801873	   6.32972	  -20.0468	
   6.40456	-0.000786603	   6.39806	-0.000794413	   6.37953	-0.000798565	   6.39405	-0.000793194	   6.39405	  -19.8298	
   6.46897	-0.000777679	   6.46214	-0.000785741	   6.44308	-0.00078993	   6.45806	-0.00078445	   6.45806	  -19.6112	
   6.53291	-0.000768769	     6.526	-0.000777055	    6.5063	-0.000781178	   6.52174	-0.000775668	   6.52174	  -19.3917	
   6.59675	-0.000759976	   6.58964	-0.000768365	   6.56949	-0.000772339	    6.5853	-0.000766893	    6.5853	  -19.1723	
   6.66039	-0.000751172	   6.65309	-0.000759645	   6.63261	-0.000763491	    6.6487	-0.000758103	    6.6487	  -18.9526	
    6.7236	-0.000742223	   6.71616	-0.000750866	   6.69551	-0.000754668	   6.71176	-0.000749252	   6.71176	  -18.7313	
   6.78662	-0.000733196	    6.7789	-0.000742026	   6.75816	-0.00074583	   6.77456	-0.000740351	   6.77456	  -18.5088	
    6.8495	-0.000724243	   6.84146	-0.000733141	    6.8205	-0.000736921	   6.83715	-0.000731435	   6.83715	  -18.2859	
   6.91202	-0.000715356	   6.90371	-0.000724228	   6.88253	-0.000727925	   6.89942	-0.000722503	   6.89942	  -18.0626	
   6.97414	-0.000706397	    6.9656	-0.000715292	   6.94415	-0.000718878	    6.9613	-0.000713522	    6.9613	  -17.8381	
   7.03611	-0.000697308	    7.0273	-0.000706341	   7.00568	-0.00070981	   7.02303	-0.000704486	   7.02303	  -17.6122	
   7.09782	-0.000688198	   7.08878	-0.000697365	   7.06707	-0.000700709	   7.08455	-0.000695424	   7.08455	  -17.3856	
   7.15906	-0.00067916	   7.14991	-0.00068833	   7.12812	-0.000691551	    7.1457	-0.000686347	    7.1457	  -17.1587	
   7.21981	-0.000670139	   7.21066	-0.00067924	   7.18879	-0.000682353	   7.20642	-0.000677244	   7.20642	  -16.9311	
   7.28042	-0.000661011	    7.2712	-0.000670135	   7.24942	-0.000673142	   7.26701	-0.000668096	   7.26701	  -16.7024	
   7.34067	-0.000651782	   7.33142	-0.000661034	   7.30979	-0.000663904	    7.3273	-0.000658907	    7.3273	  -16.4727	
   7.40049	-0.000642565	   7.39114	-0.000651903	   7.36973	-0.00065461	   7.38712	-0.000649693	   7.38712	  -16.2423	
   7.46004	-0.000633404	   7.45078	-0.000642705	   7.42942	-0.000645265	   7.44675	-0.000640458	   7.44675	  -16.0114	
   7.51937	-0.000624203	    7.5102	-0.000633458	   7.48896	-0.000635896	   7.50618	-0.000631185	   7.50618	  -15.7796	
   7.57829	-0.000614881	   7.56923	-0.000624208	   7.54818	-0.000626512	   7.56523	-0.000621867	   7.56523	  -15.5467	
   7.63663	-0.000605504	   7.62778	-0.000614942	   7.60704	-0.000617095	   7.62382	-0.000612513	   7.62382	  -15.3128	
   7.69481	-0.000596173	   7.68625	-0.000605617	   7.66558	-0.00060763	   7.68222	-0.00060314	   7.68222	  -15.0785	
   7.75273	-0.000586855	   7.74444	-0.000596234	   7.72392	-0.000598122	   7.74036	-0.000593737	   7.74036	  -14.8434	
   7.81021	-0.000577456	   7.80219	-0.000586827	   7.78186	-0.000588584	   7.79809	-0.000584289	   7.79809	  -14.6072	
   7.86743	-0.000567967	   7.85962	-0.00057741	   7.83932	-0.000579003	   7.85546	-0.000574793	   7.85546	  -14.3698	
   7.92445	-0.000558458	   7.91683	-0.000567984	   7.89639	-0.000569387	   7.91255	-0.000565276	   7.91255	  -14.1319	
   7.98115	-0.000548986	   7.97373	-0.000558486	   7.95323	-0.00055977	   7.96937	-0.000555747	   7.96937	  -13.8937	
   8.03737	-0.000539528	   8.02991	-0.000548889	   8.00966	-0.000550137	   8.02564	-0.000546185	   8.02564	  -13.6546	
   8.09317	-0.000530003	   8.08561	-0.000539272	    8.0656	-0.000540449	   8.08146	-0.000536575	   8.08146	  -13.4144	
   8.14875	-0.000520365	   8.14145	-0.000529691	    8.1213	-0.000530688	   8.13717	-0.000526915	   8.13717	  -13.1729	
   8.20402	-0.000510668	   8.19704	-0.000520053	   8.17677	-0.0005209	   8.19261	-0.000517207	   8.19261	  -12.9302	
   8.25889	-0.000500997	    8.2523	-0.00051031	   8.23183	-0.000511129	   8.24767	-0.000507479	   8.24767	   -12.687	
   8.31349	-0.00049135	   8.30741	-0.000500568	   8.28639	-0.000501346	   8.30243	-0.000497755	   8.30243	  -12.4439	
   8.36794	-0.000481633	   8.36226	-0.000490911	   8.34065	-0.000491491	   8.35695	-0.000488012	   8.35695	  -12.2003	
   8.42207	-0.000471805	   8.41648	-0.00048123	   8.39469	-0.000481575	   8.41108	-0.000478203	   8.41108	  -11.9551	
   8.47572	-0.00046194	   8.47046	-0.000471398	   8.44833	-0.000471655	   8.46484	-0.000468331	   8.46484	  -11.7083	
   8.52903	-0.00045211	    8.5243	-0.000461488	   8.50165	-0.000461749	   8.51833	-0.000458449	   8.51833	  -11.4612	
   8.58213	-0.000442273	   8.57822	-0.000451661	   8.55468	-0.000451818	   8.57168	-0.000448584	   8.57168	  -11.2146	
   8.63493	-0.00043235	   8.63163	-0.000441921	   8.60751	-0.000441815	   8.62469	-0.000438695	   8.62469	  -10.9674	
   8.68729	-0.000422347	   8.68446	-0.000432121	   8.65996	-0.000431769	   8.67724	-0.000428746	   8.67724	  -10.7186	
   8.73926	-0.000412347	   8.73679	-0.0004222	   8.71204	-0.000421718	   8.72937	-0.000418755	   8.72937	  -10.4689	
   8.79114	-0.000402378	   8.78884	-0.000412245	   8.76386	-0.000411637	   8.78128	-0.000408753	   8.78128	  -10.2188	
   8.84276	-0.0003924	   8.84037	-0.000402354	    8.8155	-0.00040153	   8.83288	-0.000398761	   8.83288	  -9.96902	
   8.89396	-0.000382348	   8.89163	-0.000392487	   8.86681	-0.000391418	   8.88413	-0.000388751	   8.88413	  -9.71878	
   8.94468	-0.000372214	   8.94273	-0.000382543	   8.91763	-0.000381302	   8.93501	-0.000378687	   8.93501	  -9.46717	
   8.99528	-0.000362062	   8.99339	-0.000372513	   8.96804	-0.000371138	   8.98557	-0.000368571	   8.98557	  -9.21428	
   9.04568	-0.000351947	   9.04367	-0.000362496	   9.01818	-0.000360899	   9.03584	-0.000358447	   9.03584	  -8.96118	
   9.09571	-0.000341851	   9.09359	-0.00035255	   9.06806	-0.000350624	   9.08579	-0.000348342	   9.08579	  -8.70854	
   9.14523	-0.000331707	   9.14301	-0.000342623	   9.11754	-0.000340381	   9.13526	-0.000338237	   9.13526	  -8.45592	
   9.19434	-0.0003215	   9.19195	-0.000332593	   9.16654	-0.000330156	   9.18428	-0.000328083	   9.18428	  -8.20207	
   9.24324	-0.000311283	   9.24054	-0.000322462	   9.21503	-0.000319871	   9.23294	-0.000317872	   9.23294	   -7.9468	
   9.29188	-0.000301085	   9.28882	-0.000312348	   9.26337	-0.000309514	   9.28135	-0.000307649	   9.28135	  -7.69122	
    9.3401	-0.000290858	   9.33671	-0.000302313	   9.31141	-0.000299147	    9.3294	-0.000297439	    9.3294	  -7.43598	
   9.38778	-0.00028056	   9.38423	-0.000292298	     9.359	-0.000288813	     9.377	-0.000287223	     9.377	  -7.18058	
   9.43495	-0.000270238	   9.43143	-0.000282208	   9.40603	-0.000278461	   9.42414	-0.000276969	   9.42414	  -6.92422	
   9.48199	-0.000259956	   9.47827	-0.000272054	   9.45274	-0.000268049	     9.471	-0.000266686	     9.471	  -6.66716	
   9.52875	-0.000249685	   9.52477	-0.000261915	    9.4992	-0.000257624	   9.51758	-0.000256408	   9.51758	   -6.4102	
   9.57509	-0.000239355	   9.57088	-0.000251827	   9.54528	-0.000247235	   9.56375	-0.000246139	   9.56375	  -6.15348	
   9.62096	-0.000228973	   9.61646	-0.000241729	   9.59093	-0.000236851	   9.60945	-0.000235851	   9.60945	  -5.89627	
   9.66639	-0.000218608	   9.66148	-0.00023154	   9.63602	-0.000226405	   9.65463	-0.000225518	   9.65463	  -5.63794	
   9.71152	-0.000208278	   9.70617	-0.000221295	   9.68054	-0.000215909	   9.69941	-0.000215161	   9.69941	  -5.37901	
   9.75638	-0.000197921	   9.75055	-0.000211102	   9.72472	-0.000205453	   9.74388	-0.000204825	   9.74388	  -5.12063	
   9.80084	-0.000187503	    9.7946	-0.000200963	   9.76857	-0.000195074	     9.788	-0.000194513	     9.788	  -4.86283	
   9.84479	-0.00017707	   9.83817	-0.000190774	   9.81206	-0.00018469	   9.83167	-0.000184178	   9.83167	  -4.60445	
   9.88811	-0.000166672	   9.88123	-0.000180492	   9.85507	-0.000174228	    9.8748	-0.000173797	    9.8748	  -4.34493	
   9.93119	-0.000156278	   9.92393	-0.000170211	   9.89756	-0.000163739	   9.91756	-0.000163409	   9.91756	  -4.08523	
   9.97408	-0.000145812	    9.9664	-0.000160006	   9.93971	-0.000153327	   9.96006	-0.000153049	   9.96006	  -3.82621	
   10.0166	-0.000135297	   10.0086	-0.000149829	   9.98162	-0.00014298	   10.0023	-0.000142702	   10.0023	  -3.56755	
   10.0587	-0.000124829	   10.0504	-0.000139577	   10.0232	-0.000132596	   10.0441	-0.000132334	   10.0441	  -3.30834	
   10.1003	-0.000114427	   10.0917	-0.000129262	   10.0645	-0.000122142	   10.0855	-0.000121944	   10.0855	  -3.04859	
   10.1412	-0.000103997	   10.1324	-0.000118981	   10.1052	-0.000111713	   10.1263	-0.000111564	   10.1263	   -2.7891	
   10.1817	-9.34608e-05	   10.1728	-0.000108758	   10.1454	-0.000101385	   10.1667	-0.000101201	   10.1667	  -2.53004	
    10.222	-8.28875e-05	    10.213	-9.85233e-05	   10.1852	-9.11017e-05	   10.2067	-9.08375e-05	   10.2067	  -2.27094	
   10.2619	-7.24016e-05	   10.2529	-8.82222e-05	   10.2246	-8.07684e-05	   10.2465	-8.04641e-05	   10.2465	   -2.0116	
   10.3015	-6.2001e-05	   10.2923	-7.78954e-05	   10.2638	-7.03923e-05	   10.2858	-7.00962e-05	   10.2858	  -1.75241	
   10.3404	-5.15497e-05	   10.3312	-6.76124e-05	   10.3026	-6.00589e-05	   10.3248	-5.97403e-05	   10.3248	  -1.49351	
    10.379	-4.09738e-05	   10.3696	-5.73645e-05	   10.3409	-4.98059e-05	   10.3632	-4.93814e-05	   10.3632	  -1.23454	
   10.4171	-3.03746e-05	   10.4077	-4.70809e-05	   10.3786	-3.95667e-05	   10.4012	-3.90074e-05	   10.4012	 -0.975185	
    10.455	-1.98838e-05	   10.4456	-3.67404e-05	   10.4159	-2.92813e-05	   10.4388	-2.86352e-05	   10.4388	 -0.715879	
   10.4925	-9.47475e-06	   10.4832	-2.63896e-05	   10.4528	-1.89803e-05	   10.4762	-1.82816e-05	   10.4762	 -0.457039	
   10.5297	9.91024e-07	   10.5204	-1.60719e-05	   10.4895	-8.73286e-06	   10.5132	-7.93792e-06	   10.5132	 -0.198448	
   10.5665	1.15541e-05	   10.5573	-5.76865e-06	   10.5259	1.45849e-06	   10.5499	2.41465e-06	   10.5499	 0.0603663	
   10.6026	2.21021e-05	   10.5935	4.56153e-06	   10.5619	1.16621e-05	    10.586	1.27753e-05	    10.586	  0.319382	
   10.6383	3.25465e-05	   10.6293	1.49221e-05	   10.5974	2.19165e-05	   10.6217	2.31284e-05	   10.6217	   0.57821	
   10.6732	4.29502e-05	   10.6647	2.52828e-05	   10.6324	3.21672e-05	   10.6568	3.34667e-05	   10.6568	  0.836668	
    10.708	5.34174e-05	   10.6996	3.56159e-05	    10.667	4.23566e-05	   10.6916	4.37966e-05	   10.6916	   1.09491	
   10.7426	6.39351e-05	   10.7342	4.59251e-05	   10.7013	5.25135e-05	    10.726	5.41246e-05	    10.726	   1.35311	
   10.7768	7.43984e-05	   10.7684	5.62508e-05	   10.7354	6.26788e-05	   10.7602	6.44427e-05	   10.7602	   1.61107	
   10.8106	8.47741e-05	   10.8022	6.66096e-05	   10.7692	7.28808e-05	    10.794	7.47548e-05	    10.794	   1.86887	
   10.8439	9.51475e-05	   10.8356	7.69536e-05	   10.8026	8.31066e-05	   10.8274	8.50692e-05	   10.8274	   2.12673	
   10.8766	0.000105587	   10.8683	8.72458e-05	   10.8356	9.32961e-05	   10.8602	9.53764e-05	   10.8602	   2.38441	
   10.9087	0.000116046	   10.9005	9.75203e-05	    10.868	0.00010343	   10.8924	0.000105666	   10.8924	   2.64164	
   10.9403	0.000126435	    10.932	0.000107841	      10.9	0.000113549	   10.9241	0.000115942	   10.9241	   2.89854	
   10.9716	0.000136761	   10.9631	0.000118186	   10.9314	0.000123698	   10.9553	0.000126215	   10.9553	   3.15537	
   11.0023	0.000147112	   10.9937	0.000128475	   10.9623	0.000133865	   10.9861	0.000136484	   10.9861	    3.4121	
   11.0328	0.000157521	   11.0239	0.000138666	   10.9929	0.000144013	   11.0165	0.000146733	   11.0165	   3.66833	
   11.0629	0.000167915	   11.0538	0.000148843	   11.0231	0.000154137	   11.0466	0.000156965	   11.0466	   3.92412	
   11.0926	0.000178226	   11.0834	0.000159135	   11.0531	0.000164269	   11.0764	0.00016721	   11.0764	   4.18025	
   11.1218	0.000188495	   11.1125	0.000169544	   11.0827	0.000174388	   11.1057	0.000177476	   11.1057	   4.43689	
   11.1505	0.000198799	   11.1411	 0.0001799	   11.1118	0.00018447	   11.1345	0.000187723	   11.1345	   4.69308	
   11.1786	0.00020913	   11.1691	0.000190071	   11.1404	0.00019452	   11.1627	0.000197907	   11.1627	   4.94767	
   11.2063	0.000219413	   11.1966	0.000200154	   11.1685	0.000204579	   11.1905	0.000208049	   11.1905	   5.20122	
   11.2337	0.000229608	   11.2235	0.000210318	    11.196	0.00021467	   11.2177	0.000218199	   11.2177	   5.45497	
   11.2606	0.000239766	   11.2499	0.000220633	   11.2229	0.000224746	   11.2445	0.000228382	   11.2445	   5.70954	
   11.2872	0.000249988	   11.2761	0.000230989	   11.2496	0.000234772	    11.271	0.000238583	    11.271	   5.96457	
   11.3135	0.000260272	    11.302	0.000241227	   11.2758	0.000244776	   11.2971	0.000248758	   11.2971	   6.21895	
   11.3395	0.000270487	   11.3276	0.000251334	   11.3017	0.000254814	   11.3229	0.000258878	   11.3229	   6.47196	
   11.3652	0.000280559	   11.3528	0.000261441	   11.3273	0.00026487	   11.3484	0.000268957	   11.3484	   6.72392	
   11.3904	0.000290592	   11.3777	0.000271637	   11.3526	0.000274883	   11.3736	0.000279038	   11.3736	   6.97594	
   11.4151	0.000300701	   11.4021	0.000281853	   11.3775	0.000284845	   11.3982	0.000289133	   11.3982	   7.22833	
   11.4393	0.000310846	   11.4261	0.000291974	   11.4019	0.000294828	   11.4224	0.000299216	   11.4224	    7.4804	
   11.4629	0.000320895	   11.4495	0.000302007	   11.4259	0.000304869	   11.4461	0.000309257	   11.4461	   7.73143	
    11.486	0.000330834	   11.4725	0.000312093	   11.4494	0.000314892	   11.4693	0.000319273	   11.4693	   7.98182	
   11.5084	0.000340778	   11.4948	0.00032227	   11.4723	0.000324838	   11.4918	0.000329295	   11.4918	   8.23238	
   11.5301	0.000350783	   11.5165	0.000332418	   11.4946	0.000334757	   11.5138	0.000339319	   11.5138	   8.48298	
   11.5512	0.000360767	   11.5377	0.000342444	   11.5164	0.000344711	   11.5351	0.000349307	   11.5351	   8.73268	
   11.5716	0.000370652	   11.5584	0.000352435	   11.5375	0.000354682	   11.5558	0.000359256	   11.5558	   8.98141	
   11.5915	0.000380476	   11.5787	0.000362496	   11.5581	0.000364603	   11.5761	0.000369191	   11.5761	   9.22979	
    11.611	0.000390324	   11.5984	0.000372602	    11.578	0.000374461	   11.5958	0.000379129	   11.5958	   9.47822	
     11.63	 0.0004002	   11.6179	0.000382664	   11.5972	0.000384329	    11.615	0.000389064	    11.615	    9.7266	
   11.6486	0.000410027	    11.637	0.000392649	    11.616	0.000394229	   11.6338	0.000398968	   11.6338	   9.97421	
   11.6669	0.000419775	   11.6558	0.000402598	   11.6345	 0.0004041	   11.6524	0.000408824	   11.6524	   10.2206	
   11.6848	0.000429489	   11.6744	0.000412551	   11.6524	0.000413888	   11.6705	0.000418643	   11.6705	   10.4661	
   11.7025	0.000439207	   11.6925	0.000422489	     11.67	0.000423646	   11.6883	0.000428447	   11.6883	   10.7112	
   11.7199	0.000448908	   11.7104	0.000432414	   11.6872	0.00043344	   11.7058	0.000438254	   11.7058	   10.9563	
   11.7369	0.000458562	   11.7278	0.000442336	   11.7043	0.000443243	    11.723	0.000448047	    11.723	   11.2012	
   11.7537	0.00046818	   11.7449	0.000452256	    11.721	0.000452978	   11.7399	0.000457805	   11.7399	   11.4451	
     11.77	0.000477778	   11.7616	0.000462139	   11.7373	0.00046265	   11.7563	0.000467522	   11.7563	   11.6881	
    11.786	0.000487358	   11.7779	0.000471949	   11.7532	0.000472331	   11.7724	0.000477212	   11.7724	   11.9303	
   11.8015	0.000496914	   11.7937	0.000481711	   11.7688	0.000482029	    11.788	0.000486885	    11.788	   12.1721	
   11.8166	0.000506436	   11.8092	0.000491477	   11.7838	0.000491688	   11.8032	0.000496534	   11.8032	   12.4133	
   11.8313	0.000515916	   11.8241	0.000501257	   11.7984	0.000501282	   11.8179	0.000506152	   11.8179	   12.6538	
   11.8454	0.000525366	   11.8386	0.000511003	   11.8126	0.000510841	   11.8322	0.000515737	   11.8322	   12.8934	
   11.8591	0.000534809	   11.8525	0.000520688	   11.8263	0.000520409	    11.846	0.000525302	    11.846	   13.1326	
   11.8723	0.000544256	    11.866	0.000530354	   11.8396	0.000529972	   11.8593	0.000534861	   11.8593	   13.3715	
    11.885	0.000553683	    11.879	0.000540044	   11.8525	0.000539479	   11.8722	0.000544402	   11.8722	     13.61	
   11.8973	0.000563054	   11.8915	0.000549716	   11.8651	0.000548921	   11.8846	0.000553897	   11.8846	   13.8474	
    11.909	0.000572384	   11.9034	0.00055932	   11.8772	0.000558356	   11.8965	0.000563353	   11.8965	   14.0838	
   11.9202	0.000581721	   11.9149	0.000568871	   11.8888	0.00056782	    11.908	0.000572804	    11.908	   14.3201	
   11.9309	0.000591083	   11.9258	0.000578418	   11.9001	0.000577257	    11.919	0.000582253	    11.919	   14.5563	
   11.9412	0.000600431	   11.9363	0.000587972	   11.9109	0.000586603	   11.9295	0.000591669	   11.9295	   14.7917	
    11.951	0.000609745	   11.9463	0.000597494	   11.9212	0.000595871	   11.9395	0.000601036	   11.9395	   15.0259	
   11.9602	0.000619028	   11.9558	0.000606953	   11.9311	0.000605148	    11.949	0.000610377	    11.949	   15.2594	
   11.9691	0.000628269	   11.9648	0.000616364	   11.9405	0.000614468	   11.9581	0.000619701	   11.9581	   15.4925	
   11.9774	0.000637433	   11.9733	0.000625765	   11.9493	0.000623781	   11.9667	0.000628993	   11.9667	   15.7248	
   11.9853	0.000646556	   11.9814	0.00063516	   11.9578	0.000633018	   11.9748	0.000638245	   11.9748	   15.9561	
   11.9928	0.000655752	    11.989	0.000644519	   11.9658	0.000642175	   11.9825	0.000647482	   11.9825	    16.187	
   11.9998	0.000665011	   11.9962	0.000653821	   11.9734	0.000651322	   11.9898	0.000656718	   11.9898	   16.4179	
   12.0065	0.00067418	   12.0028	0.000663086	   11.9805	 0.0006605	   11.9966	0.000665922	   11.9966	   16.6481	
   12.0126	0.000683188	   12.0091	0.000672346	   11.9872	0.000669662	    12.003	0.000675065	    12.003	   16.8766	
   12.0183	0.000692166	    12.015	0.000681582	   11.9933	0.00067875	   12.0089	0.000684166	   12.0089	   17.1041	
   12.0237	0.000701246	   12.0205	0.000690756	   11.9989	0.000687782	   12.0144	0.000693261	   12.0144	   17.3315	
   12.0286	0.000710364	   12.0255	0.000699872	   12.0039	0.000696817	   12.0194	0.000702351	   12.0194	   17.5588	
   12.0332	0.000719376	     12.03	0.000708968	   12.0084	0.000705859	   12.0239	0.000711401	   12.0239	    17.785	
   12.0374	0.00072828	    12.034	0.000718057	   12.0124	0.000714848	   12.0279	0.000720395	   12.0279	   18.0099	
    12.041	0.000737201	   12.0374	0.000727109	   12.0158	0.000723777	   12.0314	0.000729362	   12.0314	   18.2341	
    12.044	0.000746192	   12.0404	0.000736096	   12.0185	0.000732707	   12.0343	0.000738332	   12.0343	   18.4583	
   12.0465	0.000755159	   12.0428	0.000745032	   12.0206	0.000741646	   12.0367	0.000747279	   12.0367	    18.682	
   12.0484	0.000764014	   12.0446	0.000753947	   12.0221	0.000750525	   12.0384	0.000756162	   12.0384	   18.9041	
   12.0495	0.000772804	   12.0457	0.000762841	   12.0229	0.000759306	   12.0394	0.000764984	   12.0394	   19.1246	
     12.05	0.000781626	   12.0461	0.00077169	    12.023	0.000768047	   12.0397	0.000773788	   12.0397	   19.3447	
   12.0498	0.000790482	   12.0459	0.000780483	   12.0226	0.00077682	   12.0394	0.000782595	   12.0394	   19.5649	
   12.0489	0.000799277	   12.0451	0.000789238	   12.0216	0.000785597	   12.0385	0.000791371	   12.0385	   19.7843	
   12.0475	0.000807972	   12.0436	0.000797973	   12.0202	0.000794286	   12.0371	0.000800077	   12.0371	   20.0019	
   12.0455	0.000816633	   12.0417	0.000806674	   12.0182	0.000802883	   12.0351	0.00080873	   12.0351	   20.2183	
   12.0431	0.000825325	   12.0393	0.000815321	   12.0159	0.000811472	   12.0327	0.000817373	   12.0327	   20.4343	
   12.0402	0.000834009	   12.0364	0.000823923	   12.0133	0.000820094	   12.0299	0.000826009	   12.0299	   20.6502	
   12.0369	0.000842608	   12.0332	0.000832497	   12.0102	0.000828694	   12.0268	 0.0008346	   12.0268	    20.865	
   12.0333	0.000851137	   12.0296	0.000841044	   12.0067	0.000837208	   12.0232	0.00084313	   12.0232	   21.0782	
   12.0292	0.000859664	   12.0256	0.00084952	   12.0029	0.000845658	   12.0192	0.000851614	   12.0192	   21.2903	
   12.0248	0.000868204	   12.0213	0.000857931	   11.9985	0.000854095	   12.0149	0.000860077	   12.0149	   21.5019	
   12.0199	0.000876698	   12.0165	0.000866332	   11.9935	0.00086252	     12.01	0.000868517	     12.01	   21.7129	
   12.0143	0.000885103	   12.0112	0.000874741	   11.9879	0.000870902	   12.0045	0.000876915	   12.0045	   21.9229	
   12.0082	0.000893457	   12.0052	0.000883124	   11.9817	0.000879225	   11.9984	0.000885269	   11.9984	   22.1317	
   12.0015	0.000901815	   11.9986	0.000891412	   11.9748	0.000887503	   11.9916	0.000893577	   11.9916	   22.3394	
   11.9942	0.00091017	   11.9914	0.000899608	   11.9675	0.000895785	   11.9844	0.000901854	   11.9844	   22.5464	
   11.9864	0.000918468	   11.9836	0.000907827	   11.9598	0.000904051	   11.9766	0.000910115	   11.9766	   22.7529	
   11.9782	0.000926674	   11.9754	0.000916107	   11.9517	0.000912217	   11.9684	0.000918333	   11.9684	   22.9583	
   11.9696	0.000934812	   11.9669	0.000924293	   11.9432	0.000920269	   11.9599	0.000926458	   11.9599	   23.1615	
   11.9606	0.000942938	    11.958	0.000932284	   11.9343	0.000928309	    11.951	0.000934511	    11.951	   23.3628	
   11.9513	0.000951063	   11.9488	0.000940185	   11.9249	0.000936406	   11.9417	0.000942551	   11.9417	   23.5638	
   11.9417	0.000959118	   11.9391	0.000948159	   11.9151	0.000944481	    11.932	0.000950586	    11.932	   23.7647	
   11.9317	0.000967068	   11.9286	0.000956227	   11.9046	0.00095242	   11.9216	0.000958571	   11.9216	   23.9643	
   11.9211	0.000974964	   11.9175	0.000964211	   11.8936	0.00096025	   11.9107	0.000966475	   11.9107	   24.1619	
   11.9099	0.000982866	    11.906	0.000971951	   11.8821	0.000968098	   11.8993	0.000974305	   11.8993	   24.3576	
   11.8983	0.000990745	   11.8943	0.000979545	   11.8702	0.000975981	   11.8876	0.00098209	   11.8876	   24.5523	
   11.8861	0.000998525	   11.8823	0.000987221	   11.8579	0.000983801	   11.8754	0.000989849	   11.8754	   24.7462	
   11.8735	 0.0010062	   11.8698	0.000995021	   11.8452	0.000991501	   11.8629	0.000997575	   11.8629	   24.9394	
   11.8607	0.00101386	    11.857	0.00100273	   11.8322	0.000999142	   11.8499	0.00100525	   11.8499	   25.1311	
   11.8476	0.00102154	   11.8439	 0.0010102	   11.8186	0.00100681	   11.8367	0.00101285	   11.8367	   25.3212	
   11.8341	0.00102918	   11.8303	0.00101758	   11.8047	0.00101447	    11.823	0.00102041	    11.823	   25.5103	
     11.82	0.00103672	   11.8164	0.00102509	   11.7901	0.00102204	   11.8089	0.00102795	   11.8089	   25.6988	
   11.8053	0.00104418	    11.802	0.00103267	   11.7751	 0.0010295	   11.7941	0.00103545	   11.7941	   25.8863	
   11.7901	0.00105163	   11.7869	0.00104007	   11.7596	0.00103693	   11.7789	0.00104288	   11.7789	    26.072	
   11.7745	0.00105908	   11.7714	0.00104728	   11.7438	0.00104437	   11.7632	0.00105025	   11.7632	   26.2562	
   11.7584	0.00106647	   11.7555	 0.0010545	   11.7277	0.00105179	   11.7472	0.00105759	   11.7472	   26.4396	
    11.742	0.00107376	   11.7393	0.00106181	   11.7111	 0.0010591	   11.7308	0.00106489	   11.7308	   26.6222	
   11.7253	  0.001081	   11.7225	 0.0010691	    11.694	0.00106632	   11.7139	0.00107214	   11.7139	   26.8034	
    11.708	0.00108823	   11.7052	0.00107622	   11.6763	0.00107352	   11.6965	0.00107933	   11.6965	   26.9831	
   11.6901	0.00109545	   11.6873	0.00108321	   11.6581	0.00108068	   11.6785	0.00108645	   11.6785	   27.1611	
   11.6716	0.00110258	   11.6689	0.00109019	   11.6394	0.00108778	     11.66	0.00109352	     11.66	   27.3379	
   11.6527	0.00110963	     11.65	0.00109723	   11.6204	0.00109486	    11.641	0.00110058	    11.641	   27.5144	
   11.6335	0.00111665	   11.6308	0.00110424	    11.601	0.00110195	   11.6218	0.00110761	   11.6218	   27.6903	
    11.614	0.00112367	   11.6113	 0.0011111	   11.5813	0.00110895	   11.6022	0.00111458	   11.6022	   27.8644	
    11.594	0.00113065	   11.5912	0.00111788	    11.561	0.00111582	    11.582	0.00112145	    11.582	   28.0362	
   11.5734	0.00113752	   11.5706	0.00112465	   11.5401	0.00112262	   11.5614	0.00112826	   11.5614	   28.2066	
   11.5523	0.00114431	   11.5495	0.00113142	   11.5187	0.00112947	   11.5402	0.00113507	   11.5402	   28.3766	
   11.5308	0.00115109	   11.5279	 0.0011381	   11.4971	0.00113629	   11.5186	0.00114183	   11.5186	   28.5457	
   11.5089	0.00115785	   11.5059	0.00114468	   11.4751	  0.001143	   11.4966	0.00114851	   11.4966	   28.7128	
   11.4866	0.00116453	   11.4836	0.00115124	   11.4527	 0.0011496	   11.4743	0.00115512	   11.4743	   28.8781	
   11.4638	0.00117113	   11.4609	0.00115781	   11.4298	0.00115619	   11.4515	0.00116171	   11.4515	   29.0427	
   11.4404	0.00117768	   11.4377	0.00116435	   11.4063	0.00116281	   11.4281	0.00116828	   11.4281	   29.2069	
   11.4165	0.00118422	   11.4138	0.00117078	   11.3824	0.00116937	   11.4042	0.00117479	   11.4042	   29.3697	
   11.3922	0.00119068	   11.3896	0.00117713	   11.3582	0.00117579	     11.38	 0.0011812	     11.38	     29.53	
   11.3675	0.00119704	    11.365	0.00118344	   11.3336	0.00118212	   11.3554	0.00118753	   11.3554	   29.6883	
   11.3424	0.00120335	   11.3401	0.00118974	   11.3085	0.00118845	   11.3303	0.00119385	   11.3303	   29.8461	
   11.3168	0.00120967	   11.3145	0.00119602	    11.283	0.00119479	   11.3048	0.00120016	   11.3048	   30.0041	
   11.2906	0.00121597	   11.2884	0.00120226	   11.2569	0.00120104	   11.2786	0.00120643	   11.2786	   30.1607	
    11.264	0.00122214	   11.2619	0.00120844	   11.2306	0.00120716	   11.2521	0.00121258	   11.2521	   30.3145	
   11.2371	0.00122817	    11.235	0.00121457	   11.2038	0.00121319	   11.2253	0.00121864	   11.2253	   30.4661	
   11.2099	0.00123418	   11.2079	0.00122066	   11.1765	0.00121924	   11.1981	0.00122469	   11.1981	   30.6173	
   11.1821	0.00124025	     11.18	0.00122672	   11.1487	0.00122528	   11.1703	0.00123075	   11.1703	   30.7687	
   11.1538	0.00124629	   11.1516	0.00123272	   11.1204	0.00123123	   11.1419	0.00123674	   11.1419	   30.9186	
    11.125	0.00125219	   11.1227	0.00123867	   11.0918	0.00123706	   11.1132	0.00124264	   11.1132	   31.0659	
   11.0958	0.00125796	   11.0935	0.00124458	   11.0629	0.00124284	    11.084	0.00124846	    11.084	   31.2115	
   11.0664	0.00126371	   11.0639	0.00125045	   11.0334	0.00124864	   11.0545	0.00125427	   11.0545	   31.3567	
   11.0364	0.00126947	   11.0337	0.00125627	   11.0034	0.00125443	   11.0245	0.00126006	   11.0245	   31.5014	
    11.006	0.00127515	    11.003	0.00126202	   10.9729	0.00126011	    10.994	0.00126576	    10.994	   31.6441	
   10.9751	 0.0012807	    10.972	0.00126773	   10.9421	0.00126568	   10.9631	0.00127137	   10.9631	   31.7842	
   10.9441	0.00128617	   10.9406	 0.0012734	   10.9111	0.00127122	   10.9319	0.00127693	   10.9319	   31.9232	
   10.9126	0.00129163	   10.9087	0.00127901	   10.8797	 0.0012768	   10.9003	0.00128248	   10.9003	    32.062	
   10.8805	0.00129708	   10.8762	0.00128455	   10.8478	0.00128234	   10.8682	0.00128799	   10.8682	   32.1997	
    10.848	0.00130244	   10.8433	0.00129004	   10.8154	0.00128774	   10.8356	0.00129341	   10.8356	   32.3352	
   10.8151	0.00130767	   10.8101	0.00129547	   10.7828	0.00129305	   10.8027	0.00129873	   10.8027	   32.4682	
   10.7818	0.00131282	   10.7765	0.00130085	   10.7498	0.00129839	   10.7694	0.00130402	   10.7694	   32.6005	
    10.748	0.00131797	   10.7422	0.00130622	   10.7162	0.00130376	   10.7355	0.00130932	   10.7355	   32.7329	
   10.7136	0.00132313	   10.7075	0.00131155	   10.6821	0.00130904	   10.7011	0.00131457	   10.7011	   32.8643	
   10.6788	0.00132818	   10.6725	0.00131679	   10.6478	0.00131417	   10.6664	0.00131971	   10.6664	   32.9928	
   10.6439	0.00133308	   10.6373	0.00132194	    10.613	0.00131925	   10.6314	0.00132475	   10.6314	   33.1189	
   10.6084	0.00133791	   10.6017	0.00132704	   10.5776	0.00132437	   10.5959	0.00132977	   10.5959	   33.2443	
   10.5724	0.00134276	   10.5655	0.00133214	   10.5417	0.00132947	   10.5599	0.00133479	   10.5599	   33.3698	
   10.5359	0.00134763	    10.529	0.00133721	   10.5056	0.00133446	   10.5235	0.00133977	   10.5235	   33.4942	
   10.4993	0.00135241	   10.4922	0.00134219	   10.4691	0.00133933	   10.4869	0.00134464	   10.4869	   33.6161	
   10.4623	 0.0013571	   10.4549	 0.0013471	   10.4321	0.00134419	   10.4498	0.00134946	   10.4498	   33.7365	
   10.4248	0.00136172	   10.4172	0.00135196	   10.3946	0.00134908	   10.4122	0.00135425	   10.4122	   33.8563	
   10.3875	0.00136626	    10.379	 0.0013568	   10.3568	0.00135393	   10.3744	  0.001359	   10.3744	   33.9749	
   10.3503	0.00137074	   10.3406	0.00136159	   10.3186	0.00135864	   10.3365	0.00136366	   10.3365	   34.0914	
   10.3123	0.00137519	   10.3018	0.00136632	     10.28	0.00136327	    10.298	0.00136826	    10.298	   34.2066	
   10.2731	0.00137965	   10.2624	0.00137099	   10.2409	0.00136791	   10.2588	0.00137285	   10.2588	   34.3213	
   10.2331	0.00138407	   10.2227	 0.0013756	   10.2015	0.00137257	   10.2191	0.00137741	   10.2191	   34.4353	
   10.1929	 0.0013884	   10.1827	0.00138016	   10.1618	0.00137714	   10.1791	 0.0013819	   10.1791	   34.5475	
   10.1523	0.00139267	   10.1423	0.00138469	   10.1216	0.00138158	   10.1388	0.00138631	   10.1388	   34.6579	
   10.1117	0.00139695	   10.1015	0.00138918	   10.0809	0.00138596	    10.098	 0.0013907	    10.098	   34.7674	
   10.0706	0.00140119	   10.0603	0.00139359	   10.0399	0.00139038	    10.057	0.00139505	    10.057	   34.8763	
   10.0292	0.00140532	   10.0188	0.00139791	   9.99869	0.00139479	   10.0156	0.00139934	   10.0156	   34.9836	
    9.9872	0.00140936	   9.97689	0.00140221	   9.95705	0.00139908	   9.97371	0.00140355	   9.97371	   35.0888	
   9.94492	0.00141338	   9.93446	0.00140653	   9.91506	0.00140324	   9.93148	0.00140772	   9.93148	   35.1929	
   9.90223	0.00141742	   9.89153	0.00141079	   9.87274	0.00140739	   9.88884	0.00141187	   9.88884	   35.2967	
   9.85941	0.00142142	   9.84842	0.00141495	    9.8301	0.00141157	   9.84598	0.00141598	   9.84598	   35.3995	
   9.81594	0.00142531	   9.80513	0.00141902	   9.78698	0.00141567	   9.80269	   0.00142	   9.80269	      35.5	
   9.77205	0.00142911	    9.7615	0.00142313	   9.74349	0.00141962	   9.75901	0.00142396	   9.75901	   35.5989	
   9.72791	 0.0014329	   9.71721	0.00142724	   9.69972	 0.0014235	   9.71495	0.00142788	   9.71495	    35.697	
   9.68347	0.00143669	   9.67246	0.00143124	   9.65557	0.00142739	    9.6705	0.00143178	    9.6705	   35.7944	
   9.63857	0.00144043	   9.62737	0.00143507	   9.61093	0.00143127	   9.62562	0.00143559	   9.62562	   35.8899	
   9.59332	0.00144405	   9.58205	0.00143888	     9.566	0.00143504	   9.58045	0.00143932	   9.58045	    35.983	
   9.54773	0.00144755	   9.53642	0.00144274	    9.5208	0.00143867	   9.53498	0.00144299	   9.53498	   36.0747	
   9.50158	0.00145105	   9.49041	0.00144658	   9.47501	0.00144227	     9.489	0.00144663	     9.489	   36.1658	
     9.455	0.00145457	   9.44415	0.00145024	   9.42893	0.00144588	   9.44269	0.00145023	   9.44269	   36.2557	
   9.40818	0.00145806	   9.39744	0.00145377	   9.38265	0.00144945	   9.39609	0.00145376	   9.39609	    36.344	
   9.36091	0.00146143	    9.3502	0.00145734	   9.33586	 0.0014529	   9.34899	0.00145722	   9.34899	   36.4306	
   9.31313	0.00146471	   9.30263	0.00146098	    9.2881	0.00145625	   9.30129	0.00146065	   9.30129	   36.5162	
   9.26505	0.00146798	   9.25478	0.00146454	   9.23963	0.00145959	   9.25315	0.00146404	   9.25315	    36.601	
   9.21651	0.00147126	   9.20653	0.00146792	   9.19079	0.00146293	   9.20461	0.00146737	   9.20461	   36.6843	
   9.16749	0.00147447	   9.15789	0.00147119	   9.14191	 0.0014662	   9.15576	0.00147062	   9.15576	   36.7655	
   9.11813	0.00147757	    9.1089	0.00147449	   9.09268	0.00146937	   9.10657	0.00147381	   9.10657	   36.8452	
   9.06853	 0.0014806	   9.05967	0.00147783	   9.04297	0.00147248	   9.05706	0.00147697	   9.05706	   36.9243	
    9.0184	0.00148365	   9.00989	0.00148108	   8.99273	0.00147556	   9.00701	 0.0014801	   9.00701	   37.0025	
   8.96788	0.00148669	   8.95971	0.00148416	   8.94218	 0.0014786	   8.95659	0.00148315	   8.95659	   37.0788	
   8.91709	0.00148965	   8.90926	0.00148717	   8.89145	0.00148157	   8.90594	0.00148613	   8.90594	   37.1532	
   8.86588	0.00149251	   8.85823	0.00149021	   8.84045	0.00148451	   8.85485	0.00148907	   8.85485	   37.2269	
   8.81425	0.00149532	   8.80678	0.00149325	   8.78907	0.00148739	   8.80337	0.00149199	   8.80337	   37.2998	
    8.7624	0.00149815	   8.75511	0.00149617	   8.73747	0.00149017	   8.75166	0.00149483	   8.75166	   37.3708	
   8.71028	0.00150095	   8.70318	0.00149893	   8.68557	0.00149288	   8.69968	0.00149759	   8.69968	   37.4397	
    8.6577	0.00150364	   8.65078	0.00150166	   8.63327	 0.0014956	   8.64725	 0.0015003	   8.64725	   37.5075	
   8.60479	0.00150625	   8.59806	0.00150445	   8.58068	0.00149829	   8.59451	0.00150299	   8.59451	   37.5748	
   8.55148	0.00150883	   8.54514	0.00150719	   8.52774	0.00150087	   8.54145	0.00150563	   8.54145	   37.6408	
   8.49769	0.00151141	   8.49173	0.00150977	   8.47445	0.00150337	   8.48796	0.00150819	   8.48796	   37.7046	
   8.44366	0.00151394	   8.43805	0.00151223	   8.42094	0.00150587	   8.43422	0.00151068	   8.43422	    37.767	
   8.38933	0.00151638	   8.38406	0.00151472	   8.36708	0.00150835	   8.38016	0.00151315	   8.38016	   37.8288	
    8.3346	0.00151873	   8.32965	0.00151725	   8.31284	0.00151076	   8.32569	0.00151558	   8.32569	   37.8895	
    8.2796	0.00152105	   8.27495	0.00151968	   8.25836	0.00151306	   8.27097	0.00151793	   8.27097	   37.9483	
   8.22434	0.00152336	    8.2199	0.00152196	   8.20342	0.00151531	   8.21588	0.00152021	   8.21588	   38.0053	
   8.16867	0.00152565	   8.16459	0.00152415	   8.14802	0.00151756	   8.16043	0.00152245	   8.16043	   38.0613	
   8.11274	0.00152785	   8.10899	 0.0015264	   8.09233	0.00151979	   8.10469	0.00152468	   8.10469	    38.117	
   8.05659	0.00152997	   8.05316	0.00152867	   8.03647	0.00152196	   8.04874	0.00152686	   8.04874	   38.1716	
   8.00003	0.00153205	   7.99681	 0.0015308	   7.98023	0.00152403	   7.99236	0.00152896	   7.99236	    38.224	
   7.94321	0.00153414	    7.9402	0.00153277	   7.92375	0.00152601	   7.93572	0.00153097	   7.93572	   38.2744	
   7.88613	0.00153617	   7.88337	0.00153472	   7.86698	0.00152796	   7.87883	0.00153295	   7.87883	   38.3237	
   7.82858	 0.0015381	   7.82605	0.00153671	   7.80976	0.00152989	   7.82146	 0.0015349	   7.82146	   38.3726	
   7.77078	0.00153995	   7.76847	0.00153867	   7.75232	0.00153178	   7.76386	 0.0015368	   7.76386	     38.42	
   7.71282	0.00154175	   7.71071	0.00154048	    7.6946	0.00153358	   7.70604	 0.0015386	   7.70604	   38.4651	
    7.6544	0.00154354	   7.65247	0.00154217	   7.63646	 0.0015353	   7.64778	0.00154034	   7.64778	   38.5084	
   7.59577	0.00154535	   7.59399	0.00154383	   7.57812	0.00153699	   7.58929	0.00154206	   7.58929	   38.5514	
   7.53689	0.00154712	   7.53509	0.00154549	   7.51949	0.00153864	   7.53049	0.00154375	   7.53049	   38.5938	
   7.47758	0.00154876	   7.47577	0.00154709	   7.46053	0.00154022	   7.47129	0.00154536	   7.47129	   38.6339	
   7.41809	0.00155026	   7.41626	0.00154859	    7.4014	0.00154172	   7.41192	0.00154686	   7.41192	   38.6714	
   7.35834	0.00155172	   7.35649	0.00155002	   7.34197	0.00154317	   7.35226	 0.0015483	   7.35226	   38.7076	
    7.2982	0.00155321	    7.2964	0.00155143	   7.28216	0.00154458	   7.29225	0.00154974	   7.29225	   38.7434	
   7.23791	0.00155466	   7.23609	0.00155281	   7.22214	0.00154595	   7.23205	0.00155114	   7.23205	   38.7784	
    7.1772	0.00155598	    7.1756	 0.0015541	   7.16181	0.00154725	   7.17154	0.00155244	   7.17154	   38.8111	
   7.11615	0.00155721	   7.11474	0.00155527	   7.10115	0.00154848	   7.11068	0.00155365	   7.11068	   38.8413	
     7.055	0.00155844	   7.05376	0.00155639	   7.04031	0.00154965	   7.04969	0.00155482	   7.04969	   38.8706	
   6.99346	0.00155967	   6.99245	 0.0015575	   6.97917	0.00155079	   6.98836	0.00155599	   6.98836	   38.8997	
   6.93162	0.00156082	   6.93082	0.00155859	   6.91775	0.00155189	   6.92673	 0.0015571	   6.92673	   38.9275	
   6.86967	0.00156184	   6.86897	0.00155958	    6.8562	0.00155294	   6.86495	0.00155812	   6.86495	    38.953	
   6.80731	0.00156278	   6.80695	0.00156048	   6.79426	0.00155388	   6.80284	0.00155905	   6.80284	   38.9762	
   6.74473	0.00156373	   6.74467	0.00156133	   6.73209	0.00155473	   6.74049	0.00155993	   6.74049	   38.9983	
    6.6819	0.00156469	   6.68226	0.00156217	   6.66967	0.00155553	   6.67794	0.00156079	   6.67794	   39.0199	
   6.61874	0.00156556	   6.61957	0.00156297	   6.60684	0.00155632	   6.61505	0.00156162	   6.61505	   39.0404	
   6.55541	0.00156631	   6.55665	 0.0015637	   6.54385	0.00155709	   6.55197	0.00156237	   6.55197	   39.0592	
   6.49215	0.00156696	   6.49351	0.00156435	   6.48059	0.00155776	   6.48875	0.00156303	   6.48875	   39.0756	
   6.42894	0.00156754	   6.43004	0.00156495	   6.41699	0.00155832	   6.42533	0.00156361	   6.42533	   39.0902	
   6.36549	0.00156809	   6.36641	0.00156555	    6.3533	0.00155884	   6.36173	0.00156416	   6.36173	    39.104	
   6.30133	0.00156868	   6.30243	0.00156613	   6.28922	0.00155934	   6.29766	0.00156471	   6.29766	   39.1178	
   6.23613	0.00156926	   6.23813	0.00156662	   6.22487	0.00155979	   6.23304	0.00156522	   6.23304	   39.1305	
   6.17066	0.00156969	   6.17368	0.00156703	   6.16036	0.00156015	   6.16823	0.00156562	   6.16823	   39.1406	
    6.1053	0.00156995	   6.10881	0.00156742	    6.0954	0.00156042	   6.10317	0.00156593	   6.10317	   39.1483	
   6.04004	 0.0015702	   6.04372	0.00156781	   6.03026	0.00156066	   6.03801	0.00156622	   6.03801	   39.1556	
   5.97451	0.00157052	   5.97823	0.00156816	   5.96494	0.00156088	   5.97256	0.00156652	   5.97256	   39.1629	
   5.90898	0.00157075	   5.91249	0.00156841	   5.89933	0.00156105	   5.90693	0.00156674	   5.90693	   39.1684	
   5.84356	0.00157081	   5.84654	 0.0015686	   5.83362	0.00156113	   5.84124	0.00156685	   5.84124	   39.1711	
   5.77771	0.00157081	   5.78026	0.00156877	   5.76761	0.00156114	   5.77519	 0.0015669	   5.77519	   39.1726	
   5.71107	0.00157088	   5.71369	0.00156892	   5.70133	0.00156111	    5.7087	0.00156697	    5.7087	   39.1743	
   5.64428	0.00157093	   5.64702	0.00156901	   5.63503	0.00156106	   5.64211	  0.001567	   5.64211	   39.1751	
   5.57722	0.00157084	   5.58013	0.00156903	   5.56838	0.00156095	   5.57524	0.00156694	   5.57524	   39.1735	
   5.51007	0.00157062	   5.51298	0.00156899	   5.50154	0.00156075	    5.5082	0.00156679	    5.5082	   39.1697	
   5.44283	0.00157038	   5.44547	0.00156895	   5.43452	0.00156049	   5.44094	 0.0015666	   5.44094	   39.1651	
   5.37541	0.00157014	   5.37778	0.00156886	   5.36717	0.00156022	   5.37345	0.00156641	   5.37345	   39.1602	
   5.30768	0.00156983	   5.30986	0.00156871	   5.29973	0.00155991	   5.30576	0.00156615	   5.30576	   39.1538	
   5.23971	0.00156938	   5.24194	0.00156847	   5.23205	0.00155951	    5.2379	0.00156579	    5.2379	   39.1447	
   5.17165	0.00156882	   5.17377	0.00156819	   5.16413	  0.001559	   5.16985	0.00156534	   5.16985	   39.1334	
   5.10335	0.00156824	   5.10543	 0.0015679	   5.09605	0.00155845	   5.10161	0.00156486	   5.10161	   39.1216	
   5.03489	0.00156768	    5.0367	0.00156756	   5.02766	0.00155794	   5.03308	0.00156439	   5.03308	   39.1098	
   4.96628	0.00156702	   4.96783	0.00156715	   4.95914	0.00155738	   4.96442	0.00156385	   4.96442	   39.0962	
   4.89764	0.00156617	    4.8988	0.00156666	   4.89045	0.00155667	   4.89563	0.00156317	   4.89563	   39.0792	
    4.8287	0.00156524	   4.82947	0.00156614	   4.82147	0.00155585	   4.82655	0.00156241	   4.82655	   39.0602	
   4.75972	0.00156439	   4.76006	0.00156559	    4.7524	0.00155506	   4.75739	0.00156168	   4.75739	    39.042	
   4.69045	0.00156358	   4.69046	0.00156499	   4.68306	0.00155428	   4.68799	0.00156095	   4.68799	   39.0237	
   4.62099	 0.0015626	    4.6207	0.00156431	   4.61406	0.00155334	   4.61858	0.00156009	   4.61858	   39.0022	
   4.55144	0.00156138	   4.55086	0.00156359	   4.54535	0.00155219	   4.54921	0.00155905	   4.54921	   38.9764	
   4.48155	0.00156009	    4.4807	0.00156281	   4.47638	0.00155106	   4.47954	0.00155799	   4.47954	   38.9497	
    4.4116	0.00155889	   4.41048	0.00156199	   4.40646	 0.0015501	   4.40951	0.00155699	   4.40951	   38.9248	
   4.34131	0.00155768	    4.3401	0.00156109	   4.33607	0.00154915	   4.33916	0.00155597	   4.33916	   38.8993	
   4.27082	0.00155634	   4.26952	0.00156014	    4.2655	0.00154791	   4.26861	 0.0015548	   4.26861	     38.87	
   4.20039	0.00155483	   4.19884	0.00155914	     4.195	0.00154644	   4.19808	0.00155347	   4.19808	   38.8367	
    4.1296	0.00155324	   4.12791	0.00155807	   4.12455	0.00154504	   4.12735	0.00155211	   4.12735	   38.8028	
   4.05865	0.00155167	    4.0569	0.00155691	   4.05386	0.00154384	   4.05647	0.00155081	   4.05647	   38.7701	
   3.98763	 0.0015501	   3.98566	 0.0015557	     3.983	0.00154261	   3.98543	0.00154947	   3.98543	   38.7368	
   3.91638	0.00154845	   3.91421	0.00155443	    3.9119	0.00154113	   3.91416	  0.001548	   3.91416	   38.7001	
   3.84502	0.00154671	    3.8428	0.00155309	   3.84054	0.00153947	   3.84279	0.00154642	   3.84279	   38.6606	
   3.77338	0.00154493	   3.77105	0.00155162	   3.76883	0.00153792	   3.77109	0.00154483	   3.77109	   38.6207	
   3.70166	0.00154315	   3.69921	0.00155011	   3.69711	0.00153652	   3.69932	0.00154326	   3.69932	   38.5815	
   3.62977	0.00154132	   3.62721	0.00154864	   3.62523	0.00153501	    3.6274	0.00154166	    3.6274	   38.5414	
   3.55772	0.00153938	     3.555	0.00154715	    3.5532	0.00153325	   3.55531	0.00153993	   3.55531	   38.4982	
   3.48562	0.00153738	   3.48275	 0.0015455	   3.48112	0.00153142	   3.48316	 0.0015381	   3.48316	   38.4525	
   3.41338	0.00153537	   3.41029	0.00154365	    3.4089	0.00152973	   3.41086	0.00153625	   3.41086	   38.4062	
   3.34103	0.00153333	   3.33775	0.00154177	   3.33658	0.00152809	   3.33845	0.00153439	   3.33845	   38.3599	
   3.26869	0.00153121	   3.26502	0.00153994	   3.26412	0.00152629	   3.26594	0.00153248	   3.26594	   38.3119	
    3.1961	  0.001529	   3.19207	0.00153809	   3.19143	0.00152429	    3.1932	0.00153046	    3.1932	   38.2615	
   3.12346	0.00152678	   3.11911	0.00153608	   3.11863	0.00152231	    3.1204	0.00152839	    3.1204	   38.2098	
   3.05052	0.00152457	   3.04588	0.00153392	   3.04564	0.00152043	   3.04735	0.00152631	   3.04735	   38.1577	
   2.97749	0.00152229	   2.97259	0.00153174	   2.97256	0.00151855	   2.97421	0.00152419	   2.97421	   38.1048	
   2.90429	0.00151987	   2.89932	0.00152958	   2.89949	0.00151648	   2.90103	0.00152198	   2.90103	   38.0494	
   2.83108	0.00151738	   2.82584	0.00152734	   2.82618	0.00151425	    2.8277	0.00151966	    2.8277	   37.9914	
   2.75781	0.00151493	   2.75242	0.00152493	   2.75284	0.00151205	   2.75435	 0.0015173	   2.75435	   37.9326	
   2.68424	 0.0015125	   2.67872	0.00152242	   2.67921	0.00150994	   2.68072	0.00151496	   2.68072	   37.8739	
   2.61059	0.00150999	   2.60495	0.00151991	    2.6055	0.00150779	   2.60701	0.00151257	   2.60701	   37.8141	
   2.53686	0.00150735	   2.53129	 0.0015174	   2.53173	0.00150546	   2.53329	0.00151007	   2.53329	   37.7517	
   2.46291	0.00150466	   2.45742	0.00151479	   2.45775	0.00150302	   2.45936	0.00150749	   2.45936	   37.6873	
   2.38902	0.00150204	   2.38351	0.00151205	   2.38376	0.00150066	   2.38543	0.00150492	   2.38543	   37.6229	
   2.31485	0.00149942	   2.30942	0.00150925	   2.30972	0.00149833	   2.31133	0.00150234	   2.31133	   37.5584	
   2.24061	0.00149665	   2.23526	0.00150644	    2.2356	0.00149588	   2.23716	0.00149966	   2.23716	   37.4915	
   2.16634	0.00149373	   2.16114	0.00150359	   2.16139	 0.0014933	   2.16296	0.00149687	   2.16296	   37.4218	
   2.09187	0.00149081	    2.0869	0.00150065	   2.08697	0.00149071	   2.08858	0.00149406	   2.08858	   37.3514	
   2.01732	0.00148799	   2.01265	 0.0014976	   2.01248	0.00148816	   2.01415	0.00149125	   2.01415	   37.2813	
   1.94262	0.00148511	    1.9383	0.00149451	   1.93767	0.00148557	   1.93953	 0.0014884	   1.93953	   37.2099	
   1.86787	0.00148204	   1.86388	 0.0014914	   1.86283	0.00148284	   1.86486	0.00148543	   1.86486	   37.1356	
   1.79301	0.00147887	   1.78941	0.00148824	   1.78806	   0.00148	   1.79016	0.00148237	   1.79016	   37.0593	
   1.71797	0.00147576	   1.71474	0.00148498	   1.71312	0.00147714	   1.71528	0.00147929	   1.71528	   36.9824	
   1.64304	0.00147268	   1.64006	0.00148163	   1.63827	0.00147428	   1.64046	0.00147619	   1.64046	   36.9049	
   1.56789	0.00146945	   1.56528	0.00147825	   1.56342	0.00147135	   1.56553	0.00147302	   1.56553	   36.8254	
   1.49256	0.00146604	   1.49045	0.00147486	   1.48853	0.00146834	   1.49051	0.00146975	   1.49051	   36.7437	
   1.41719	0.00146261	   1.41562	0.00147138	   1.41371	0.00146525	   1.41551	0.00146641	   1.41551	   36.6604	
   1.34168	0.00145926	   1.34068	0.00146778	   1.33872	0.00146212	   1.34036	0.00146305	   1.34036	   36.5763	
   1.26595	0.00145587	   1.26583	0.00146411	   1.26382	0.00145896	    1.2652	0.00145965	    1.2652	   36.4912	
   1.19023	0.00145231	   1.19074	0.00146044	   1.18877	0.00145574	   1.18992	0.00145616	   1.18992	    36.404	
   1.11462	0.00144863	   1.11562	0.00145672	   1.11361	0.00145245	   1.11462	 0.0014526	   1.11462	    36.315	
   1.03899	0.00144501	   1.04042	0.00145293	   1.03853	0.00144908	   1.03931	0.00144901	   1.03931	   36.2252	
  0.963249	0.00144144	  0.965062	0.00144906	  0.963448	0.00144566	   0.96392	0.00144538	   0.96392	   36.1346	
   0.88752	0.00143769	  0.889737	0.00144515	  0.888453	0.00144219	   0.88857	0.00144168	   0.88857	   36.0419	
  0.812043	0.00143368	  0.814531	0.00144121	  0.813392	0.00143868	  0.813322	0.00143786	  0.813322	   35.9464	
  0.736788	0.00142963	  0.739289	0.00143723	  0.738285	0.00143508	  0.738121	0.00143398	  0.738121	   35.8495	
  0.661452	0.00142576	  0.664028	 0.0014332	  0.663151	 0.0014314	  0.662877	0.00143012	  0.662877	    35.753	
  0.585903	0.00142193	  0.588674	0.00142912	  0.587843	0.00142767	  0.587473	0.00142624	  0.587473	    35.656	
  0.510247	0.00141787	  0.513747	0.00142497	  0.512552	0.00142389	  0.512182	0.00142224	  0.512182	   35.5561	
  0.434635	0.00141359	  0.439359	0.00142071	  0.437257	0.00142004	  0.437084	0.00141812	  0.437084	   35.4529	
  0.358952	0.00140935	  0.364692	0.00141639	  0.361927	0.00141612	  0.361857	0.00141395	  0.361857	   35.3488	
    0.2834	0.00140525	  0.289396	 0.0014121	  0.286679	0.00141213	  0.286492	0.00140983	  0.286492	   35.2456	
  0.207886	0.00140112	  0.213275	0.00140783	  0.211257	0.00140808	  0.210806	0.00140568	  0.210806	   35.1419	
  0.132502	0.00139677	  0.137308	0.00140347	  0.135937	0.00140397	  0.135249	 0.0014014	  0.135249	   35.0351	
 0.0570097	0.00139228	 0.0614994	0.00139896	 0.0608043	0.00139979	 0.0597711	0.00139701	 0.0597711	   34.9253	
-0.0184843	0.00138787	-0.0140217	0.00139438	-0.0143827	0.00139554	-0.0156296	 0.0013926	-0.0156296	   34.8149	
-0.0938019	0.00138356	-0.0895506	0.00138983	-0.0893617	0.00139121	-0.0909047	 0.0013882	-0.0909047	    34.705	
 -0.169268	0.00137915	 -0.165017	 0.0013853	 -0.164252	0.00138683	 -0.166179	0.00138376	 -0.166179	    34.594	
 -0.244693	0.00137452	 -0.240708	0.00138066	 -0.239095	 0.0013824	 -0.241499	 0.0013792	 -0.241499	   34.4799	
 -0.320243	0.00136981	 -0.316526	 0.0013759	 -0.313852	0.00137792	 -0.316873	0.00137454	 -0.316873	   34.3636	
 -0.395795	 0.0013652	 -0.392262	0.00137111	 -0.388709	0.00137334	 -0.392255	0.00136988	 -0.392255	   34.2471	
 -0.471171	0.00136062	 -0.467909	0.00136633	 -0.463562	0.00136871	 -0.467547	0.00136522	 -0.467547	   34.1305	
 -0.546695	 0.0013559	 -0.543486	0.00136154	 -0.538571	0.00136402	 -0.542917	0.00136048	 -0.542917	   34.0121	
 -0.622097	0.00135102	 -0.619198	0.00135664	 -0.613537	0.00135929	 -0.618278	0.00135565	 -0.618278	   33.8912	
 -0.697487	0.00134612	 -0.694963	0.00135165	 -0.688567	0.00135449	 -0.693672	0.00135075	 -0.693672	   33.7689	
 -0.772895	0.00134126	 -0.770652	0.00134664	 -0.763523	0.00134962	 -0.769024	0.00134584	 -0.769024	    33.646	
 -0.848132	0.00133633	 -0.846381	0.00134161	 -0.838462	0.00134468	 -0.844325	0.00134087	 -0.844325	   33.5218	
  -0.92345	0.00133127	 -0.922004	 0.0013365	 -0.913225	0.00133965	  -0.91956	0.00133581	  -0.91956	   33.3952	
 -0.998667	0.00132615	 -0.997514	0.00133131	 -0.987978	0.00133457	 -0.994719	0.00133068	 -0.994719	   33.2669	
  -1.07377	0.00132104	  -1.07307	0.00132609	   -1.0632	0.00132948	  -1.07001	0.00132554	  -1.07001	   33.1385	
  -1.14886	0.00131591	  -1.14865	0.00132089	  -1.13865	0.00132434	  -1.14538	0.00132038	  -1.14538	   33.0095	
  -1.22382	0.00131072	  -1.22407	0.00131562	  -1.21374	0.00131909	  -1.22054	0.00131514	  -1.22054	   32.8786	
  -1.29891	0.00130547	  -1.29937	0.00131021	  -1.28878	0.00131373	  -1.29568	 0.0013098	  -1.29568	   32.7451	
  -1.37392	0.00130017	  -1.37459	0.00130472	  -1.36371	0.00130834	  -1.37074	0.00130441	  -1.37074	   32.6102	
   -1.4489	0.00129483	  -1.44969	0.00129925	  -1.43858	0.00130291	  -1.44572	  0.001299	  -1.44572	   32.4749	
  -1.52395	0.00128944	  -1.52486	0.00129379	  -1.51309	0.00129739	  -1.52063	0.00129354	  -1.52063	   32.3385	
  -1.59881	0.00128399	  -1.59983	0.00128823	  -1.58736	0.00129175	  -1.59533	0.00128799	  -1.59533	   32.1997	
  -1.67372	0.00127849	  -1.67477	0.00128255	  -1.66146	0.00128609	  -1.66998	0.00128238	  -1.66998	   32.0594	
  -1.74858	0.00127296	  -1.74967	0.00127681	  -1.73563	0.00128046	  -1.74463	0.00127674	  -1.74463	   31.9186	
  -1.82323	0.00126738	  -1.82444	0.00127111	  -1.80985	0.00127476	  -1.81917	0.00127108	  -1.81917	   31.7771	
  -1.89799	0.00126172	  -1.89931	0.00126537	  -1.88436	0.00126891	  -1.89389	0.00126533	  -1.89389	   31.6333	
   -1.9726	0.00125598	   -1.9741	0.00125954	  -1.95887	0.00126296	  -1.96852	0.00125949	  -1.96852	   31.4873	
  -2.04714	0.00125021	  -2.04889	0.00125362	  -2.03329	0.00125706	   -2.0431	0.00125363	   -2.0431	   31.3408	
  -2.12168	0.00124441	  -2.12367	0.00124768	  -2.10749	0.00125123	  -2.11761	0.00124777	  -2.11761	   31.1942	
  -2.19597	0.00123852	  -2.19817	0.00124173	  -2.18152	0.00124533	  -2.19189	0.00124186	  -2.19189	   31.0465	
  -2.27028	0.00123257	  -2.27268	0.00123575	  -2.25551	0.00123927	  -2.26616	0.00123586	  -2.26616	   30.8966	
  -2.34449	0.00122657	  -2.34708	0.00122968	  -2.32941	0.00123311	  -2.34033	0.00122978	  -2.34033	   30.7446	
  -2.41851	0.00122049	  -2.42133	0.00122352	  -2.40327	0.00122697	  -2.41437	0.00122366	  -2.41437	   30.5915	
  -2.49259	0.00121433	  -2.49555	0.00121734	  -2.47703	0.00122085	  -2.48839	0.00121751	  -2.48839	   30.4377	
  -2.56649	0.00120812	  -2.56958	0.00121118	   -2.5507	0.00121464	  -2.56225	0.00121132	  -2.56225	   30.2829	
  -2.64036	0.00120188	  -2.64348	0.00120496	  -2.62418	0.00120831	  -2.63601	0.00120505	  -2.63601	   30.1263	
  -2.71421	0.00119556	  -2.71728	 0.0011986	  -2.69773	0.00120192	  -2.70974	0.00119869	  -2.70974	   29.9674	
  -2.78785	0.00118915	   -2.7908	0.00119217	  -2.77117	0.00119554	  -2.78328	0.00119229	  -2.78328	   29.8072	
  -2.86142	 0.0011827	  -2.86418	0.00118576	  -2.84454	0.00118914	  -2.85671	0.00118587	  -2.85671	   29.6466	
  -2.93487	0.00117623	  -2.93746	0.00117934	  -2.91788	0.00118264	  -2.93007	 0.0011794	  -2.93007	   29.4851	
  -3.00825	 0.0011697	  -3.01053	0.00117282	  -2.99095	0.00117606	  -3.00324	0.00117286	  -3.00324	   29.3214	
  -3.08168	0.00116307	  -3.08344	0.00116619	  -3.06391	0.00116943	  -3.07634	0.00116623	  -3.07634	   29.1558	
   -3.1549	0.00115638	  -3.15619	0.00115954	  -3.13677	0.00116282	  -3.14929	0.00115958	  -3.14929	   28.9895	
  -3.22792	0.00114967	  -3.22878	 0.0011529	  -3.20946	0.00115618	  -3.22205	0.00115292	  -3.22205	    28.823	
  -3.30091	0.00114293	  -3.30139	0.00114621	  -3.28197	0.00114943	  -3.29475	0.00114619	  -3.29475	   28.6547	
  -3.37362	0.00113611	  -3.37376	0.00113941	  -3.35432	0.00114255	  -3.36723	0.00113936	  -3.36723	    28.484	
  -3.44616	 0.0011292	  -3.44598	0.00113255	  -3.42644	0.00113565	  -3.43953	0.00113247	  -3.43953	   28.3116	
  -3.51861	0.00112222	  -3.51816	0.00112572	  -3.49859	0.00112877	  -3.51179	0.00112557	  -3.51179	   28.1392	
  -3.59074	0.00111522	  -3.59005	0.00111889	  -3.57051	0.00112188	  -3.58376	0.00111866	  -3.58376	   27.9665	
  -3.66289	0.00110818	  -3.66184	0.00111195	  -3.64226	0.00111488	  -3.65567	0.00111167	  -3.65567	   27.7918	
  -3.73489	0.00110106	  -3.73354	0.00110487	  -3.71399	0.00110779	  -3.72747	0.00110457	  -3.72747	   27.6143	
  -3.80665	0.00109384	  -3.80489	0.00109777	  -3.78543	0.00110067	  -3.79899	0.00109743	  -3.79899	   27.4357	
  -3.87846	0.00108657	  -3.87632	0.00109073	   -3.8567	0.00109354	  -3.87049	0.00109028	  -3.87049	    27.257	
  -3.95004	0.00107928	   -3.9476	0.00108368	  -3.92789	0.00108638	  -3.94184	0.00108311	  -3.94184	   27.0778	
  -4.02128	0.00107194	  -4.01855	 0.0010765	  -3.99875	0.00107916	  -4.01286	0.00107587	  -4.01286	   26.8967	
  -4.09243	 0.0010645	   -4.0894	0.00106921	  -4.06958	0.00107185	   -4.0838	0.00106852	   -4.0838	    26.713	
  -4.16334	  0.001057	  -4.16005	0.00106193	  -4.14029	 0.0010645	  -4.15456	0.00106115	  -4.15456	   26.5286	
  -4.23407	0.00104948	  -4.23042	0.00105468	  -4.21078	0.00105721	  -4.22509	0.00105379	  -4.22509	   26.3447	
  -4.30468	0.00104191	   -4.3008	0.00104738	  -4.28125	 0.0010499	  -4.29558	 0.0010464	  -4.29558	     26.16	
  -4.37501	0.00103423	  -4.37095	0.00103995	  -4.35155	0.00104249	  -4.36584	0.00103889	  -4.36584	   25.9723	
  -4.44517	0.00102644	  -4.44096	0.00103244	  -4.42153	0.00103495	  -4.43589	0.00103128	  -4.43589	   25.7819	
  -4.51526	0.00101865	  -4.51094	0.00102494	  -4.49147	0.00102737	  -4.50589	0.00102366	  -4.50589	   25.5914	
  -4.58505	0.00101093	  -4.58065	0.00101746	  -4.56121	0.00101984	  -4.57564	0.00101608	  -4.57564	   25.4019	
  -4.65482	0.00100317	   -4.6503	 0.0010099	  -4.63081	 0.0010123	  -4.64531	0.00100846	  -4.64531	   25.2114	
  -4.72447	0.000995256	  -4.71979	0.00100221	  -4.70041	0.00100465	  -4.71489	 0.0010007	  -4.71489	   25.0176	
  -4.79379	0.000987206	  -4.78898	0.000994466	  -4.76977	0.000996881	  -4.78418	0.000992851	  -4.78418	   24.8213	
  -4.86292	0.000979179	  -4.85802	0.000986746	  -4.83895	0.00098908	   -4.8533	0.000985002	   -4.8533	    24.625	
  -4.93193	0.000971225	  -4.92697	0.000979003	   -4.9081	0.000981286	  -4.92233	0.000977171	  -4.92233	   24.4293	
  -5.00058	0.000963196	  -4.99574	0.000971158	  -4.97698	0.000973469	   -4.9911	0.000969274	   -4.9911	   24.2319	
  -5.06917	0.000954999	  -5.06439	0.000963219	  -5.04562	0.000965584	  -5.05973	0.000961267	  -5.05973	   24.0317	
  -5.13763	0.000946739	  -5.13291	0.000955263	  -5.11407	0.000957637	  -5.12821	0.000953213	  -5.12821	   23.8303	
  -5.20589	0.00093854	  -5.20119	0.000947322	  -5.18225	0.000949661	  -5.19644	0.000945174	  -5.19644	   23.6294	
  -5.27386	0.000930344	  -5.26926	0.000939334	  -5.25017	0.000941667	  -5.26443	0.000937115	  -5.26443	   23.4279	
  -5.34169	0.000922033	  -5.33714	0.000931217	  -5.31796	0.000933618	  -5.33226	0.000928956	  -5.33226	   23.2239	
  -5.40924	0.000913601	  -5.40482	0.000923044	  -5.38549	0.000925488	  -5.39985	0.000920711	  -5.39985	   23.0178	
  -5.47679	0.000905161	  -5.47268	0.000914928	  -5.45288	0.00091732	  -5.46745	0.000912469	  -5.46745	   22.8117	
  -5.54419	0.000896781	  -5.54038	0.000906832	  -5.52014	0.000909154	   -5.5349	0.000904256	   -5.5349	   22.6064	
   -5.6113	0.000888383	  -5.60747	0.000898627	  -5.58722	0.000900962	    -5.602	0.000895991	    -5.602	   22.3998	
  -5.67827	0.000879851	  -5.67423	0.000890313	  -5.65397	 0.0008927	  -5.66882	0.000887621	  -5.66882	   22.1905	
  -5.74509	0.000871199	  -5.74079	0.000881984	   -5.7206	0.000884377	  -5.73549	0.000879186	  -5.73549	   21.9797	
  -5.81163	0.000862566	  -5.80705	0.000873683	  -5.78705	0.000876036	  -5.80191	0.000870762	  -5.80191	    21.769	
    -5.878	0.000854033	  -5.87311	0.000865343	  -5.85303	0.000867686	  -5.86805	0.000862354	  -5.86805	   21.5588	
  -5.94425	0.000845524	  -5.93916	0.000856903	  -5.91894	0.000859282	  -5.93412	0.000853903	  -5.93412	   21.3476	
  -6.01014	0.000836898	  -6.00491	0.000848397	  -5.98463	 0.0008508	   -5.9999	0.000845365	   -5.9999	   21.1341	
  -6.07566	0.000828154	  -6.07007	0.000839869	  -6.04998	0.000842279	  -6.06523	0.000836767	  -6.06523	   20.9192	
  -6.14102	0.000819409	  -6.13462	0.000831306	  -6.11505	0.000833757	  -6.13023	0.000828157	  -6.13023	   20.7039	
  -6.20608	0.000810719	  -6.19921	0.000822676	  -6.17995	0.000825215	  -6.19508	0.000819537	  -6.19508	   20.4884	
  -6.27078	0.000802015	  -6.26374	0.00081399	  -6.24447	 0.0008166	  -6.25966	0.000810868	  -6.25966	   20.2717	
  -6.33544	0.000793213	  -6.32835	0.000805274	  -6.30874	0.000807903	  -6.32418	0.00080213	  -6.32418	   20.0533	
  -6.39984	0.000784352	  -6.39267	0.000796525	  -6.37288	0.000799179	  -6.38846	0.000793352	  -6.38846	   19.8338	
  -6.46379	0.00077553	  -6.45681	0.000787713	  -6.43669	0.000790461	  -6.45243	0.000784568	  -6.45243	   19.6142	
  -6.52759	0.000766753	  -6.52061	0.000778835	  -6.50018	0.000781715	  -6.51613	0.000775768	  -6.51613	   19.3942	
   -6.5912	0.000757926	  -6.58401	0.000769919	  -6.56361	0.000772887	   -6.5796	0.000766911	   -6.5796	   19.1728	
   -6.6544	0.000748993	  -6.64712	0.000760973	  -6.62675	0.000763986	  -6.64276	0.000757984	  -6.64276	   18.9496	
  -6.71751	0.000740017	   -6.7101	0.000751979	   -6.6895	0.000755066	   -6.7057	0.000749021	   -6.7057	   18.7255	
  -6.78047	0.000731081	  -6.77291	0.000742928	  -6.75217	0.000746149	  -6.76852	0.000740053	  -6.76852	   18.5013	
  -6.84309	0.000722165	  -6.83542	0.000733839	  -6.81463	0.000737189	  -6.83104	0.000731064	  -6.83104	   18.2766	
  -6.90531	0.000713179	  -6.89744	0.000724741	  -6.87674	0.00072814	  -6.89316	0.00072202	  -6.89316	   18.0505	
  -6.96731	0.000704094	  -6.95936	0.000715613	  -6.93866	0.000719038	  -6.95511	0.000712915	  -6.95511	   17.8229	
  -7.02905	0.000694975	  -7.02107	0.000706429	  -7.00044	0.000709942	  -7.01686	0.000703782	  -7.01686	   17.5946	
  -7.09035	0.000685874	  -7.08237	0.000697208	  -7.06187	0.000700841	   -7.0782	0.000694641	   -7.0782	    17.366	
   -7.1513	0.000676756	  -7.14337	0.00068798	    -7.123	0.000691666	  -7.13922	0.000685467	  -7.13922	   17.1367	
  -7.21202	0.000667554	  -7.20417	0.000678733	  -7.18398	0.000682409	  -7.20005	0.000676232	  -7.20005	   16.9058	
  -7.27247	0.000658277	  -7.26465	0.000669445	   -7.2447	0.000673129	  -7.26061	0.00066695	  -7.26061	   16.6738	
  -7.33254	0.000648992	   -7.3247	0.000660112	  -7.30497	0.000663846	  -7.32074	0.00065765	  -7.32074	   16.4412	
  -7.39231	0.000639723	  -7.38458	0.000650754	  -7.36503	0.000654513	  -7.38064	0.00064833	  -7.38064	   16.2083	
  -7.45184	0.000630412	  -7.44424	0.000641387	  -7.42486	0.000645129	  -7.44032	0.000638976	  -7.44032	   15.9744	
  -7.51096	0.000621011	   -7.5036	0.000631995	  -7.48435	0.000635739	  -7.49964	0.000629581	  -7.49964	   15.7395	
  -7.56977	0.000611556	  -7.56259	0.000622567	  -7.54333	0.000626366	  -7.55856	0.000620163	  -7.55856	   15.5041	
  -7.62847	0.000602116	  -7.62132	0.000613103	  -7.60203	0.000616964	  -7.61727	0.000610728	  -7.61727	   15.2682	
  -7.68687	0.000592686	  -7.67978	0.000603617	  -7.66052	0.000607479	  -7.67572	0.000601261	  -7.67572	   15.0315	
  -7.74478	0.000583194	  -7.73779	0.000594117	  -7.71862	0.000597937	  -7.73373	0.000591749	  -7.73373	   14.7937	
  -7.80241	0.000573615	  -7.79532	0.000584588	  -7.77632	0.00058841	  -7.79135	0.000582204	  -7.79135	   14.5551	
  -7.85987	0.000563998	  -7.85273	0.000575024	  -7.83385	0.000578902	  -7.84882	0.000572641	  -7.84882	    14.316	
  -7.91699	 0.0005544	  -7.90983	0.000565426	  -7.89114	0.000569348	  -7.90598	0.000563058	  -7.90598	   14.0764	
  -7.97359	0.000544817	  -7.96645	0.000555805	  -7.94799	0.000559704	  -7.96267	0.000553442	  -7.96267	   13.8361	
  -8.02988	0.000535204	  -8.02279	0.000546167	  -8.00432	0.000550015	    -8.019	0.000543795	    -8.019	   13.5949	
  -8.08598	0.000525521	  -8.07889	0.000536508	  -8.06032	0.000540348	  -8.07506	0.000534126	  -8.07506	   13.3531	
  -8.14172	0.000515786	  -8.13467	0.00052682	  -8.11605	0.000530677	  -8.13081	0.000524428	  -8.13081	   13.1107	
  -8.19694	0.000506049	  -8.19002	0.000517106	  -8.17136	0.00052093	  -8.18611	0.000514695	  -8.18611	   12.8674	
  -8.25191	0.000496336	  -8.24516	0.000507378	  -8.22631	0.000511127	  -8.24113	0.000504947	  -8.24113	   12.6237	
   -8.3067	0.000486622	  -8.29997	0.000497637	    -8.281	0.000501325	  -8.29589	0.000495195	  -8.29589	   12.3799	
  -8.36112	0.000476863	  -8.35444	0.000487873	  -8.33543	0.000491523	  -8.35033	0.00048542	  -8.35033	   12.1355	
  -8.41502	0.000467056	   -8.4085	0.000478078	  -8.38944	0.000481665	  -8.40432	 0.0004756	  -8.40432	     11.89	
  -8.46866	0.000457246	  -8.46224	0.000468214	  -8.44296	0.00047174	  -8.45796	0.000465734	  -8.45796	   11.6433	
  -8.52213	0.000447459	  -8.51569	0.000458339	  -8.49627	0.000461797	  -8.51136	0.000455865	  -8.51136	   11.3966	
  -8.57526	0.000437666	  -8.56882	0.000448529	  -8.54926	0.000451858	  -8.56445	0.000446018	  -8.56445	   11.1504	
  -8.62789	0.00042782	  -8.62149	0.000438743	  -8.60186	0.000441889	  -8.61708	0.000436151	  -8.61708	   10.9038	
  -8.68029	0.000417924	  -8.67387	0.00042883	  -8.65393	0.00043187	  -8.66937	0.000426208	  -8.66937	   10.6552	
  -8.73247	0.00040803	  -8.72614	0.000418781	  -8.70569	0.000421821	  -8.72143	0.000416211	  -8.72143	   10.4053	
  -8.78433	0.000398164	  -8.77813	0.000408751	  -8.75712	0.000411763	  -8.77319	0.000406226	  -8.77319	   10.1556	
  -8.83574	0.000388282	  -8.82967	0.000398853	  -8.80822	0.000401692	  -8.82454	0.000396275	  -8.82454	   9.90688	
  -8.88663	0.000378344	  -8.88096	0.000388971	  -8.85885	0.000391592	  -8.87548	0.000386303	  -8.87548	   9.65756	
  -8.93737	0.00036837	  -8.93194	0.00037893	  -8.90917	0.000381454	  -8.92616	0.000376251	  -8.92616	   9.40628	
  -8.98785	 0.0003584	  -8.98268	0.000368766	  -8.95914	0.000371295	  -8.97656	0.000366153	  -8.97656	   9.15384	
  -9.03802	0.000348426	  -9.03304	0.000358653	  -9.00886	0.000361123	  -9.02664	0.000356067	  -9.02664	   8.90168	
  -9.08764	0.000338433	  -9.08294	0.000348648	  -9.05819	0.000350927	  -9.07625	0.000346003	  -9.07625	   8.65007	
  -9.13702	0.000328422	  -9.13232	0.000338609	   -9.1072	0.000340692	  -9.12551	0.000335908	  -9.12551	   8.39769	
  -9.18624	 0.0003184	  -9.18156	0.000328422	  -9.15594	0.000330421	  -9.17458	0.000325748	  -9.17458	    8.1437	
  -9.23513	0.000308362	   -9.2305	0.000318168	  -9.20443	0.000320155	  -9.22335	0.000315562	  -9.22335	   7.88904	
  -9.28356	0.000298326	  -9.27899	0.000307992	  -9.25262	 0.0003099	  -9.27172	0.000305406	  -9.27172	   7.63514	
  -9.33147	0.00028829	  -9.32699	0.000297892	  -9.30034	0.000299602	   -9.3196	0.000295261	   -9.3196	   7.38154	
  -9.37899	0.000278225	  -9.37461	0.000287731	  -9.34765	0.000289244	  -9.36708	0.000285067	  -9.36708	   7.12667	
  -9.42623	0.000268116	  -9.42206	0.000277426	  -9.39473	0.000278884	  -9.41434	0.000274809	  -9.41434	   6.87021	
  -9.47314	0.000258013	  -9.46918	0.000267074	  -9.44154	0.000268563	  -9.46128	0.00026455	  -9.46128	   6.61375	
  -9.51958	0.00024795	  -9.51583	0.000256829	  -9.48801	0.000258238	  -9.50781	0.000254339	  -9.50781	   6.35848	
  -9.56558	0.000237865	  -9.56191	0.000246692	  -9.53408	0.000247853	  -9.55385	0.000244137	  -9.55385	   6.10342	
  -9.61143	0.000227682	  -9.60761	0.000236499	  -9.57955	0.00023743	  -9.59953	0.00023387	  -9.59953	   5.84676	
  -9.65709	0.000217455	  -9.65293	0.000226139	  -9.62461	0.000227019	  -9.64488	0.000223538	  -9.64488	   5.58844	
   -9.7024	0.000207298	  -9.69796	0.000215709	  -9.66949	0.000216627	  -9.68995	0.000213211	  -9.68995	   5.33028	
  -9.74723	0.000197217	  -9.74256	0.000205387	  -9.71407	0.000206228	  -9.73462	0.000202944	  -9.73462	    5.0736	
  -9.79149	0.000187099	   -9.7867	0.000195181	   -9.7582	0.000195791	   -9.7788	0.00019269	   -9.7788	   4.81725	
  -9.83526	0.000176873	  -9.83041	0.000184925	  -9.80192	0.000185318	  -9.82253	0.000182372	  -9.82253	    4.5593	
  -9.87881	0.000166606	  -9.87358	0.000174545	  -9.84521	0.000174837	  -9.86587	0.000171996	  -9.86587	    4.2999	
  -9.92207	0.000156405	  -9.91654	0.000164142	  -9.88822	0.00016438	  -9.90894	0.000161643	  -9.90894	   4.04106	
  -9.96492	0.000146267	  -9.95914	0.00015382	  -9.93097	0.000153947	  -9.95168	0.000151345	  -9.95168	   3.78362	
  -10.0073	0.000136072	  -10.0013	0.000143533	  -9.97333	0.000143515	  -9.99395	0.00014104	  -9.99395	     3.526	
   -10.049	0.000125776	  -10.0429	0.000133178	  -10.0153	0.000133046	  -10.0357	0.000130667	  -10.0357	   3.26667	
  -10.0904	0.000115478	  -10.0843	0.00012277	  -10.0566	0.000122533	  -10.0771	0.00012026	  -10.0771	   3.00651	
  -10.1316	0.000105266	  -10.1251	0.000112393	  -10.0976	0.000112013	  -10.1181	0.000109891	  -10.1181	   2.74727	
  -10.1725	9.51092e-05	  -10.1656	0.000102084	  -10.1382	0.00010153	  -10.1588	9.95745e-05	  -10.1588	   2.48936	
  -10.2129	8.48799e-05	  -10.2058	9.17908e-05	  -10.1786	9.10723e-05	  -10.1991	8.92476e-05	  -10.1991	   2.23119	
  -10.2528	7.45548e-05	  -10.2455	8.14542e-05	  -10.2186	8.05923e-05	   -10.239	7.88671e-05	   -10.239	   1.97168	
  -10.2922	6.4233e-05	  -10.2847	7.1073e-05	  -10.2582	7.00723e-05	  -10.2783	6.84594e-05	  -10.2783	   1.71149	
  -10.3309	5.39908e-05	  -10.3234	6.07249e-05	  -10.2972	5.95501e-05	  -10.3172	5.80886e-05	  -10.3172	   1.45222	
  -10.3694	4.37706e-05	  -10.3617	5.04165e-05	  -10.3357	4.90645e-05	  -10.3556	4.77505e-05	  -10.3556	   1.19376	
  -10.4076	3.34774e-05	  -10.3997	4.00858e-05	  -10.3738	3.86003e-05	  -10.3937	3.73878e-05	  -10.3937	  0.934696	
  -10.4454	2.31285e-05	  -10.4374	2.96885e-05	  -10.4115	2.8114e-05	  -10.4314	2.6977e-05	  -10.4314	  0.674425	
  -10.4827	1.28331e-05	  -10.4746	1.93002e-05	  -10.4489	1.76095e-05	  -10.4687	1.65809e-05	  -10.4687	  0.414523	
  -10.5195	2.60959e-06	  -10.5114	9.00581e-06	  -10.4858	7.12654e-06	  -10.5056	6.24731e-06	  -10.5056	  0.156183	
  -10.5558	-7.65033e-06	  -10.5476	-1.23304e-06	  -10.5223	-3.31402e-06	  -10.5419	-4.0658e-06	  -10.5419	 -0.101645	
  -10.5917	-1.79834e-05	  -10.5834	-1.15334e-05	  -10.5582	-1.37397e-05	  -10.5777	-1.44188e-05	  -10.5777	 -0.360471	
  -10.6272	-2.83062e-05	  -10.6188	-2.19077e-05	  -10.5936	-2.41864e-05	  -10.6132	-2.48001e-05	  -10.6132	 -0.620002	
  -10.6625	-3.85778e-05	  -10.6539	-3.22517e-05	  -10.6287	-3.46383e-05	  -10.6484	-3.51559e-05	  -10.6484	 -0.878899	
  -10.6975	-4.88671e-05	  -10.6887	-4.25093e-05	  -10.6635	-4.50515e-05	  -10.6832	-4.5476e-05	  -10.6832	   -1.1369	
   -10.732	-5.92317e-05	  -10.7232	-5.27422e-05	   -10.698	-5.54241e-05	  -10.7177	-5.57993e-05	  -10.7177	  -1.39498	
   -10.766	-6.96036e-05	  -10.7573	-6.30387e-05	  -10.7322	-6.57926e-05	  -10.7518	-6.61449e-05	  -10.7518	  -1.65362	
  -10.7995	-7.98975e-05	  -10.7909	-7.33819e-05	  -10.7658	-7.61812e-05	  -10.7854	-7.64869e-05	  -10.7854	  -1.91217	
  -10.8323	-9.01494e-05	  -10.8241	-8.36755e-05	   -10.799	-8.65622e-05	  -10.8185	-8.67957e-05	  -10.8185	  -2.16989	
  -10.8649	-0.000100456	  -10.8568	-9.38916e-05	  -10.8316	-9.68959e-05	  -10.8511	-9.70813e-05	  -10.8511	  -2.42703	
   -10.897	-0.000110828	  -10.8892	-0.000104107	  -10.8638	-0.000107197	  -10.8833	-0.000107377	  -10.8833	  -2.68444	
   -10.929	-0.000121177	  -10.9211	-0.000114384	  -10.8956	-0.000117509	  -10.9152	-0.00011769	  -10.9152	  -2.94225	
  -10.9606	-0.000131466	  -10.9528	-0.000124681	  -10.9271	-0.000127841	  -10.9468	-0.000127996	  -10.9468	   -3.1999	
  -10.9917	-0.00014175	  -10.9841	-0.000134912	  -10.9584	-0.000138152	  -10.9781	-0.000138272	  -10.9781	  -3.45679	
  -11.0225	-0.000152061	  -11.0149	-0.000145086	  -10.9893	-0.000148396	  -11.0089	-0.000148514	  -11.0089	  -3.71285	
  -11.0526	-0.000162351	  -11.0452	-0.000155288	  -11.0197	-0.000158591	  -11.0392	-0.000158744	  -11.0392	  -3.96859	
  -11.0822	-0.000172573	   -11.075	-0.000165547	  -11.0497	-0.000168825	  -11.0689	-0.000168982	  -11.0689	  -4.22454	
  -11.1114	-0.000182776	   -11.104	-0.000175789	   -11.079	-0.000179132	  -11.0981	-0.000179232	  -11.0981	  -4.48081	
    -11.14	-0.000193047	  -11.1327	-0.000185954	  -11.1078	-0.00018943	  -11.1268	-0.000189477	  -11.1268	  -4.73692	
  -11.1682	-0.000203364	  -11.1609	-0.000196079	   -11.136	-0.000199628	   -11.155	-0.000199691	   -11.155	  -4.99227	
  -11.1962	-0.000213618	  -11.1888	-0.000206237	  -11.1636	-0.00020977	  -11.1829	-0.000209875	  -11.1829	  -5.24688	
  -11.2239	-0.000223764	  -11.2163	-0.000216425	  -11.1908	-0.000219976	  -11.2104	-0.000220055	  -11.2104	  -5.50137	
  -11.2513	-0.0002339	  -11.2435	-0.000226571	  -11.2177	-0.000230263	  -11.2375	-0.000230245	  -11.2375	  -5.75611	
  -11.2782	-0.000244108	  -11.2703	-0.000236656	  -11.2444	-0.000240523	  -11.2643	-0.000240429	  -11.2643	  -6.01072	
  -11.3047	-0.000254337	  -11.2967	-0.000246735	  -11.2707	-0.000250692	  -11.2907	-0.000250588	  -11.2907	   -6.2647	
  -11.3307	-0.000264483	  -11.3226	-0.000256862	  -11.2965	-0.000260834	  -11.3166	-0.000260726	  -11.3166	  -6.51815	
  -11.3561	-0.000274565	   -11.348	-0.000266996	   -11.322	-0.000271001	   -11.342	-0.000270854	   -11.342	  -6.77135	
  -11.3809	-0.000284681	  -11.3728	-0.00027708	   -11.347	-0.000281194	  -11.3669	-0.000280985	  -11.3669	  -7.02463	
  -11.4051	-0.000294862	   -11.397	-0.000287144	  -11.3714	-0.00029137	  -11.3912	-0.000291125	  -11.3912	  -7.27814	
  -11.4287	-0.00030502	  -11.4207	-0.000297221	  -11.3953	-0.000301506	  -11.4149	-0.000301249	  -11.4149	  -7.53123	
  -11.4518	-0.000315091	  -11.4436	-0.000307278	  -11.4186	-0.00031162	   -11.438	-0.00031133	   -11.438	  -7.78324	
  -11.4744	-0.000325127	  -11.4662	-0.000317266	  -11.4413	-0.000321718	  -11.4606	-0.000321371	  -11.4606	  -8.03426	
  -11.4967	-0.000335215	  -11.4882	-0.000327257	  -11.4633	-0.000331807	  -11.4827	-0.000331426	  -11.4827	  -8.28566	
  -11.5187	-0.00034534	  -11.5099	-0.000337321	  -11.4847	-0.00034188	  -11.5044	-0.000341514	  -11.5044	  -8.53784	
  -11.5405	-0.000355415	  -11.5312	-0.00034741	  -11.5056	-0.000351917	  -11.5258	-0.00035158	  -11.5258	  -8.78951	
  -11.5619	-0.000365412	  -11.5517	-0.000357451	  -11.5261	-0.000361905	  -11.5466	-0.000361589	  -11.5466	  -9.03973	
   -11.583	-0.000375401	  -11.5715	-0.000367473	  -11.5462	-0.000371893	  -11.5669	-0.000371589	  -11.5669	  -9.28973	
  -11.6038	-0.000385435	  -11.5911	-0.000377501	   -11.566	-0.00038192	   -11.587	-0.000381618	   -11.587	  -9.54046	
  -11.6241	-0.000395472	  -11.6107	-0.000387482	  -11.5854	-0.000391951	  -11.6067	-0.000391635	  -11.6067	  -9.79087	
   -11.644	-0.000405446	  -11.6303	-0.000397404	  -11.6043	-0.000401919	  -11.6262	-0.000401589	  -11.6262	  -10.0397	
  -11.6634	-0.000415356	  -11.6494	-0.000407374	  -11.6228	-0.00041182	  -11.6452	-0.000411517	  -11.6452	  -10.2879	
  -11.6823	-0.00042527	  -11.6678	-0.000417436	  -11.6409	-0.000421726	  -11.6637	-0.000421477	  -11.6637	  -10.5369	
  -11.7006	-0.000435215	  -11.6858	-0.000427455	  -11.6585	-0.000431673	  -11.6817	-0.000431448	  -11.6817	  -10.7862	
  -11.7184	-0.000445138	  -11.7033	-0.000437349	  -11.6758	-0.00044161	  -11.6992	-0.000441366	  -11.6992	  -11.0341	
  -11.7357	-0.000454989	  -11.7204	-0.000447213	  -11.6925	-0.000451478	  -11.7162	-0.000451227	  -11.7162	  -11.2807	
  -11.7523	-0.000464796	  -11.7369	-0.000457156	  -11.7089	-0.000461299	  -11.7327	-0.000461084	  -11.7327	  -11.5271	
  -11.7684	-0.000474619	  -11.7529	-0.000467121	  -11.7249	-0.000471133	  -11.7487	-0.000470958	  -11.7487	  -11.7739	
  -11.7838	-0.000484453	  -11.7684	-0.000476985	  -11.7405	-0.00048099	  -11.7642	-0.000480809	  -11.7642	  -12.0202	
  -11.7987	-0.000494253	  -11.7834	-0.000486753	  -11.7556	-0.000490794	  -11.7792	-0.0004906	  -11.7792	   -12.265	
   -11.813	-0.00050399	  -11.7978	-0.000496537	  -11.7702	-0.000500535	  -11.7937	-0.000500354	  -11.7937	  -12.5088	
  -11.8268	-0.000513681	  -11.8118	-0.00050639	  -11.7844	-0.000510281	  -11.8077	-0.000510117	  -11.8077	  -12.7529	
  -11.8399	-0.000523361	  -11.8251	-0.000516236	  -11.7981	-0.000520052	   -11.821	-0.000519883	   -11.821	  -12.9971	
  -11.8526	-0.000533044	  -11.8379	-0.00052599	  -11.8113	-0.000529786	  -11.8339	-0.000529607	  -11.8339	  -13.2402	
  -11.8647	-0.000542709	  -11.8502	-0.000535675	   -11.824	-0.000539459	  -11.8463	-0.000539281	  -11.8463	   -13.482	
  -11.8764	-0.000552326	   -11.862	-0.000545374	  -11.8362	-0.000549094	  -11.8582	-0.000548931	  -11.8582	  -13.7233	
  -11.8875	-0.000561901	  -11.8732	-0.000555125	  -11.8479	-0.000558717	  -11.8695	-0.000558581	  -11.8695	  -13.9645	
  -11.8983	-0.000571483	   -11.884	-0.000564882	  -11.8591	-0.000568318	  -11.8805	-0.000568228	  -11.8805	  -14.2057	
  -11.9086	-0.000581087	  -11.8943	-0.00057457	  -11.8698	-0.000577888	  -11.8909	-0.000577848	  -11.8909	  -14.4462	
  -11.9183	-0.000590648	   -11.904	-0.000584145	  -11.8801	-0.000587429	  -11.9008	-0.000587407	  -11.9008	  -14.6852	
  -11.9274	-0.000600105	  -11.9132	-0.000593685	  -11.8898	-0.000596921	  -11.9101	-0.000596904	  -11.9101	  -14.9226	
   -11.936	-0.000609496	  -11.9219	-0.000603307	  -11.8991	-0.000606356	   -11.919	-0.000606386	   -11.919	  -15.1597	
  -11.9442	-0.000618921	  -11.9302	-0.000612979	  -11.9079	-0.000615769	  -11.9274	-0.00061589	  -11.9274	  -15.3972	
  -11.9519	-0.000628388	  -11.9379	-0.000622553	  -11.9162	-0.000625167	  -11.9353	-0.00062537	  -11.9353	  -15.6342	
   -11.959	-0.000637796	  -11.9452	-0.000631979	  -11.9241	-0.000634512	  -11.9428	-0.000634762	  -11.9428	  -15.8691	
  -11.9657	-0.000647074	  -11.9521	-0.000641379	  -11.9315	-0.00064378	  -11.9498	-0.000644077	  -11.9498	  -16.1019	
  -11.9719	-0.000656283	  -11.9585	-0.000650854	  -11.9385	-0.000653005	  -11.9563	-0.000653381	  -11.9563	  -16.3345	
  -11.9777	-0.000665515	  -11.9645	-0.000660328	  -11.9451	-0.00066222	  -11.9624	-0.000662688	  -11.9624	  -16.5672	
  -11.9829	-0.000674761	  -11.9701	-0.000669653	  -11.9513	-0.000671405	  -11.9681	-0.00067194	  -11.9681	  -16.7985	
  -11.9878	-0.000683928	  -11.9753	-0.000678855	   -11.957	-0.00068052	  -11.9734	-0.000681101	  -11.9734	  -17.0275	
  -11.9924	-0.000692985	    -11.98	-0.000688083	  -11.9624	-0.000689579	  -11.9783	-0.000690216	  -11.9783	  -17.2554	
  -11.9965	-0.000702006	  -11.9844	-0.000697405	  -11.9675	-0.000698653	  -11.9828	-0.000699355	  -11.9828	  -17.4839	
  -12.0003	-0.000711051	  -11.9885	-0.000706685	  -11.9722	-0.000707734	   -11.987	-0.00070849	   -11.987	  -17.7122	
  -12.0037	-0.000720068	  -11.9921	-0.000715774	  -11.9765	-0.000716711	  -11.9908	-0.000717518	  -11.9908	  -17.9379	
  -12.0067	-0.000728976	  -11.9955	-0.000724739	  -11.9805	-0.000725542	  -11.9942	-0.000726419	  -11.9942	  -18.1605	
  -12.0094	-0.000737807	  -11.9985	-0.000733761	  -11.9842	-0.000734325	  -11.9974	-0.000735297	  -11.9974	  -18.3824	
  -12.0118	-0.000746661	  -12.0012	-0.000742878	  -11.9876	-0.000743195	  -12.0002	-0.000744244	  -12.0002	  -18.6061	
  -12.0139	-0.000755553	  -12.0036	-0.000751919	  -11.9906	-0.000752116	  -12.0027	-0.000753196	  -12.0027	  -18.8299	
  -12.0157	-0.000764366	  -12.0057	-0.000760751	  -11.9931	-0.000760927	  -12.0048	-0.000762014	  -12.0048	  -19.0504	
  -12.0172	-0.00077302	  -12.0074	-0.000769484	  -11.9953	-0.000769575	  -12.0066	-0.000770693	  -12.0066	  -19.2673	
  -12.0184	-0.000781612	  -12.0087	-0.000778293	  -11.9967	-0.000778187	   -12.008	-0.000779364	   -12.008	  -19.4841	
  -12.0193	-0.000790266	  -12.0096	-0.000787153	  -11.9978	-0.000786874	  -12.0089	-0.000788098	  -12.0089	  -19.7024	
  -12.0197	-0.000798928	  -12.0101	-0.00079588	  -11.9982	-0.000795561	  -12.0093	-0.00079679	  -12.0093	  -19.9197	
  -12.0197	-0.000807462	    -12.01	-0.000804432	  -11.9979	-0.000804114	  -12.0092	-0.000805336	  -12.0092	  -20.1334	
  -12.0193	-0.000815862	  -12.0094	-0.000812958	   -11.997	-0.000812543	  -12.0086	-0.000813788	  -12.0086	  -20.3447	
  -12.0182	-0.000824255	   -12.008	-0.000821544	  -11.9954	-0.000820973	  -12.0072	-0.000822257	  -12.0072	  -20.5564	
  -12.0164	-0.000832694	  -12.0061	-0.000830105	  -11.9933	-0.000829445	  -12.0053	-0.000830748	  -12.0053	  -20.7687	
   -12.014	-0.000841087	  -12.0037	-0.000838557	  -11.9907	-0.000837873	  -12.0028	-0.000839172	  -12.0028	  -20.9793	
  -12.0111	-0.000849354	  -12.0007	-0.000846941	  -11.9876	-0.000846176	  -11.9998	-0.00084749	  -11.9998	  -21.1873	
  -12.0077	-0.000857541	  -11.9973	-0.000855296	  -11.9841	-0.0008544	  -11.9964	-0.000855746	  -11.9964	  -21.3936	
  -12.0038	-0.000865734	  -11.9935	-0.000863577	  -11.9802	-0.000862639	  -11.9925	-0.000863983	  -11.9925	  -21.5996	
  -11.9995	-0.000873943	  -11.9893	-0.000871755	   -11.976	-0.000870902	  -11.9883	-0.0008722	  -11.9883	   -21.805	
  -11.9948	-0.000882097	  -11.9848	-0.000879893	  -11.9715	-0.000879101	  -11.9837	-0.000880364	  -11.9837	  -22.0091	
  -11.9898	-0.000890138	    -11.98	-0.000888059	  -11.9667	-0.000887198	  -11.9788	-0.000888465	  -11.9788	  -22.2116	
  -11.9845	-0.000898124	  -11.9747	-0.000896215	  -11.9615	-0.000895243	  -11.9736	-0.000896527	  -11.9736	  -22.4132	
  -11.9787	-0.000906142	  -11.9692	-0.000904273	  -11.9558	-0.000903304	  -11.9679	-0.000904573	  -11.9679	  -22.6143	
  -11.9726	-0.000914171	  -11.9633	-0.000912218	  -11.9494	-0.000911363	  -11.9618	-0.000912584	  -11.9618	  -22.8146	
  -11.9659	-0.000922117	  -11.9568	-0.000920139	  -11.9424	-0.000919341	   -11.955	-0.000920532	   -11.955	  -23.0133	
  -11.9587	-0.000929962	  -11.9497	-0.000928093	  -11.9348	-0.00092721	  -11.9477	-0.000928422	  -11.9477	  -23.2105	
  -11.9509	-0.000937794	  -11.9419	-0.000936025	  -11.9267	-0.000935054	  -11.9399	-0.000936291	  -11.9399	  -23.4073	
  -11.9425	-0.000945667	  -11.9337	-0.000943852	  -11.9182	-0.000942957	  -11.9315	-0.000944159	  -11.9315	   -23.604	
  -11.9337	-0.000953504	   -11.925	-0.000951592	  -11.9094	-0.000950832	  -11.9227	-0.000951976	  -11.9227	  -23.7994	
  -11.9244	-0.00096124	  -11.9159	-0.000959334	  -11.9002	-0.000958524	  -11.9135	-0.000959699	  -11.9135	  -23.9925	
  -11.9148	-0.000968913	  -11.9066	-0.000967111	  -11.8903	-0.000966061	  -11.9039	-0.000967361	  -11.9039	   -24.184	
  -11.9048	-0.000976589	  -11.8968	-0.000974839	    -11.88	-0.000973674	  -11.8939	-0.000975034	  -11.8939	  -24.3758	
  -11.8943	-0.000984261	  -11.8865	-0.000982459	  -11.8693	-0.000981423	  -11.8834	-0.000982715	  -11.8834	  -24.5679	
  -11.8833	-0.000991873	  -11.8758	-0.000990018	   -11.858	-0.000989103	  -11.8724	-0.000990331	  -11.8724	  -24.7583	
  -11.8717	-0.000999398	  -11.8646	-0.000997581	  -11.8462	-0.000996563	  -11.8608	-0.000997847	  -11.8608	  -24.9462	
  -11.8594	-0.00100687	  -11.8527	-0.00100515	  -11.8337	-0.00100392	  -11.8486	-0.00100532	  -11.8486	  -25.1329	
  -11.8466	-0.0010143	  -11.8403	-0.00101269	  -11.8208	-0.00101137	  -11.8359	-0.00101279	  -11.8359	  -25.3197	
  -11.8334	-0.0010217	  -11.8276	-0.00102017	  -11.8077	-0.00101893	  -11.8229	-0.00102027	  -11.8229	  -25.5066	
  -11.8191	-0.00102911	  -11.8144	-0.00102758	  -11.7942	-0.0010264	  -11.8092	-0.0010277	  -11.8092	  -25.6924	
   -11.804	-0.00103651	   -11.801	-0.00103494	  -11.7802	-0.00103372	   -11.795	-0.00103506	   -11.795	  -25.8764	
   -11.789	-0.00104383	  -11.7872	-0.00104227	  -11.7656	-0.00104098	  -11.7806	-0.00104236	  -11.7806	   -26.059	
  -11.7741	-0.00105102	  -11.7728	-0.00104959	  -11.7505	-0.0010483	  -11.7658	-0.00104964	  -11.7658	   -26.241	
  -11.7591	-0.00105815	  -11.7576	-0.00105686	  -11.7351	-0.00105566	  -11.7506	-0.00105689	  -11.7506	  -26.4222	
  -11.7436	-0.00106532	  -11.7421	-0.00106402	   -11.719	-0.00106292	  -11.7349	-0.00106409	  -11.7349	  -26.6022	
  -11.7273	-0.00107253	  -11.7262	-0.00107115	  -11.7025	-0.00107004	  -11.7187	-0.00107124	  -11.7187	   -26.781	
  -11.7103	-0.00107963	  -11.7099	-0.0010783	  -11.6856	-0.00107711	  -11.7019	-0.00107835	  -11.7019	  -26.9587	
  -11.6927	-0.00108658	  -11.6929	-0.00108544	  -11.6683	-0.00108424	  -11.6846	-0.00108542	  -11.6846	  -27.1356	
  -11.6748	-0.00109349	  -11.6753	-0.0010925	  -11.6503	-0.00109138	  -11.6668	-0.00109245	  -11.6668	  -27.3113	
  -11.6566	-0.00110045	  -11.6572	-0.00109946	  -11.6318	-0.0010984	  -11.6485	-0.00109944	  -11.6485	  -27.4859	
  -11.6378	-0.00110742	  -11.6385	-0.00110642	  -11.6127	-0.0011053	  -11.6297	-0.00110638	  -11.6297	  -27.6595	
  -11.6186	-0.00111429	  -11.6191	-0.0011134	  -11.5933	-0.00111219	  -11.6103	-0.0011133	  -11.6103	  -27.8324	
  -11.5988	-0.00112107	  -11.5992	-0.00112034	  -11.5735	-0.00111913	  -11.5905	-0.00112018	  -11.5905	  -28.0045	
  -11.5787	-0.00112784	  -11.5791	-0.00112717	  -11.5531	-0.00112601	  -11.5703	-0.00112701	  -11.5703	  -28.1752	
  -11.5581	-0.0011346	  -11.5582	-0.00113395	  -11.5321	-0.00113275	  -11.5495	-0.00113377	  -11.5495	  -28.3442	
  -11.5368	-0.00114127	  -11.5369	-0.00114073	  -11.5105	-0.00113943	  -11.5281	-0.00114048	  -11.5281	  -28.5119	
   -11.515	-0.00114784	   -11.515	-0.00114751	  -11.4884	-0.00114612	  -11.5061	-0.00114716	  -11.5061	  -28.6789	
  -11.4926	-0.00115436	  -11.4927	-0.00115421	   -11.466	-0.00115281	  -11.4838	-0.00115379	  -11.4838	  -28.8448	
  -11.4699	-0.00116088	  -11.4699	-0.00116081	  -11.4433	-0.0011594	   -11.461	-0.00116037	   -11.461	  -29.0091	
   -11.447	-0.00116737	  -11.4468	-0.00116736	    -11.42	-0.00116587	  -11.4379	-0.00116687	  -11.4379	  -29.1717	
  -11.4238	-0.00117375	  -11.4231	-0.00117391	  -11.3964	-0.00117229	  -11.4144	-0.00117332	  -11.4144	  -29.3329	
  -11.3998	-0.00118005	  -11.3988	-0.00118041	  -11.3723	-0.00117873	  -11.3903	-0.00117973	  -11.3903	  -29.4932	
  -11.3754	-0.00118633	  -11.3741	-0.00118681	  -11.3478	-0.00118513	  -11.3657	-0.00118609	  -11.3657	  -29.6523	
  -11.3505	-0.00119262	  -11.3489	-0.00119313	  -11.3229	-0.00119142	  -11.3407	-0.00119239	  -11.3407	  -29.8098	
  -11.3252	-0.00119883	  -11.3235	-0.00119941	  -11.2975	-0.00119761	  -11.3154	-0.00119862	  -11.3154	  -29.9654	
  -11.2996	-0.00120491	  -11.2975	-0.00120569	  -11.2717	-0.00120377	  -11.2896	-0.00120479	  -11.2896	  -30.1198	
  -11.2733	-0.00121095	   -11.271	-0.0012119	  -11.2453	-0.00120994	  -11.2632	-0.00121093	  -11.2632	  -30.2732	
  -11.2464	-0.00121699	  -11.2441	-0.00121803	  -11.2184	-0.00121603	  -11.2363	-0.00121702	  -11.2363	  -30.4254	
  -11.2191	-0.00122299	  -11.2167	-0.0012241	  -11.1912	 -0.001222	   -11.209	-0.00122303	   -11.209	  -30.5758	
  -11.1915	-0.00122889	  -11.1889	-0.00123016	  -11.1635	-0.00122788	  -11.1813	-0.00122898	  -11.1813	  -30.7244	
  -11.1636	-0.00123469	  -11.1609	-0.00123618	  -11.1352	-0.0012338	  -11.1532	-0.00123489	  -11.1532	  -30.8722	
  -11.1354	-0.00124049	  -11.1323	-0.00124213	  -11.1063	-0.00123977	  -11.1246	-0.0012408	  -11.1246	  -31.0199	
  -11.1065	-0.00124631	  -11.1032	-0.00124802	  -11.0769	-0.00124563	  -11.0955	-0.00124665	  -11.0955	  -31.1663	
  -11.0772	-0.00125207	  -11.0737	-0.00125384	  -11.0474	-0.00125129	  -11.0661	-0.0012524	  -11.0661	  -31.3099	
  -11.0475	-0.00125772	  -11.0439	-0.00125959	  -11.0179	-0.00125683	  -11.0364	-0.00125805	  -11.0364	  -31.4513	
  -11.0175	-0.00126333	  -11.0136	-0.00126532	  -10.9879	-0.00126246	  -11.0063	-0.0012637	  -11.0063	  -31.5926	
  -10.9869	-0.00126895	  -10.9827	-0.00127104	  -10.9571	-0.00126814	  -10.9755	-0.00126938	  -10.9755	  -31.7345	
  -10.9557	-0.00127455	  -10.9513	-0.0012767	  -10.9259	-0.0012737	  -10.9443	-0.00127498	  -10.9443	  -31.8746	
   -10.924	-0.00128005	  -10.9195	-0.00128224	  -10.8945	-0.00127905	  -10.9127	-0.00128045	  -10.9127	  -32.0112	
   -10.892	-0.00128548	  -10.8875	-0.00128771	  -10.8627	-0.0012843	  -10.8807	-0.00128583	  -10.8807	  -32.1458	
  -10.8597	-0.00129089	  -10.8548	-0.00129318	  -10.8306	-0.0012896	  -10.8483	-0.00129122	  -10.8483	  -32.2806	
  -10.8268	-0.0012963	  -10.8216	-0.00129863	  -10.7979	-0.00129495	  -10.8154	-0.00129662	  -10.8154	  -32.4156	
  -10.7933	-0.00130169	   -10.788	-0.00130399	  -10.7649	-0.00130019	  -10.7821	-0.00130196	  -10.7821	   -32.549	
   -10.759	-0.00130708	  -10.7542	-0.00130927	  -10.7315	-0.00130526	  -10.7482	-0.0013072	  -10.7482	    -32.68	
  -10.7242	-0.00131241	  -10.7199	-0.00131451	  -10.6976	-0.00131022	  -10.7139	-0.00131238	  -10.7139	  -32.8095	
  -10.6895	-0.00131761	   -10.685	-0.00131976	  -10.6632	-0.00131525	  -10.6792	-0.00131754	  -10.6792	  -32.9386	
  -10.6548	-0.00132274	  -10.6496	-0.00132496	  -10.6284	-0.00132032	  -10.6443	-0.00132267	  -10.6443	  -33.0668	
  -10.6198	-0.00132789	   -10.614	-0.00133004	  -10.5931	-0.00132524	   -10.609	-0.00132772	   -10.609	  -33.1931	
  -10.5841	-0.00133308	   -10.578	-0.00133506	  -10.5575	-0.00132999	  -10.5732	-0.00133271	  -10.5732	  -33.3178	
  -10.5477	-0.0013382	  -10.5416	-0.00134009	  -10.5212	-0.00133475	  -10.5368	-0.00133768	  -10.5368	   -33.442	
  -10.5108	-0.00134319	  -10.5046	-0.00134513	  -10.4845	-0.0013396	     -10.5	-0.00134264	     -10.5	  -33.5659	
  -10.4736	-0.00134811	  -10.4674	-0.00135006	  -10.4475	-0.00134439	  -10.4628	-0.00134752	  -10.4628	   -33.688	
  -10.4361	-0.00135305	  -10.4299	-0.00135485	  -10.4102	-0.00134898	  -10.4254	-0.0013523	  -10.4254	  -33.8074	
  -10.3982	 -0.001358	  -10.3918	-0.00135958	  -10.3723	-0.00135353	  -10.3874	-0.00135703	  -10.3874	  -33.9259	
  -10.3597	-0.00136285	  -10.3533	-0.00136436	   -10.334	-0.00135818	   -10.349	-0.0013618	   -10.349	  -34.0449	
  -10.3209	-0.00136758	  -10.3144	-0.00136916	  -10.2955	-0.00136283	  -10.3103	-0.00136652	  -10.3103	  -34.1631	
  -10.2818	-0.00137226	  -10.2752	-0.00137383	  -10.2565	-0.00136728	  -10.2711	-0.00137112	  -10.2711	   -34.278	
  -10.2421	-0.00137697	  -10.2355	-0.00137833	  -10.2169	-0.00137151	  -10.2315	-0.0013756	  -10.2315	    -34.39	
   -10.202	-0.00138165	  -10.1953	-0.00138283	  -10.1769	-0.00137577	  -10.1914	-0.00138008	  -10.1914	  -34.5021	
  -10.1616	-0.00138623	  -10.1548	-0.00138738	  -10.1367	-0.00138019	  -10.1511	-0.0013846	  -10.1511	   -34.615	
  -10.1208	-0.0013907	   -10.114	-0.00139188	   -10.096	-0.00138457	  -10.1103	-0.00138905	  -10.1103	  -34.7263	
  -10.0795	-0.00139515	  -10.0725	-0.00139621	  -10.0548	-0.0013887	  -10.0689	-0.00139335	  -10.0689	  -34.8338	
  -10.0377	-0.00139963	  -10.0307	-0.00140044	  -10.0132	-0.0013927	  -10.0272	-0.00139759	  -10.0272	  -34.9398	
  -9.99565	-0.00140409	  -9.98872	-0.0014047	  -9.97142	-0.00139681	  -9.98526	-0.00140187	  -9.98526	  -35.0467	
  -9.95326	-0.00140839	  -9.94623	-0.00140898	  -9.92909	 -0.001401	  -9.94286	-0.00140612	  -9.94286	   -35.153	
  -9.91038	-0.00141251	  -9.90322	-0.00141314	  -9.88629	-0.00140503	  -9.89996	-0.00141023	  -9.89996	  -35.2557	
  -9.86713	-0.0014166	  -9.85987	-0.00141716	  -9.84319	-0.00140884	  -9.85673	-0.0014142	  -9.85673	  -35.3551	
  -9.82359	-0.00142079	  -9.81628	-0.00142112	  -9.79982	-0.00141265	  -9.81323	-0.00141819	  -9.81323	  -35.4546	
  -9.77971	-0.00142498	  -9.77214	-0.00142508	  -9.75602	-0.00141658	  -9.76929	-0.00142221	  -9.76929	  -35.5553	
  -9.73532	-0.00142904	  -9.72756	-0.00142904	   -9.7118	-0.00142047	   -9.7249	-0.00142618	   -9.7249	  -35.6545	
  -9.69064	-0.00143292	  -9.68273	-0.00143294	  -9.66728	-0.00142418	  -9.68021	-0.00143001	  -9.68021	  -35.7503	
  -9.64568	-0.00143678	  -9.63746	-0.00143672	  -9.62227	-0.00142778	  -9.63514	-0.00143376	  -9.63514	  -35.8439	
  -9.60021	-0.00144069	  -9.59165	-0.00144041	  -9.57684	-0.00143145	  -9.58957	-0.00143752	  -9.58957	  -35.9379	
  -9.55426	-0.00144457	  -9.54552	-0.00144409	   -9.5311	-0.00143518	  -9.54363	-0.00144128	  -9.54363	   -36.032	
  -9.50795	-0.00144831	  -9.49899	-0.00144776	  -9.48507	-0.00143883	  -9.49734	-0.00144497	  -9.49734	  -36.1242	
  -9.46142	-0.00145196	    -9.452	-0.00145138	  -9.43852	-0.00144231	  -9.45064	-0.00144855	  -9.45064	  -36.2138	
  -9.41439	-0.00145562	  -9.40461	-0.0014549	  -9.39156	-0.00144575	  -9.40352	-0.00145209	  -9.40352	  -36.3023	
  -9.36709	-0.00145928	  -9.35694	-0.00145835	  -9.34442	-0.00144927	  -9.35615	-0.00145564	  -9.35615	  -36.3909	
  -9.31985	-0.00146281	  -9.30884	-0.00146179	  -9.29684	-0.00145281	  -9.30851	-0.00145914	  -9.30851	  -36.4785	
  -9.27235	-0.00146622	  -9.26026	-0.00146519	  -9.24887	-0.00145622	  -9.26049	-0.00146255	  -9.26049	  -36.5636	
  -9.22415	-0.00146963	  -9.21143	-0.00146852	  -9.20055	-0.00145949	  -9.21204	-0.00146588	  -9.21204	   -36.647	
  -9.17544	-0.00147306	  -9.16243	-0.00147175	  -9.15191	-0.00146277	  -9.16326	-0.0014692	  -9.16326	  -36.7299	
   -9.1264	-0.00147641	  -9.11296	-0.00147494	   -9.1028	-0.00146612	  -9.11405	-0.00147249	  -9.11405	  -36.8122	
  -9.07669	-0.00147956	  -9.06315	-0.0014781	  -9.05336	-0.00146942	   -9.0644	-0.00147569	   -9.0644	  -36.8924	
  -9.02657	-0.00148263	  -9.01321	-0.00148122	  -9.00371	-0.00147257	   -9.0145	-0.00147881	   -9.0145	  -36.9702	
  -8.97661	-0.00148576	  -8.96291	-0.00148427	  -8.95356	-0.00147562	  -8.96436	-0.00148189	  -8.96436	  -37.0472	
  -8.92638	-0.00148895	  -8.91228	-0.00148725	  -8.90302	-0.0014787	  -8.91389	-0.00148497	  -8.91389	  -37.1242	
  -8.87562	-0.00149204	  -8.86137	-0.00149019	  -8.85223	-0.00148182	  -8.86307	-0.00148802	  -8.86307	  -37.2004	
  -8.82428	-0.00149497	  -8.81024	-0.00149309	  -8.80117	-0.00148485	   -8.8119	-0.00149097	   -8.8119	  -37.2743	
  -8.77252	-0.00149779	  -8.75866	-0.00149594	  -8.74968	-0.00148775	  -8.76028	-0.00149383	  -8.76028	  -37.3457	
  -8.72062	-0.00150064	  -8.70683	-0.00149873	  -8.69797	-0.00149057	  -8.70847	-0.00149665	  -8.70847	  -37.4162	
  -8.66862	-0.00150353	  -8.65488	-0.00150145	    -8.646	-0.00149339	   -8.6565	-0.00149946	   -8.6565	  -37.4864	
  -8.61629	-0.00150632	  -8.60256	-0.00150412	  -8.59355	-0.00149624	  -8.60413	-0.00150223	  -8.60413	  -37.5557	
   -8.5636	-0.00150895	  -8.54995	-0.00150675	  -8.54003	-0.00149907	  -8.55119	-0.00150493	  -8.55119	  -37.6231	
  -8.51055	-0.00151151	   -8.4971	-0.00150932	  -8.48582	-0.00150181	  -8.49782	-0.00150755	  -8.49782	  -37.6886	
  -8.45701	-0.00151411	  -8.44379	-0.00151181	  -8.43162	-0.0015044	  -8.44414	-0.00151011	  -8.44414	  -37.7527	
  -8.40304	-0.00151671	  -8.39017	-0.00151425	  -8.37773	-0.00150687	  -8.39031	-0.00151261	  -8.39031	  -37.8153	
  -8.34869	-0.0015192	  -8.33635	-0.00151664	  -8.32387	-0.00150932	  -8.33631	-0.00151505	  -8.33631	  -37.8763	
  -8.29403	-0.00152157	  -8.28215	-0.00151899	   -8.2695	-0.00151175	  -8.28189	-0.00151744	  -8.28189	   -37.936	
  -8.23894	-0.00152391	   -8.2276	-0.00152127	  -8.21471	-0.00151412	  -8.22708	-0.00151977	  -8.22708	  -37.9942	
  -8.18364	-0.00152625	  -8.17285	-0.00152348	  -8.15946	-0.00151637	  -8.17198	-0.00152203	  -8.17198	  -38.0508	
  -8.12785	-0.00152851	  -8.11775	-0.00152564	  -8.10386	-0.00151855	  -8.11649	-0.00152423	  -8.11649	  -38.1059	
  -8.07172	-0.0015307	   -8.0623	-0.00152776	   -8.0481	-0.00152068	   -8.0607	-0.00152638	   -8.0607	  -38.1595	
  -8.01533	-0.00153286	  -8.00672	-0.00152982	  -7.99213	-0.00152275	  -8.00472	-0.00152848	  -8.00472	  -38.2119	
  -7.95863	-0.00153499	  -7.95064	-0.0015318	  -7.93582	-0.00152474	  -7.94837	-0.00153051	  -7.94837	  -38.2628	
   -7.9016	-0.00153704	  -7.89422	-0.00153376	  -7.87925	-0.00152668	  -7.89169	-0.00153249	  -7.89169	  -38.3122	
  -7.84438	-0.00153895	  -7.83743	-0.00153567	  -7.82229	-0.00152857	   -7.8347	-0.0015344	   -7.8347	    -38.36	
  -7.78684	-0.00154084	  -7.78031	-0.00153748	  -7.76492	-0.00153042	  -7.77736	-0.00153625	  -7.77736	  -38.4062	
  -7.72897	-0.00154278	  -7.72287	-0.00153918	   -7.7073	-0.00153219	  -7.71971	-0.00153805	  -7.71971	  -38.4512	
  -7.67086	-0.00154469	   -7.6651	-0.00154086	  -7.64965	-0.00153384	  -7.66187	-0.0015398	  -7.66187	  -38.4949	
  -7.61224	-0.00154647	  -7.60682	-0.00154256	  -7.59185	-0.0015354	  -7.60363	-0.00154148	  -7.60363	  -38.5369	
  -7.55326	-0.0015481	  -7.54826	-0.00154421	  -7.53385	-0.00153693	  -7.54512	-0.00154308	  -7.54512	   -38.577	
  -7.49398	-0.00154972	  -7.48939	-0.00154573	  -7.47523	-0.00153845	   -7.4862	-0.00154463	   -7.4862	  -38.6158	
  -7.43424	-0.00155141	  -7.43012	-0.00154717	  -7.41601	-0.00153991	  -7.42679	-0.00154616	  -7.42679	  -38.6541	
  -7.37427	-0.00155307	  -7.37061	-0.00154861	  -7.35652	-0.00154122	  -7.36713	-0.00154763	  -7.36713	  -38.6908	
  -7.31423	-0.00155454	  -7.31094	-0.00155004	  -7.29676	-0.00154245	  -7.30731	-0.00154901	  -7.30731	  -38.7253	
  -7.25407	-0.00155587	  -7.25081	-0.00155139	  -7.23661	-0.00154368	  -7.24717	-0.00155031	  -7.24717	  -38.7578	
  -7.19353	-0.00155724	   -7.1904	-0.00155263	  -7.17607	-0.00154485	  -7.18666	-0.00155157	  -7.18666	  -38.7893	
  -7.13257	-0.00155869	  -7.12965	-0.00155381	  -7.11539	-0.00154589	  -7.12587	-0.0015528	  -7.12587	  -38.8199	
  -7.07138	-0.00156004	   -7.0686	-0.00155498	  -7.05453	-0.00154684	  -7.06483	-0.00155395	  -7.06483	  -38.8488	
   -7.0101	-0.0015612	  -7.00732	-0.0015561	  -6.99348	-0.00154777	  -7.00363	-0.00155502	  -7.00363	  -38.8756	
  -6.94855	-0.00156229	  -6.94579	-0.00155714	  -6.93212	-0.00154867	  -6.94215	-0.00155603	  -6.94215	  -38.9008	
   -6.8865	-0.00156348	  -6.88399	-0.00155809	  -6.87046	-0.00154945	  -6.88032	-0.00155701	  -6.88032	  -38.9251	
  -6.82402	-0.00156467	    -6.822	-0.00155897	  -6.80857	-0.00155012	   -6.8182	-0.00155792	   -6.8182	   -38.948	
   -6.7614	-0.0015657	  -6.75956	-0.00155978	  -6.74648	-0.00155077	  -6.75581	-0.00155875	  -6.75581	  -38.9687	
  -6.69867	-0.00156654	  -6.69685	-0.00156055	  -6.68404	-0.00155141	  -6.69319	-0.0015595	  -6.69319	  -38.9875	
  -6.63574	-0.00156739	   -6.6338	-0.00156128	  -6.62138	-0.00155199	  -6.63031	-0.00156022	  -6.63031	  -39.0055	
   -6.5725	-0.00156832	  -6.57048	-0.00156195	  -6.55836	-0.00155246	  -6.56711	-0.00156091	  -6.56711	  -39.0228	
  -6.50903	-0.00156923	  -6.50695	-0.00156254	  -6.49508	-0.00155285	  -6.50369	-0.00156154	  -6.50369	  -39.0386	
  -6.44517	-0.00156995	  -6.44313	-0.00156307	  -6.43153	-0.00155322	  -6.43994	-0.00156208	  -6.43994	   -39.052	
  -6.38114	-0.0015705	    -6.379	-0.00156354	  -6.36762	-0.00155354	  -6.37592	-0.00156253	  -6.37592	  -39.0632	
  -6.31671	-0.00157106	  -6.31475	-0.00156397	  -6.30353	-0.0015538	  -6.31166	-0.00156294	  -6.31166	  -39.0735	
  -6.25209	-0.00157169	  -6.25016	-0.00156434	  -6.23927	-0.00155399	  -6.24717	-0.00156334	  -6.24717	  -39.0834	
  -6.18724	-0.00157225	  -6.18528	-0.00156465	  -6.17473	-0.00155411	  -6.18242	-0.00156367	  -6.18242	  -39.0918	
  -6.12211	-0.00157263	   -6.1202	-0.0015649	  -6.11008	-0.0015542	  -6.11746	-0.00156391	  -6.11746	  -39.0978	
  -6.05675	-0.00157288	   -6.0549	-0.00156508	  -6.04496	-0.00155428	  -6.05221	-0.00156408	  -6.05221	  -39.1021	
  -5.99116	-0.00157316	  -5.98939	-0.00156522	  -5.97958	-0.00155433	  -5.98671	-0.00156424	  -5.98671	  -39.1059	
   -5.9255	-0.00157346	  -5.92374	-0.00156532	    -5.914	-0.00155431	  -5.92108	-0.00156436	  -5.92108	  -39.1091	
  -5.85944	-0.00157367	  -5.85786	-0.00156536	  -5.84805	-0.0015542	  -5.85512	-0.00156441	  -5.85512	  -39.1102	
  -5.79324	-0.00157371	  -5.79184	-0.00156532	  -5.78201	-0.00155407	  -5.78903	-0.00156437	  -5.78903	  -39.1092	
  -5.72665	-0.00157368	  -5.72575	-0.00156523	  -5.71569	-0.00155394	   -5.7227	-0.00156428	   -5.7227	  -39.1071	
  -5.65976	-0.00157368	  -5.65934	-0.00156509	   -5.6491	-0.00155376	  -5.65607	-0.00156418	  -5.65607	  -39.1044	
  -5.59283	-0.00157366	  -5.59277	-0.0015649	  -5.58241	-0.00155349	  -5.58934	-0.00156402	  -5.58934	  -39.1005	
   -5.5256	-0.00157349	  -5.52588	-0.00156466	   -5.5153	-0.00155318	  -5.52226	-0.00156378	  -5.52226	  -39.0944	
  -5.45816	-0.00157322	  -5.45877	-0.00156435	  -5.44794	-0.00155288	  -5.45496	-0.00156348	  -5.45496	  -39.0871	
   -5.3907	-0.00157296	  -5.39133	-0.00156399	  -5.38045	-0.00155253	  -5.38749	-0.00156316	  -5.38749	   -39.079	
  -5.32288	-0.00157272	  -5.32352	-0.00156359	  -5.31265	-0.00155206	  -5.31968	-0.00156279	  -5.31968	  -39.0697	
  -5.25495	-0.00157236	  -5.25562	-0.00156315	  -5.24478	-0.00155149	  -5.25179	-0.00156233	  -5.25179	  -39.0584	
  -5.18684	-0.00157188	  -5.18754	-0.00156266	  -5.17653	-0.00155094	  -5.18364	-0.00156183	  -5.18364	  -39.0457	
  -5.11846	-0.00157137	   -5.1192	-0.00156209	  -5.10807	-0.00155045	  -5.11524	-0.0015613	  -5.11524	  -39.0326	
  -5.04992	-0.00157087	  -5.05078	-0.00156145	  -5.03933	-0.0015499	  -5.04667	-0.00156074	  -5.04667	  -39.0185	
  -4.98111	-0.00157032	  -4.98208	-0.00156078	  -4.97024	-0.00154922	  -4.97781	-0.0015601	  -4.97781	  -39.0026	
  -4.91215	-0.00156966	  -4.91324	-0.00156008	  -4.90108	-0.00154845	  -4.90882	-0.0015594	  -4.90882	   -38.985	
  -4.84301	-0.00156894	  -4.84428	-0.00155933	  -4.83187	-0.0015477	  -4.83972	-0.00155865	  -4.83972	  -38.9664	
  -4.77357	-0.00156821	  -4.77501	-0.00155849	  -4.76241	-0.00154698	  -4.77033	-0.00155789	  -4.77033	  -38.9473	
  -4.70402	-0.00156745	  -4.70563	-0.00155761	   -4.6929	-0.00154619	  -4.70085	-0.00155708	  -4.70085	  -38.9271	
  -4.63429	-0.00156657	  -4.63596	-0.00155671	  -4.62309	-0.00154529	  -4.63111	-0.00155619	  -4.63111	  -38.9048	
  -4.56437	-0.00156556	  -4.56611	-0.00155574	  -4.55315	-0.00154434	  -4.56121	-0.00155521	  -4.56121	  -38.8803	
  -4.49439	-0.00156452	  -4.49598	-0.0015547	  -4.48304	-0.00154341	  -4.49114	-0.00155421	  -4.49114	  -38.8552	
  -4.42408	-0.00156352	  -4.42553	-0.00155361	  -4.41267	-0.00154249	  -4.42076	-0.00155321	  -4.42076	  -38.8301	
  -4.35363	-0.00156249	  -4.35497	-0.00155249	  -4.34222	-0.00154149	  -4.35027	-0.00155216	  -4.35027	  -38.8039	
  -4.28297	-0.00156131	  -4.28421	-0.00155134	  -4.27152	-0.00154036	  -4.27956	 -0.001551	  -4.27956	   -38.775	
  -4.21211	-0.00156001	  -4.21326	-0.0015501	  -4.20068	-0.00153916	  -4.20868	-0.00154976	  -4.20868	  -38.7439	
  -4.14124	-0.0015587	  -4.14223	-0.0015488	  -4.12978	 -0.001538	  -4.13775	-0.0015485	  -4.13775	  -38.7125	
  -4.07024	-0.00155739	  -4.07101	-0.00154745	   -4.0586	-0.00153686	  -4.06662	-0.00154724	  -4.06662	  -38.6809	
  -3.99891	-0.00155599	  -3.99974	-0.00154609	  -3.98731	-0.00153563	  -3.99532	-0.0015459	  -3.99532	  -38.6476	
  -3.92747	-0.00155447	  -3.92836	-0.00154468	   -3.9159	-0.00153426	  -3.92391	-0.00154447	  -3.92391	  -38.6117	
  -3.85591	-0.00155291	  -3.85678	-0.00154321	  -3.84432	-0.00153284	  -3.85233	-0.00154299	  -3.85233	  -38.5747	
  -3.78424	-0.00155136	   -3.7851	-0.00154166	  -3.77262	-0.00153148	  -3.78065	-0.0015415	  -3.78065	  -38.5376	
  -3.71239	-0.00154977	  -3.71324	-0.00154003	  -3.70071	-0.00153012	  -3.70878	-0.00153997	  -3.70878	  -38.4993	
   -3.6403	-0.00154807	   -3.6413	-0.00153836	  -3.62883	-0.00152859	  -3.63681	-0.00153834	  -3.63681	  -38.4585	
  -3.56807	-0.00154629	  -3.56873	-0.00153672	    -3.557	-0.00152692	   -3.5646	-0.00153665	   -3.5646	  -38.4161	
  -3.49563	-0.00154449	  -3.49554	-0.00153509	  -3.48491	-0.00152527	  -3.49202	-0.00153495	  -3.49202	  -38.3738	
  -3.42308	-0.00154269	  -3.42232	-0.00153335	  -3.41264	-0.00152367	  -3.41935	-0.00153323	  -3.41935	  -38.3309	
  -3.35041	-0.00154083	  -3.34927	-0.00153142	  -3.34028	-0.00152199	  -3.34665	-0.00153141	  -3.34665	  -38.2853	
  -3.27758	-0.00153886	  -3.27658	-0.00152937	  -3.26786	-0.00152018	  -3.27401	-0.00152947	  -3.27401	  -38.2367	
  -3.20461	-0.00153679	  -3.20401	-0.00152736	  -3.19498	-0.0015183	   -3.2012	-0.00152749	   -3.2012	  -38.1871	
  -3.13145	-0.0015347	  -3.13128	-0.0015254	  -3.12172	-0.00151645	  -3.12815	-0.00152552	  -3.12815	  -38.1379	
  -3.05827	-0.00153261	  -3.05819	-0.00152332	  -3.04834	-0.00151455	  -3.05493	-0.00152349	  -3.05493	  -38.0873	
  -2.98497	-0.00153043	  -2.98477	-0.00152106	  -2.97512	-0.00151254	  -2.98162	-0.00152134	  -2.98162	  -38.0335	
  -2.91161	-0.00152812	   -2.9113	-0.00151873	  -2.90187	-0.00151044	  -2.90826	-0.0015191	  -2.90826	  -37.9774	
  -2.83792	-0.00152575	  -2.83782	-0.00151644	   -2.8287	-0.00150831	  -2.83481	-0.00151683	  -2.83481	  -37.9208	
  -2.76406	-0.0015234	  -2.76432	-0.00151413	   -2.7555	-0.00150615	  -2.76129	-0.00151456	  -2.76129	   -37.864	
  -2.69014	-0.00152103	  -2.69073	-0.00151167	  -2.68223	-0.00150391	   -2.6877	-0.00151221	   -2.6877	  -37.8052	
  -2.61616	-0.00151856	   -2.6169	-0.00150909	  -2.60864	-0.00150159	   -2.6139	-0.00150975	   -2.6139	  -37.7437	
  -2.54213	-0.00151597	  -2.54295	-0.0015065	  -2.53501	-0.00149919	  -2.54003	-0.00150722	  -2.54003	  -37.6805	
  -2.46807	-0.00151332	  -2.46905	-0.00150394	  -2.46127	-0.00149675	  -2.46613	-0.00150467	  -2.46613	  -37.6167	
  -2.39384	-0.00151067	  -2.39504	-0.0015013	   -2.3875	-0.00149428	  -2.39212	-0.00150208	  -2.39212	   -37.552	
  -2.31961	 -0.001508	   -2.3211	-0.00149852	  -2.31381	-0.00149172	  -2.31817	-0.00149941	  -2.31817	  -37.4853	
  -2.24529	-0.00150523	  -2.24698	-0.00149565	  -2.23995	-0.00148907	  -2.24407	-0.00149665	  -2.24407	  -37.4162	
  -2.17092	-0.00150234	   -2.1728	-0.00149279	  -2.16603	-0.00148635	  -2.16992	-0.00149383	  -2.16992	  -37.3456	
  -2.09649	-0.00149941	  -2.09868	-0.00148992	  -2.09203	-0.00148359	  -2.09573	-0.00149097	  -2.09573	  -37.2743	
  -2.02188	-0.00149649	  -2.02436	-0.00148698	  -2.01785	-0.00148078	  -2.02136	-0.00148808	  -2.02136	  -37.2021	
  -1.94722	-0.00149353	  -1.94998	-0.00148392	  -1.94367	-0.00147792	  -1.94696	-0.00148513	  -1.94696	  -37.1281	
  -1.87227	-0.00149046	  -1.87544	-0.00148095	  -1.86928	-0.00147529	  -1.87233	-0.00148223	  -1.87233	  -37.0558	
  -1.79732	-0.00148726	  -1.80086	-0.00147792	  -1.79485	-0.00147252	  -1.79767	-0.00147923	  -1.79767	  -36.9808	
