# User: ACHyster
# File name: C:/ACHYSTER/ACHyster SENS/SHAMS/CoFe2O4-1gl-water-32 Glycerol-Sens-07-03-2023/CoFe2O4-1gl-water-32 Glycerol- 10_100F- 12 kAm -Sens-07-03-20230000#1.txt
# Saved at: ma. mar. 7 15:54:03 2023
# Hyster Loop (3 iterations). Intensity: 12.0 kA/m; Tuned frequency: 9.4 kHz
# Units x axis: (kA/m)
# Units y axis: "Repeats y" & "Average y" (10^(-3)Am^2); "Mass avg y" (Am^2/kg)
# Magnetic mass: 4e-05 g
# Parameter      	Repeat   1	Repeat   2	Repeat   3	Average   	Sigma     
# H_C (kA/m)     	       7.3	       7.2	       7.1	       7.2	       0.1
# M_R (Am^2/kg)  	      43.1	      43.2	      42.9	      43.1	       0.1
# M_max (Am^2/kg)	      56.3	      57.4	      57.9	      57.2	       0.7
# Area (mJ/kg)   	    1867.3	    1862.5	    1843.3	    1857.7	      10.4
# SAR (W/g)      	      17.6	      17.5	      17.3	      17.5	       0.1
#Repeat 1 x	Repeat 1 y	Repeat 2 x	Repeat 2 y	Repeat 3 x	Repeat 3 y	Average x 	Average y 	Mass avg x 	Mass avg y 
  -1.67424	-0.00195987	  -1.67533	-0.00195783	  -1.67377	-0.0019598	  -1.67445	-0.00195917	  -1.67445	  -48.9792	
  -1.59935	-0.0019505	  -1.60033	-0.00194836	  -1.59902	-0.00195011	  -1.59957	-0.00194966	  -1.59957	  -48.7414	
  -1.52445	-0.00194101	  -1.52522	-0.00193877	  -1.52432	-0.00194024	  -1.52467	  -0.00194	  -1.52467	  -48.5001	
   -1.4494	-0.00193138	  -1.45008	-0.00192912	  -1.44942	-0.00193034	  -1.44963	-0.00193028	  -1.44963	   -48.257	
  -1.37438	-0.00192173	   -1.3749	-0.00191936	  -1.37429	-0.00192029	  -1.37453	-0.00192046	  -1.37453	  -48.0115	
  -1.29933	-0.00191199	  -1.29986	-0.00190943	  -1.29938	-0.00191003	  -1.29952	-0.00191048	  -1.29952	  -47.7621	
  -1.22421	-0.00190202	  -1.22473	-0.0018995	  -1.22427	-0.00189984	  -1.22441	-0.00190045	  -1.22441	  -47.5113	
  -1.14903	-0.00189201	  -1.14942	-0.00188947	  -1.14922	-0.00188945	  -1.14922	-0.00189031	  -1.14922	  -47.2577	
  -1.07374	-0.00188197	  -1.07401	-0.00187927	  -1.07401	-0.00187889	  -1.07392	-0.00188004	  -1.07392	  -47.0011	
 -0.998495	-0.0018717	  -0.99862	-0.00186898	 -0.998859	-0.00186835	 -0.998658	-0.00186968	 -0.998658	   -46.742	
 -0.923132	-0.00186141	 -0.923244	-0.00185855	 -0.923578	-0.0018576	 -0.923318	-0.00185919	 -0.923318	  -46.4797	
  -0.84778	-0.00185109	 -0.847869	-0.00184802	 -0.848294	-0.00184675	 -0.847981	-0.00184862	 -0.847981	  -46.2155	
 -0.772365	-0.00184058	 -0.772427	-0.00183738	 -0.773032	-0.00183579	 -0.772608	-0.00183792	 -0.772608	   -45.948	
 -0.696799	-0.00182992	 -0.696875	-0.00182664	 -0.697672	-0.0018246	 -0.697115	-0.00182706	 -0.697115	  -45.6764	
 -0.621268	-0.00181933	 -0.621445	-0.00181579	 -0.622347	-0.00181338	 -0.621687	-0.00181617	 -0.621687	  -45.4042	
 -0.545755	-0.00180855	 -0.545815	-0.00180481	 -0.546966	-0.00180207	 -0.546179	-0.00180514	 -0.546179	  -45.1286	
 -0.470231	-0.00179753	 -0.470223	-0.00179372	 -0.471479	-0.00179051	 -0.470644	-0.00179392	 -0.470644	   -44.848	
  -0.39465	-0.0017866	 -0.394646	-0.00178262	 -0.395948	-0.00177888	 -0.395081	-0.0017827	 -0.395081	  -44.5675	
 -0.319019	-0.00177551	  -0.31901	-0.00177137	 -0.320353	-0.0017672	 -0.319461	-0.00177136	 -0.319461	   -44.284	
 -0.243348	-0.00176421	 -0.243497	-0.00175998	 -0.244827	-0.00175527	 -0.243891	-0.00175982	 -0.243891	  -43.9955	
 -0.167699	-0.00175296	 -0.167859	-0.00174858	  -0.16915	-0.00174326	 -0.168236	-0.00174827	 -0.168236	  -43.7067	
-0.0921408	-0.0017416	-0.0923257	-0.00173701	 -0.093579	-0.00173124	-0.0926819	-0.00173662	-0.0926819	  -43.4154	
-0.0165311	-0.00173004	-0.0167806	-0.00172532	-0.0179474	-0.00171898	-0.0170864	-0.00172478	-0.0170864	  -43.1195	
 0.0589599	-0.0017185	 0.0587833	-0.00171359	 0.0576966	-0.00170663	   0.05848	-0.00171291	   0.05848	  -42.8228	
  0.134292	-0.00170687	  0.134311	-0.00170174	  0.133227	-0.00169427	  0.133943	-0.00170096	  0.133943	   -42.524	
  0.209742	-0.00169508	  0.209949	-0.00168973	  0.208842	-0.00168168	  0.209511	-0.00168883	  0.209511	  -42.2208	
   0.28508	-0.00168323	  0.285466	-0.00167768	  0.284436	-0.00166899	  0.284994	-0.00167663	  0.284994	  -41.9158	
   0.36045	-0.00167132	  0.360982	-0.00166552	  0.360023	-0.00165624	  0.360485	-0.00166436	  0.360485	   -41.609	
  0.435809	-0.00165919	   0.43648	-0.0016532	  0.435586	-0.00164331	  0.435958	-0.0016519	  0.435958	  -41.2975	
  0.511078	-0.00164704	  0.511882	-0.00164082	  0.511074	-0.00163023	  0.511345	-0.00163937	  0.511345	  -40.9842	
  0.586432	-0.0016348	  0.587365	-0.00162833	  0.586557	-0.0016171	  0.586785	-0.00162674	  0.586785	  -40.6686	
  0.661644	-0.00162231	  0.662747	-0.00161569	  0.662062	-0.0016039	  0.662151	-0.00161397	  0.662151	  -40.3491	
  0.736885	-0.00160985	  0.738174	-0.00160296	  0.737527	-0.00159055	  0.737528	-0.00160112	  0.737528	   -40.028	
  0.812087	-0.00159728	   0.81355	-0.00159012	  0.812937	-0.0015771	  0.812858	-0.00158817	  0.812858	  -39.7042	
  0.887251	-0.0015845	  0.888827	-0.00157709	   0.88839	-0.00156352	  0.888156	-0.00157503	  0.888156	  -39.3758	
  0.962501	-0.00157169	  0.964184	-0.00156396	  0.963855	-0.00154986	  0.963513	-0.00156184	  0.963513	   -39.046	
   1.03758	-0.00155881	   1.03937	-0.00155074	   1.03911	-0.00153605	   1.03869	-0.00154853	   1.03869	  -38.7133	
    1.1127	-0.00154574	   1.11473	-0.00153742	   1.11444	-0.00152211	   1.11395	-0.00153509	   1.11395	  -38.3773	
   1.18775	-0.00153258	   1.18974	-0.00152387	   1.18968	-0.00150806	   1.18906	-0.0015215	   1.18906	  -38.0376	
   1.26265	-0.00151939	   1.26484	-0.00151023	   1.26483	-0.00149384	   1.26411	-0.00150782	   1.26411	  -37.6956	
   1.33763	-0.00150605	    1.3399	-0.00149654	      1.34	-0.0014796	   1.33918	-0.00149406	   1.33918	  -37.3515	
   1.41253	-0.00149258	   1.41485	-0.0014827	     1.415	-0.00146521	   1.41412	-0.00148016	   1.41412	  -37.0041	
   1.48752	-0.00147905	   1.48989	-0.00146873	   1.49003	-0.00145065	   1.48914	-0.00146615	   1.48914	  -36.6537	
   1.56242	-0.00146535	   1.56484	-0.00145466	   1.56497	-0.00143613	   1.56408	-0.00145205	   1.56408	  -36.3012	
   1.63728	-0.00145153	    1.6397	-0.00144048	    1.6399	-0.00142146	   1.63896	-0.00143782	   1.63896	  -35.9455	
   1.71216	-0.00143766	    1.7146	-0.00142618	   1.71487	-0.00140661	   1.71388	-0.00142348	   1.71388	  -35.5871	
   1.78692	-0.00142363	   1.78928	-0.00141177	   1.78963	-0.00139177	   1.78861	-0.00140906	   1.78861	  -35.2264	
   1.86166	-0.00140947	   1.86401	-0.00139726	   1.86442	-0.00137681	   1.86336	-0.00139451	   1.86336	  -34.8628	
   1.93631	-0.00139526	   1.93867	-0.00138263	   1.93911	-0.00136164	   1.93803	-0.00137984	   1.93803	  -34.4961	
   2.01076	-0.00138089	   2.01319	-0.00136791	   2.01361	-0.00134645	   2.01252	-0.00136508	   2.01252	   -34.127	
   2.08526	-0.00136643	   2.08774	-0.00135305	   2.08816	-0.00133113	   2.08706	-0.0013502	   2.08706	  -33.7551	
    2.1596	-0.00135183	   2.16209	-0.00133808	   2.16254	-0.00131567	   2.16141	-0.00133519	   2.16141	  -33.3798	
   2.23381	-0.00133722	   2.23651	-0.00132299	    2.2369	-0.00130015	   2.23574	-0.00132012	   2.23574	  -33.0031	
   2.30795	-0.00132254	   2.31085	-0.00130778	   2.31118	-0.00128457	   2.30999	-0.00130496	   2.30999	  -32.6241	
   2.38196	-0.00130769	   2.38503	-0.00129245	   2.38533	-0.00126883	   2.38411	-0.00128966	   2.38411	  -32.2414	
   2.45612	-0.00129271	   2.45928	-0.00127701	   2.45947	-0.00125306	   2.45829	-0.00127426	   2.45829	  -31.8565	
   2.53016	-0.00127772	   2.53337	-0.00126145	    2.5334	-0.0012372	   2.53231	-0.00125879	   2.53231	  -31.4698	
     2.604	-0.00126256	   2.60745	-0.0012458	   2.60726	-0.00122122	   2.60624	-0.00124319	   2.60624	  -31.0798	
   2.67769	-0.00124722	   2.68147	-0.00123004	   2.68107	-0.00120517	   2.68007	-0.00122748	   2.68007	  -30.6869	
   2.75128	-0.00123189	   2.75529	-0.00121422	   2.75468	-0.00118899	   2.75375	-0.0012117	   2.75375	  -30.2925	
   2.82489	-0.00121641	   2.82912	-0.00119825	   2.82826	-0.00117271	   2.82743	-0.00119579	   2.82743	  -29.8947	
   2.89837	-0.0012008	   2.90276	-0.00118226	   2.90168	-0.00115633	   2.90094	-0.00117979	   2.90094	  -29.4948	
   2.97171	-0.00118515	   2.97632	-0.0011661	   2.97495	-0.00113981	   2.97433	-0.00116369	   2.97433	  -29.0922	
   3.04501	-0.00116937	    3.0498	-0.00114973	   3.04815	-0.00112325	   3.04765	-0.00114745	   3.04765	  -28.6862	
   3.11807	-0.00115345	   3.12315	-0.00113345	    3.1212	-0.00110661	   3.12081	-0.00113117	   3.12081	  -28.2793	
   3.19095	-0.00113748	   3.19636	-0.00111696	   3.19416	-0.00108986	   3.19383	-0.00111477	   3.19383	  -27.8692	
   3.26374	-0.0011214	   3.26946	-0.00110032	   3.26704	-0.00107303	   3.26674	-0.00109825	   3.26674	  -27.4562	
   3.33629	-0.0011052	   3.34242	-0.00108369	    3.3397	-0.00105613	   3.33947	-0.00108167	   3.33947	  -27.0418	
   3.40879	-0.00108892	   3.41532	-0.00106694	   3.41227	-0.00103913	   3.41213	 -0.001065	   3.41213	  -26.6249	
   3.48111	-0.00107253	   3.48801	-0.00105002	   3.48463	-0.00102203	   3.48458	-0.00104819	   3.48458	  -26.2048	
   3.55323	-0.00105604	   3.56054	-0.00103308	   3.55689	-0.00100488	   3.55688	-0.00103133	   3.55688	  -25.7833	
    3.6253	-0.00103945	   3.63296	-0.00101604	    3.6291	-0.000987636	   3.62912	-0.00101438	   3.62912	  -25.3594	
   3.69715	-0.00102273	   3.70507	-0.000998855	   3.70107	-0.000970272	    3.7011	-0.000997286	    3.7011	  -24.9321	
   3.76893	-0.00100591	   3.77703	-0.000981635	   3.77293	-0.000952814	   3.77296	-0.00098012	   3.77296	   -24.503	
   3.84059	-0.000988996	   3.84885	-0.000964314	   3.84465	-0.00093534	    3.8447	-0.000962883	    3.8447	  -24.0721	
   3.91198	-0.000971954	    3.9204	-0.000946844	   3.91609	-0.000917684	   3.91615	-0.000945494	   3.91615	  -23.6374	
   3.98331	-0.000954819	   3.99188	-0.000929327	   3.98743	-0.000899983	   3.98754	-0.000928043	   3.98754	  -23.2011	
   4.05447	-0.000937547	   4.06316	-0.000911706	   4.05858	-0.000882284	   4.05873	-0.000910512	   4.05873	  -22.7628	
    4.1254	-0.000920176	   4.13429	-0.00089398	    4.1295	-0.00086439	   4.12973	-0.000892849	   4.12973	  -22.3212	
   4.19623	-0.000902753	   4.20538	-0.000876136	   4.20035	-0.000846416	   4.20065	-0.000875102	   4.20065	  -21.8775	
   4.26666	-0.000885132	   4.27619	-0.000858209	   4.27096	-0.000828438	   4.27127	-0.00085726	   4.27127	  -21.4315	
   4.33702	-0.000867532	   4.34691	-0.000840201	   4.34141	-0.000810279	   4.34178	-0.000839337	   4.34178	  -20.9834	
   4.40725	-0.00084979	   4.41752	-0.00082206	   4.41179	-0.000792025	   4.41219	-0.000821292	   4.41219	  -20.5323	
   4.47746	-0.000831786	   4.48784	-0.000803824	   4.48188	-0.00077377	   4.48239	-0.000803127	   4.48239	  -20.0782	
   4.54745	-0.000813804	   4.55809	-0.000785472	   4.55187	-0.000755309	   4.55247	-0.000784862	   4.55247	  -19.6215	
    4.6172	-0.000795708	   4.62811	-0.000767074	   4.62174	-0.000736794	   4.62235	-0.000766525	   4.62235	  -19.1631	
   4.68679	-0.000777458	   4.69778	-0.00074856	   4.69126	-0.000718244	   4.69194	-0.000748087	   4.69194	  -18.7022	
    4.7563	-0.000759154	   4.76739	-0.000729999	   4.76074	-0.00069959	   4.76148	-0.000729581	   4.76148	  -18.2395	
   4.82564	-0.000740751	   4.83678	-0.000711332	   4.83005	-0.000680823	   4.83082	-0.000710969	   4.83082	  -17.7742	
   4.89473	-0.000722266	   4.90589	-0.000692554	   4.89899	-0.000662042	   4.89987	-0.000692287	   4.89987	  -17.3072	
   4.96378	-0.000703549	   4.97491	-0.000673721	   4.96789	-0.000643162	   4.96886	-0.000673477	   4.96886	  -16.8369	
   5.03262	-0.000684907	   5.04369	-0.000654785	   5.03657	-0.000624172	   5.03763	-0.000654621	   5.03763	  -16.3655	
   5.10113	-0.000666067	   5.11215	-0.00063568	   5.10494	-0.000605184	   5.10607	-0.000635644	   5.10607	  -15.8911	
   5.16957	-0.000647066	   5.18054	-0.00061656	    5.1732	-0.000586111	   5.17444	-0.000616579	   5.17444	  -15.4145	
   5.23777	-0.000628136	   5.24866	-0.00059737	   5.24122	-0.000566924	   5.24255	-0.000597477	   5.24255	  -14.9369	
   5.30568	-0.000609055	    5.3165	-0.000577947	    5.3089	-0.000547703	   5.31036	-0.000578235	   5.31036	  -14.4559	
   5.37349	-0.000589836	   5.38428	-0.000558528	    5.3765	-0.000528383	   5.37809	-0.000558916	   5.37809	  -13.9729	
   5.44106	-0.000570659	   5.45177	-0.00053905	   5.44385	-0.000508965	   5.44556	-0.000539558	   5.44556	  -13.4889	
   5.50837	-0.00055138	     5.519	-0.000519394	   5.51084	-0.000489542	   5.51274	-0.000520105	   5.51274	  -13.0026	
   5.57561	-0.000531968	   5.58614	-0.000499742	   5.57776	-0.00047002	   5.57983	-0.000500577	   5.57983	  -12.5144	
   5.64256	-0.000512578	   5.65299	-0.000480042	    5.6444	-0.000450435	   5.64665	-0.000481018	   5.64665	  -12.0255	
   5.70925	-0.000493114	   5.71958	-0.000460244	   5.71077	-0.000430764	    5.7132	-0.000461374	    5.7132	  -11.5344	
   5.77585	-0.000473529	   5.78609	-0.000440443	   5.77697	-0.000411028	   5.77964	-0.000441667	   5.77964	  -11.0417	
   5.84216	-0.000453938	   5.85229	-0.000420524	   5.84291	-0.000391224	   5.84578	-0.000421895	   5.84578	  -10.5474	
   5.90811	-0.000434279	   5.91821	-0.000400576	   5.90853	-0.000371356	   5.91161	-0.00040207	   5.91161	  -10.0518	
   5.97398	-0.000414541	   5.98402	-0.000380628	   5.97409	-0.000351458	   5.97736	-0.000382209	   5.97736	  -9.55522	
   6.03956	-0.000394832	   6.04952	-0.000360586	    6.0394	-0.000331507	   6.04282	-0.000362308	   6.04282	  -9.05771	
   6.10479	-0.000374961	   6.11477	-0.000340509	   6.10434	-0.000311424	   6.10797	-0.000342298	   6.10797	  -8.55745	
    6.1699	-0.000355072	   6.17991	-0.000320414	   6.16916	-0.000291373	   6.17299	-0.000322287	   6.17299	  -8.05716	
   6.23475	-0.000335202	   6.24474	-0.00030021	   6.23375	-0.00027123	   6.23775	-0.000302214	   6.23775	  -7.55535	
   6.29918	-0.000315254	   6.30924	-0.000279965	   6.29796	-0.000251007	   6.30213	-0.000282075	   6.30213	  -7.05188	
   6.36355	-0.000295309	   6.37358	-0.00025973	   6.36206	-0.000230769	    6.3664	-0.000261936	    6.3664	  -6.54841	
   6.42768	-0.000275358	   6.43766	-0.000239434	   6.42596	-0.000210444	   6.43043	-0.000241745	   6.43043	  -6.04363	
   6.49143	-0.000255349	   6.50139	-0.00021905	    6.4895	-0.000190038	    6.4941	-0.000221479	    6.4941	  -5.53697	
   6.55498	-0.000235292	   6.56494	-0.000198672	   6.55292	-0.000169629	   6.55761	-0.000201197	   6.55761	  -5.02994	
   6.61833	-0.000215276	   6.62827	-0.000178261	   6.61617	-0.000149161	   6.62092	-0.000180899	   6.62092	  -4.52249	
   6.68126	-0.000195169	   6.69118	-0.000157804	   6.67903	-0.000128623	   6.68382	-0.000160532	   6.68382	   -4.0133	
   6.74394	-0.000175031	   6.75397	-0.000137313	   6.74164	-0.000108074	   6.74651	-0.000140139	   6.74651	  -3.50347	
   6.80643	-0.000154892	   6.81657	-0.000116721	   6.80409	-8.74884e-05	   6.80903	-0.0001197	   6.80903	  -2.99251	
   6.86857	-0.000134731	   6.87878	-9.61073e-05	   6.86621	-6.68287e-05	   6.87118	-9.92224e-05	   6.87118	  -2.48056	
   6.93025	-0.000114523	   6.94066	-7.55333e-05	   6.92805	-4.61683e-05	   6.93299	-7.87417e-05	   6.93299	  -1.96854	
   6.99175	-9.43054e-05	   7.00243	-5.48282e-05	   6.98973	-2.54619e-05	   6.99464	-5.81985e-05	   6.99464	  -1.45496	
   7.05297	-7.40761e-05	   7.06417	-3.40714e-05	   7.05114	-4.70688e-06	   7.05609	-3.76181e-05	   7.05609	 -0.940454	
   7.11376	-5.38067e-05	   7.12526	-1.34461e-05	   7.11213	1.60786e-05	   7.11705	-1.70581e-05	   7.11705	 -0.426452	
    7.1744	-3.35283e-05	   7.18609	7.26928e-06	   7.17293	3.67996e-05	   7.17781	3.51354e-06	   7.17781	 0.0878385	
    7.2348	-1.32225e-05	   7.24668	2.80866e-05	   7.23353	5.77022e-05	   7.23834	2.41888e-05	   7.23834	   0.60472	
    7.2949	7.06859e-06	   7.30692	4.87909e-05	   7.29371	7.85549e-05	   7.29851	4.48048e-05	   7.29851	   1.12012	
   7.35477	 2.737e-05	   7.36682	6.9555e-05	   7.35362	9.93672e-05	    7.3584	6.54307e-05	    7.3584	   1.63577	
   7.41444	4.7763e-05	   7.42651	9.0401e-05	    7.4133	0.000120312	   7.41808	8.61587e-05	   7.41808	   2.15397	
    7.4738	6.80726e-05	   7.48585	0.000111185	   7.47269	0.000141226	   7.47744	0.000106828	   7.47744	   2.67069	
   7.53274	8.84191e-05	   7.54478	0.000131975	   7.53195	0.000162075	   7.53649	0.00012749	   7.53649	   3.18724	
   7.59144	0.000108846	   7.60354	0.000152796	   7.59068	0.000183086	   7.59522	0.000148243	   7.59522	   3.70607	
   7.64992	0.000129193	   7.66203	0.00017362	   7.64917	0.000204071	    7.6537	0.000168961	    7.6537	   4.22403	
   7.70798	0.00014955	   7.72012	0.000194438	   7.70724	0.00022496	   7.71178	0.000189649	   7.71178	   4.74124	
   7.76581	0.000169983	   7.77785	0.000215278	   7.76493	0.000245972	   7.76953	0.000210411	   7.76953	   5.26027	
   7.82339	0.000190348	   7.83539	0.00023612	   7.82236	0.000266938	   7.82705	0.000231135	   7.82705	   5.77838	
   7.88067	0.000210723	    7.8926	0.000257018	    7.8795	0.000287808	   7.88425	0.00025185	   7.88425	   6.29624	
   7.93753	0.000231129	   7.94941	0.000277885	   7.93619	0.000308794	   7.94105	0.000272603	   7.94105	   6.81507	
   7.99425	0.000251521	   8.00607	0.000298766	   7.99248	0.000329726	    7.9976	0.000293338	    7.9976	   7.33345	
   8.05076	0.000271793	   8.06252	0.000319659	    8.0486	0.000350582	   8.05396	0.000314011	   8.05396	   7.85028	
    8.1069	0.000292172	   8.11857	0.000340497	    8.1044	0.000371497	   8.10995	0.000334722	   8.10995	   8.36805	
   8.16251	0.000312513	   8.17422	0.000361387	   8.15972	0.000392359	   8.16548	0.00035542	   8.16548	   8.88549	
   8.21785	0.000332736	    8.2296	0.000382246	   8.21477	0.000413153	   8.22074	0.000376045	   8.22074	   9.40112	
   8.27297	0.000353016	   8.28473	0.000403074	   8.26965	0.000433964	   8.27578	0.000396685	   8.27578	   9.91713	
   8.32769	0.000373264	   8.33945	0.000423964	   8.32442	0.000454725	   8.33052	0.000417318	   8.33052	   10.4329	
    8.3819	0.000393365	   8.39378	0.000444797	    8.3787	0.000475489	   8.38479	0.000437884	   8.38479	   10.9471	
   8.43579	0.000413564	   8.44791	0.000465553	   8.43288	0.000496125	   8.43886	0.000458414	   8.43886	   11.4604	
   8.48945	0.000433712	   8.50171	0.000486364	   8.48674	0.000516806	   8.49263	0.000478961	   8.49263	    11.974	
   8.54273	0.000453749	   8.55503	0.000507125	    8.5402	0.000537413	   8.54599	0.000499429	   8.54599	   12.4857	
   8.59558	0.000473845	   8.60814	0.00052786	   8.59316	0.000557843	   8.59896	0.000519849	   8.59896	   12.9962	
   8.64796	0.000493931	   8.66094	0.00054847	   8.64581	0.000578316	   8.65157	0.000540239	   8.65157	    13.506	
   8.70013	0.00051391	   8.71331	0.000569056	   8.69823	0.000598777	   8.70389	0.000560581	   8.70389	   14.0145	
   8.75196	0.000533833	   8.76535	0.000589609	   8.75028	0.000619044	   8.75586	0.000580829	   8.75586	   14.5207	
   8.80344	0.000553746	   8.81713	0.000610075	    8.8019	0.000639355	   8.80749	0.000601059	   8.80749	   15.0265	
   8.85462	0.000573588	   8.86857	0.000630489	   8.85319	0.000659609	   8.85879	0.000621229	   8.85879	   15.5307	
   8.90543	0.000593355	   8.91977	0.000650849	     8.904	0.000679737	   8.90973	0.000641314	   8.90973	   16.0328	
   8.95591	0.000613119	   8.97057	0.000671139	   8.95438	0.000699844	   8.96029	0.000661367	   8.96029	   16.5342	
   9.00593	0.00063282	   9.02089	0.000691373	   9.00452	0.000719867	   9.01045	0.000681353	   9.01045	   17.0338	
   9.05551	0.000652525	   9.07093	0.000711508	   9.05438	0.000739712	   9.06027	0.000701248	   9.06027	   17.5312	
   9.10487	0.000672121	   9.12075	0.000731546	   9.10374	0.000759563	   9.10979	0.000721077	   9.10979	   18.0269	
   9.15398	0.000691694	   9.17023	0.000751504	    9.1527	0.000779334	   9.15897	0.000740844	   9.15897	   18.5211	
   9.20267	0.000711262	   9.21921	0.000771389	   9.20126	0.00079898	   9.20771	0.000760543	   9.20771	   19.0136	
   9.25087	0.00073072	   9.26777	0.000791211	   9.24929	0.00081862	   9.25598	0.000780184	   9.25598	   19.5046	
   9.29869	0.000750099	   9.31605	0.000810959	   9.29703	0.000838143	   9.30392	0.000799734	   9.30392	   19.9933	
   9.34632	0.000769466	   9.36406	0.000830587	   9.34457	0.00085755	   9.35165	0.000819201	   9.35165	     20.48	
   9.39361	0.000788785	   9.41165	0.000850158	   9.39181	0.000876914	   9.39902	0.000838619	   9.39902	   20.9655	
   9.44044	0.000808027	   9.45872	0.000869647	   9.43861	0.000896185	   9.44593	0.000857953	   9.44593	   21.4488	
    9.4867	0.000827221	   9.50541	0.000888988	   9.48503	0.000915347	   9.49238	0.000877185	   9.49238	   21.9296	
   9.53265	0.000846353	   9.55185	0.000908256	   9.53109	0.000934441	   9.53853	0.00089635	   9.53853	   22.4087	
   9.57838	0.000865359	   9.59796	0.00092742	   9.57673	0.000953494	   9.58436	0.000915424	   9.58436	   22.8856	
   9.62377	0.000884419	   9.64364	0.000946437	    9.6219	0.000972473	   9.62977	0.000934443	   9.62977	   23.3611	
   9.66868	0.000903405	   9.68876	0.000965401	   9.66676	0.000991254	   9.67473	0.000953353	   9.67473	   23.8338	
   9.71312	0.000922219	   9.73344	0.00098427	   9.71125	   0.00101	   9.71927	0.000972162	   9.71927	    24.304	
   9.75723	0.000941111	   9.77781	0.00100301	   9.75531	0.00102869	   9.76345	0.000990938	   9.76345	   24.7734	
   9.80112	0.000959905	    9.8219	0.00102166	   9.79899	0.00104725	   9.80734	0.00100961	   9.80734	   25.2401	
   9.84469	0.000978562	   9.86558	0.00104022	   9.84234	 0.0010657	   9.85087	0.00102816	   9.85087	    25.704	
    9.8878	0.000997236	   9.90873	0.00105863	   9.88527	0.00108412	   9.89394	0.00104666	   9.89394	   26.1665	
   9.93044	0.00101582	   9.95166	0.00107687	   9.92768	0.00110239	   9.93659	0.00106503	   9.93659	   26.6256	
    9.9727	0.00103426	    9.9939	0.00109517	   9.96972	0.00112056	   9.97878	0.00108333	   9.97878	   27.0832	
   10.0146	0.00105266	   10.0359	0.00111332	   10.0115	 0.0011387	   10.0207	0.00110156	   10.0207	    27.539	
   10.0562	0.00107097	   10.0775	0.00113126	    10.053	0.00115672	   10.0622	0.00111965	   10.0622	   27.9913	
   10.0975	0.00108912	   10.1186	0.00114926	    10.094	0.00117459	   10.1034	0.00113766	   10.1034	   28.4414	
   10.1382	0.00110723	   10.1592	 0.0011671	   10.1346	 0.0011924	    10.144	0.00115558	    10.144	   28.8894	
   10.1784	0.00112522	   10.1995	0.00118477	   10.1747	0.00121018	   10.1842	0.00117339	   10.1842	   29.3348	
   10.2182	0.00114309	   10.2395	0.00120245	   10.2143	0.00122782	    10.224	0.00119112	    10.224	   29.7779	
   10.2577	0.00116089	   10.2791	0.00121998	   10.2537	0.00124539	   10.2635	0.00120875	   10.2635	   30.2188	
   10.2969	0.00117859	   10.3184	0.00123734	   10.2928	0.00126285	   10.3027	0.00122626	   10.3027	   30.6565	
   10.3358	0.00119617	   10.3572	0.00125469	   10.3315	0.00128022	   10.3415	0.00124369	   10.3415	   31.0923	
   10.3741	 0.0012137	   10.3955	0.00127189	   10.3697	0.00129749	   10.3798	0.00126103	   10.3798	   31.5256	
   10.4118	0.00123113	   10.4332	0.00128893	   10.4074	 0.0013146	   10.4175	0.00127822	   10.4175	   31.9556	
   10.4491	0.00124841	   10.4706	0.00130593	   10.4446	0.00133169	   10.4548	0.00129534	   10.4548	   32.3836	
    10.486	0.00126562	   10.5078	0.00132281	   10.4814	0.00134861	   10.4918	0.00131235	   10.4918	   32.8086	
   10.5227	0.00128271	   10.5446	0.00133952	    10.518	0.00136542	   10.5285	0.00132922	   10.5285	   33.2304	
   10.5591	0.00129965	    10.581	0.00135618	   10.5543	0.00138218	   10.5648	  0.001346	   10.5648	     33.65	
   10.5953	0.00131654	   10.6169	0.00137271	   10.5902	0.00139878	   10.6008	0.00136268	   10.6008	   34.0669	
   10.6307	0.00133338	   10.6522	0.00138911	   10.6255	0.00141526	   10.6361	0.00137925	   10.6361	   34.4812	
   10.6657	0.00134993	   10.6871	0.00140541	   10.6603	0.00143167	    10.671	0.00139567	    10.671	   34.8917	
   10.7003	0.00136645	   10.7216	0.00142159	   10.6947	0.00144797	   10.7055	  0.001412	   10.7055	   35.3001	
   10.7346	0.00138291	   10.7558	0.00143765	   10.7286	0.00146413	   10.7397	0.00142823	   10.7397	   35.7056	
   10.7686	0.00139907	   10.7897	0.00145359	   10.7623	 0.0014802	   10.7735	0.00144428	   10.7735	   36.1071	
   10.8022	0.00141525	   10.8231	 0.0014694	   10.7957	0.00149617	    10.807	0.00146027	    10.807	   36.5068	
   10.8353	0.00143128	   10.8561	0.00148513	   10.8286	0.00151199	     10.84	0.00147614	     10.84	   36.9034	
    10.868	 0.0014471	   10.8886	0.00150069	   10.8612	0.00152772	   10.8726	0.00149183	   10.8726	   37.2958	
   10.9001	0.00146289	   10.9207	0.00151617	   10.8932	0.00154333	   10.9047	0.00150746	   10.9047	   37.6866	
   10.9316	0.00147856	   10.9524	0.00153147	   10.9246	0.00155877	   10.9362	0.00152294	   10.9362	   38.0734	
   10.9625	0.00149404	   10.9837	0.00154661	   10.9555	0.00157416	   10.9672	0.00153827	   10.9672	   38.4568	
   10.9929	0.00150947	   11.0144	0.00156178	    10.986	 0.0015894	   10.9978	0.00155355	   10.9978	   38.8388	
    11.023	0.00152478	   11.0448	0.00157667	   11.0162	0.00160444	    11.028	0.00156863	    11.028	   39.2158	
   11.0528	0.00153993	   11.0748	0.00159153	   11.0461	0.00161943	   11.0579	0.00158363	   11.0579	   39.5907	
   11.0822	  0.001555	   11.1043	0.00160629	   11.0757	0.00163425	   11.0874	0.00159851	   11.0874	   39.9628	
   11.1113	0.00156995	   11.1334	0.00162088	   11.1049	0.00164892	   11.1165	0.00161325	   11.1165	   40.3313	
   11.1398	0.00158474	   11.1619	0.00163537	   11.1337	 0.0016635	   11.1451	0.00162787	   11.1451	   40.6968	
   11.1678	0.00159944	   11.1899	 0.0016498	   11.1619	0.00167796	   11.1732	 0.0016424	   11.1732	     41.06	
   11.1952	0.00161403	   11.2171	0.00166398	   11.1896	0.00169226	   11.2007	0.00165676	   11.2007	   41.4189	
   11.2221	0.00162847	   11.2439	0.00167805	   11.2167	0.00170638	   11.2275	0.00167097	   11.2275	   41.7742	
   11.2484	0.00164278	   11.2702	0.00169203	   11.2433	0.00172046	   11.2539	0.00168509	   11.2539	   42.1273	
   11.2742	0.00165707	   11.2961	0.00170578	   11.2696	0.00173434	     11.28	0.00169906	     11.28	   42.4766	
   11.2997	0.00167114	   11.3217	0.00171943	   11.2954	0.00174806	   11.3056	0.00171288	   11.3056	    42.822	
   11.3248	0.00168506	    11.347	0.00173297	   11.3209	0.00176171	   11.3309	0.00172658	   11.3309	   43.1645	
   11.3494	0.00169904	    11.372	0.00174632	    11.346	0.00177517	   11.3558	0.00174018	   11.3558	   43.5045	
   11.3737	0.00171281	   11.3965	 0.0017596	   11.3706	0.00178849	   11.3803	0.00175363	   11.3803	   43.8409	
   11.3974	0.00172635	   11.4206	0.00177275	   11.3947	0.00180173	   11.4043	0.00176694	   11.4043	   44.1735	
   11.4208	0.00173986	   11.4442	0.00178569	   11.4183	 0.0018148	   11.4278	0.00178012	   11.4278	   44.5029	
   11.4439	0.00175319	   11.4672	0.00179859	   11.4415	0.00182768	   11.4509	0.00179315	   11.4509	   44.8289	
   11.4664	0.00176641	   11.4897	0.00181137	   11.4642	 0.0018405	   11.4734	 0.0018061	   11.4734	   45.1524	
   11.4884	0.00177959	   11.5116	0.00182397	   11.4864	0.00185315	   11.4955	 0.0018189	   11.4955	   45.4726	
   11.5099	0.00179257	   11.5329	0.00183647	    11.508	0.00186568	   11.5169	0.00183157	   11.5169	   45.7893	
   11.5307	0.00180542	   11.5537	 0.0018489	   11.5291	0.00187809	   11.5378	0.00184414	   11.5378	   46.1034	
   11.5511	0.00181819	    11.574	 0.0018612	   11.5497	0.00189036	   11.5583	0.00185658	   11.5583	   46.4146	
    11.571	0.00183078	   11.5938	0.00187333	   11.5697	0.00190247	   11.5782	0.00186886	   11.5782	   46.7215	
   11.5905	0.00184324	   11.6132	0.00188544	   11.5893	 0.0019145	   11.5977	0.00188106	   11.5977	   47.0265	
   11.6096	0.00185559	   11.6323	0.00189742	   11.6085	0.00192638	   11.6168	0.00189313	   11.6168	   47.3283	
   11.6282	0.00186778	   11.6511	 0.0019092	   11.6273	0.00193804	   11.6355	0.00190501	   11.6355	   47.6253	
   11.6466	 0.0018798	   11.6695	0.00192093	   11.6457	0.00194965	    11.654	0.00191679	    11.654	   47.9198	
   11.6647	0.00189172	   11.6877	 0.0019325	   11.6639	0.00196113	   11.6721	0.00192845	   11.6721	   48.2113	
   11.6824	0.00190356	   11.7055	0.00194399	   11.6816	0.00197237	   11.6899	0.00193997	   11.6899	   48.4993	
   11.6998	0.00191521	    11.723	0.00195544	    11.699	0.00198357	   11.7073	0.00195141	   11.7073	   48.7852	
   11.7168	0.00192679	   11.7401	0.00196673	   11.7161	0.00199466	   11.7243	0.00196272	   11.7243	   49.0681	
   11.7335	0.00193835	   11.7569	0.00197789	   11.7328	0.00200551	    11.741	0.00197392	    11.741	   49.3479	
   11.7499	 0.0019496	   11.7731	0.00198893	   11.7491	0.00201633	   11.7574	0.00198495	   11.7574	   49.6238	
   11.7658	 0.0019608	    11.789	0.00199986	    11.765	0.00202701	   11.7732	0.00199589	   11.7732	   49.8972	
   11.7813	0.00197203	   11.8043	0.00201062	   11.7804	0.00203744	   11.7887	 0.0020067	   11.7887	   50.1674	
   11.7964	0.00198297	   11.8192	0.00202128	   11.7953	0.00204791	   11.8036	0.00201738	   11.8036	   50.4346	
   11.8111	0.00199383	   11.8335	0.00203183	   11.8097	0.00205817	   11.8181	0.00202794	   11.8181	   50.6985	
   11.8252	0.00200469	   11.8474	0.00204219	   11.8236	0.00206824	   11.8321	0.00203837	   11.8321	   50.9594	
   11.8389	0.00201531	   11.8607	0.00205243	   11.8371	0.00207827	   11.8456	0.00204867	   11.8456	   51.2167	
   11.8521	 0.0020258	   11.8735	0.00206261	   11.8501	0.00208812	   11.8586	0.00205884	   11.8586	   51.4711	
   11.8649	0.00203628	   11.8858	0.00207262	   11.8626	0.00209778	   11.8711	0.00206889	   11.8711	   51.7224	
   11.8771	0.00204653	   11.8976	0.00208248	   11.8746	0.00210741	   11.8831	0.00207881	   11.8831	   51.9702	
   11.8888	0.00205666	   11.9088	0.00209225	   11.8861	0.00211687	   11.8946	 0.0020886	   11.8946	   52.2149	
   11.9001	0.00206677	   11.9196	0.00210188	   11.8972	 0.0021262	   11.9056	0.00209828	   11.9056	   52.4571	
   11.9109	 0.0020767	   11.9298	0.00211135	   11.9079	0.00213548	   11.9162	0.00210784	   11.9162	   52.6961	
   11.9211	0.00208648	   11.9395	0.00212076	   11.9181	 0.0021446	   11.9262	0.00211728	   11.9262	    52.932	
   11.9309	 0.0020962	   11.9487	0.00213002	   11.9278	0.00215358	   11.9358	 0.0021266	   11.9358	    53.165	
   11.9402	0.00210576	   11.9575	0.00213908	    11.937	 0.0021625	   11.9449	0.00213578	   11.9449	   53.3946	
    11.949	0.00211518	   11.9657	0.00214809	   11.9458	0.00217129	   11.9535	0.00214485	   11.9535	   53.6214	
   11.9574	0.00212452	   11.9735	0.00215701	   11.9542	0.00217996	   11.9617	0.00215383	   11.9617	   53.8458	
   11.9653	0.00213369	   11.9809	0.00216575	   11.9621	0.00218855	   11.9694	0.00216267	   11.9694	   54.0666	
   11.9727	0.00214274	   11.9878	0.00217436	   11.9696	0.00219703	   11.9767	0.00217138	   11.9767	   54.2844	
   11.9797	0.00215171	   11.9942	0.00218288	   11.9767	0.00220538	   11.9835	0.00217999	   11.9835	   54.4998	
   11.9863	 0.0021605	   12.0003	0.00219125	   11.9833	0.00221363	   11.9899	0.00218846	   11.9899	   54.7115	
   11.9924	0.00216914	   12.0059	0.00219947	   11.9895	0.00222168	   11.9959	0.00219676	   11.9959	   54.9191	
   11.9981	0.00217772	   12.0111	 0.0022076	   11.9953	0.00222974	   12.0015	0.00220502	   12.0015	   55.1256	
   12.0034	0.00218616	   12.0159	0.00221567	   12.0006	0.00223769	   12.0066	0.00221317	   12.0066	   55.3293	
   12.0078	0.00219448	   12.0204	0.00222353	   12.0055	0.00224545	   12.0112	0.00222115	   12.0112	   55.5289	
   12.0119	0.00220255	   12.0245	0.00223135	   12.0099	0.00225324	   12.0154	0.00222905	   12.0154	   55.7262	
   12.0154	0.00221056	   12.0282	0.00223901	   12.0137	0.00226094	   12.0191	0.00223684	   12.0191	   55.9209	
   12.0184	0.00221844	   12.0311	0.00224656	    12.017	0.00226846	   12.0222	0.00224449	   12.0222	   56.1122	
    12.021	0.00222612	   12.0336	 0.0022541	   12.0198	0.00227596	   12.0248	0.00225206	   12.0248	   56.3015	
   12.0228	0.00223373	   12.0356	0.00226149	    12.022	0.00228336	   12.0268	0.00225953	   12.0268	   56.4882	
   12.0241	0.00224119	   12.0371	0.00226877	   12.0235	0.00229059	   12.0283	0.00226685	   12.0283	   56.6713	
   12.0248	0.00224856	   12.0382	0.00227606	   12.0244	0.00229775	   12.0291	0.00227412	   12.0291	    56.853	
   12.0248	0.00225573	   12.0387	0.00228314	   12.0249	0.00230485	   12.0295	0.00228124	   12.0295	    57.031	
   12.0243	0.00226278	   12.0386	0.00229016	   12.0247	0.00231174	   12.0292	0.00228823	   12.0292	   57.2056	
   12.0231	0.00226976	    12.038	0.00229714	    12.024	0.00231848	   12.0283	0.00229513	   12.0283	   57.3782	
   12.0214	0.00227657	   12.0367	0.00230395	   12.0227	0.00232524	   12.0269	0.00230192	   12.0269	    57.548	
   12.0192	0.00228326	   12.0349	0.00231067	   12.0209	0.00233173	    12.025	0.00230855	    12.025	   57.7138	
   12.0166	0.00228986	   12.0326	0.00231734	   12.0186	0.00233817	   12.0226	0.00231512	   12.0226	   57.8781	
   12.0135	0.00229627	   12.0299	0.00232385	   12.0159	 0.0023446	   12.0198	0.00232157	   12.0198	   58.0393	
   12.0102	0.00230262	   12.0267	0.00233026	   12.0128	0.00235079	   12.0166	0.00232789	   12.0166	   58.1972	
   12.0064	 0.0023089	   12.0231	0.00233662	   12.0093	0.00235689	    12.013	0.00233414	    12.013	   58.3535	
   12.0024	  0.002315	   12.0192	 0.0023429	   12.0055	0.00236297	    12.009	0.00234029	    12.009	   58.5072	
   11.9979	0.00232104	   12.0149	0.00234909	   12.0011	0.00236888	   12.0046	0.00234634	   12.0046	   58.6584	
   11.9928	  0.002327	   12.0102	0.00235521	   11.9962	 0.0023747	   11.9998	0.00235231	   11.9998	   58.8076	
   11.9873	0.00233281	   12.0049	0.00236126	   11.9911	0.00238048	   11.9944	0.00235818	   11.9944	   58.9546	
   11.9812	0.00233856	   11.9991	0.00236719	   11.9852	0.00238618	   11.9885	0.00236398	   11.9885	   59.0994	
   11.9744	0.00234421	   11.9927	0.00237307	   11.9788	0.00239161	    11.982	0.00236963	    11.982	   59.2408	
   11.9671	0.00234971	   11.9856	0.00237888	   11.9718	0.00239705	   11.9748	0.00237522	   11.9748	   59.3804	
   11.9594	0.00235515	    11.978	 0.0023846	   11.9644	0.00240247	   11.9673	0.00238074	   11.9673	   59.5185	
   11.9512	0.00236056	   11.9699	0.00239017	   11.9564	0.00240767	   11.9592	0.00238613	   11.9592	   59.6533	
   11.9425	0.00236577	   11.9614	0.00239572	   11.9481	0.00241289	   11.9507	0.00239146	   11.9507	   59.7865	
   11.9334	0.00237088	   11.9523	0.00240117	   11.9395	0.00241806	   11.9417	 0.0023967	   11.9417	   59.9175	
   11.9238	0.00237596	   11.9428	0.00240641	   11.9304	0.00242304	   11.9323	 0.0024018	   11.9323	   60.0451	
   11.9138	0.00238088	    11.933	 0.0024116	    11.921	0.00242792	   11.9226	 0.0024068	   11.9226	     60.17	
   11.9032	 0.0023857	   11.9228	0.00241671	    11.911	0.00243283	   11.9123	0.00241175	   11.9123	   60.2937	
   11.8921	0.00239049	   11.9119	0.00242169	   11.9004	0.00243755	   11.9015	0.00241658	   11.9015	   60.4145	
   11.8805	0.00239511	   11.9006	0.00242657	   11.8892	 0.0024422	   11.8901	0.00242129	   11.8901	   60.5323	
   11.8684	0.00239967	   11.8888	0.00243139	   11.8776	0.00244684	   11.8783	0.00242597	   11.8783	   60.6492	
   11.8559	 0.0024042	   11.8766	0.00243612	   11.8655	0.00245136	    11.866	0.00243056	    11.866	    60.764	
   11.8431	0.00240856	   11.8639	0.00244073	   11.8529	 0.0024558	   11.8533	0.00243503	   11.8533	   60.8758	
     11.83	0.00241292	   11.8509	0.00244527	   11.8398	0.00246015	   11.8403	0.00243945	   11.8403	   60.9862	
   11.8165	0.00241714	   11.8377	0.00244969	   11.8263	0.00246439	   11.8269	0.00244374	   11.8269	   61.0935	
   11.8026	0.00242125	   11.8241	0.00245401	   11.8124	0.00246859	    11.813	0.00244795	    11.813	   61.1987	
   11.7881	0.00242525	     11.81	0.00245824	    11.798	0.00247269	   11.7987	0.00245206	   11.7987	   61.3015	
    11.773	0.00242919	   11.7954	0.00246237	   11.7831	0.00247664	   11.7838	0.00245607	   11.7838	   61.4017	
   11.7575	0.00243303	   11.7802	0.00246638	   11.7678	0.00248055	   11.7685	0.00245999	   11.7685	   61.4997	
   11.7417	0.00243677	   11.7645	 0.0024703	    11.752	0.00248437	   11.7527	0.00246381	   11.7527	   61.5954	
   11.7256	0.00244046	   11.7486	0.00247412	   11.7359	0.00248805	   11.7367	0.00246754	   11.7367	   61.6886	
   11.7091	0.00244406	   11.7323	0.00247781	   11.7194	0.00249171	   11.7203	0.00247119	   11.7203	   61.7798	
   11.6922	0.00244758	   11.7156	0.00248143	   11.7023	0.00249522	   11.7034	0.00247474	   11.7034	   61.8686	
   11.6747	0.00245103	   11.6982	0.00248496	   11.6848	0.00249867	   11.6859	0.00247822	   11.6859	   61.9556	
   11.6568	 0.0024544	   11.6803	0.00248834	   11.6668	0.00250199	   11.6679	0.00248158	   11.6679	   62.0394	
   11.6383	0.00245768	   11.6618	0.00249165	   11.6483	0.00250525	   11.6495	0.00248486	   11.6495	   62.1215	
   11.6196	0.00246088	    11.643	0.00249485	   11.6295	0.00250846	   11.6307	0.00248806	   11.6307	   62.2015	
   11.6006	0.00246398	   11.6238	0.00249791	   11.6102	0.00251151	   11.6115	0.00249113	   11.6115	   62.2783	
   11.5811	0.00246699	   11.6042	0.00250092	   11.5904	 0.0025145	   11.5919	0.00249414	   11.5919	   62.3535	
    11.561	0.00246994	   11.5841	0.00250381	   11.5702	0.00251749	   11.5718	0.00249708	   11.5718	    62.427	
   11.5405	0.00247283	   11.5636	0.00250666	   11.5494	0.00252037	   11.5512	0.00249995	   11.5512	   62.4988	
   11.5196	0.00247558	   11.5424	0.00250943	   11.5281	0.00252309	     11.53	 0.0025027	     11.53	   62.5676	
   11.4982	0.00247829	   11.5209	  0.002512	   11.5065	0.00252574	   11.5085	0.00250534	   11.5085	   62.6335	
   11.4766	0.00248095	   11.4991	 0.0025146	   11.4845	0.00252831	   11.4867	0.00250795	   11.4867	   62.6988	
   11.4544	0.00248348	   11.4768	0.00251711	   11.4622	0.00253078	   11.4645	0.00251046	   11.4645	   62.7614	
   11.4317	0.00248595	   11.4541	0.00251944	   11.4392	0.00253318	   11.4417	0.00251285	   11.4417	   62.8213	
   11.4084	0.00248837	   11.4308	0.00252177	   11.4157	0.00253553	   11.4183	0.00251522	   11.4183	   62.8806	
   11.3847	0.00249074	    11.407	0.00252402	   11.3918	0.00253777	   11.3945	0.00251751	   11.3945	   62.9377	
   11.3606	0.00249293	   11.3829	0.00252611	   11.3676	0.00253997	   11.3704	0.00251967	   11.3704	   62.9917	
   11.3363	0.00249506	   11.3584	0.00252819	   11.3429	 0.0025421	   11.3459	0.00252178	   11.3459	   63.0446	
   11.3114	0.00249717	   11.3334	0.00253021	   11.3177	0.00254412	   11.3208	0.00252383	   11.3208	   63.0959	
   11.2859	 0.0024991	   11.3078	 0.0025321	    11.292	0.00254616	   11.2953	0.00252579	   11.2953	   63.1447	
     11.26	0.00250093	   11.2817	0.00253397	   11.2658	0.00254809	   11.2692	0.00252766	   11.2692	   63.1916	
   11.2338	0.00250275	   11.2552	0.00253579	   11.2394	0.00254992	   11.2428	0.00252949	   11.2428	   63.2372	
   11.2071	0.00250444	   11.2284	 0.0025375	   11.2125	0.00255176	    11.216	0.00253123	    11.216	   63.2808	
     11.18	0.00250611	   11.2012	0.00253919	   11.1851	0.00255347	   11.1888	0.00253292	   11.1888	    63.323	
   11.1524	0.00250768	   11.1734	0.00254083	   11.1572	0.00255512	    11.161	0.00253454	    11.161	   63.3636	
   11.1244	0.00250915	    11.145	0.00254235	   11.1288	0.00255675	   11.1327	0.00253608	   11.1327	   63.4021	
   11.0959	0.00251063	   11.1164	0.00254386	   11.1001	0.00255828	   11.1041	0.00253759	   11.1041	   63.4397	
    11.067	0.00251199	   11.0874	0.00254531	   11.0709	0.00255973	   11.0751	0.00253901	   11.0751	   63.4753	
   11.0377	0.00251327	   11.0579	0.00254665	   11.0412	0.00256113	   11.0456	0.00254035	   11.0456	   63.5087	
    11.008	0.00251456	   11.0278	0.00254794	    11.011	0.00256242	   11.0156	0.00254164	   11.0156	    63.541	
   10.9777	0.00251571	   10.9973	0.00254919	   10.9805	0.00256364	   10.9851	0.00254285	   10.9851	   63.5712	
    10.947	0.00251679	   10.9663	0.00255035	   10.9496	0.00256482	   10.9543	0.00254399	   10.9543	   63.5997	
   10.9159	0.00251784	    10.935	0.00255141	   10.9182	0.00256589	    10.923	0.00254505	    10.923	   63.6263	
   10.8843	0.00251878	   10.9031	0.00255247	   10.8863	0.00256689	   10.8912	0.00254605	   10.8912	   63.6512	
   10.8523	0.00251962	   10.8708	0.00255348	    10.854	0.00256786	    10.859	0.00254699	    10.859	   63.6747	
   10.8199	0.00252043	   10.8382	0.00255439	   10.8214	0.00256873	   10.8265	0.00254785	   10.8265	   63.6963	
   10.7873	0.00252115	   10.8052	0.00255524	   10.7884	0.00256955	   10.7936	0.00254864	   10.7936	   63.7161	
    10.754	0.00252181	   10.7718	0.00255608	   10.7548	0.00257024	   10.7602	0.00254938	   10.7602	   63.7344	
   10.7203	0.00252243	   10.7378	0.00255682	   10.7207	0.00257089	   10.7263	0.00255005	   10.7263	   63.7512	
   10.6861	0.00252291	   10.7035	0.00255747	   10.6863	0.00257149	    10.692	0.00255062	    10.692	   63.7656	
   10.6516	0.00252338	   10.6689	0.00255815	   10.6515	0.00257199	   10.6573	0.00255117	   10.6573	   63.7793	
   10.6166	 0.0025238	   10.6337	0.00255865	   10.6162	0.00257244	   10.6222	0.00255163	   10.6222	   63.7908	
    10.581	0.00252409	    10.598	0.00255917	   10.5804	0.00257283	   10.5864	0.00255203	   10.5864	   63.8008	
   10.5451	0.00252442	   10.5619	0.00255963	   10.5442	0.00257312	   10.5504	0.00255239	   10.5504	   63.8097	
   10.5088	0.00252463	   10.5256	0.00255994	   10.5077	0.00257339	    10.514	0.00255265	    10.514	   63.8163	
    10.472	0.00252481	   10.4886	0.00256025	   10.4707	0.00257358	   10.4771	0.00255288	   10.4771	    63.822	
   10.4348	0.00252495	   10.4512	 0.0025605	   10.4333	0.00257372	   10.4398	0.00255306	   10.4398	   63.8265	
   10.3971	0.00252498	   10.4134	 0.0025607	   10.3955	0.00257377	    10.402	0.00255315	    10.402	   63.8287	
   10.3588	0.00252503	   10.3754	0.00256086	   10.3574	0.00257381	   10.3639	0.00255323	   10.3639	   63.8308	
   10.3202	  0.002525	   10.3369	0.00256096	   10.3188	0.00257376	   10.3253	0.00255324	   10.3253	    63.831	
   10.2814	0.00252484	   10.2978	0.00256102	   10.2798	0.00257364	   10.2863	0.00255317	   10.2863	   63.8292	
   10.2422	0.00252471	   10.2585	0.00256102	   10.2405	0.00257351	   10.2471	0.00255308	   10.2471	    63.827	
   10.2026	 0.0025245	   10.2188	0.00256096	   10.2008	0.00257329	   10.2074	0.00255292	   10.2074	   63.8229	
   10.1627	0.00252421	   10.1786	0.00256086	   10.1605	0.00257301	   10.1673	0.00255269	   10.1673	   63.8173	
   10.1223	0.00252393	    10.138	0.00256068	   10.1199	0.00257273	   10.1267	0.00255245	   10.1267	   63.8112	
   10.0815	0.00252356	   10.0971	0.00256046	   10.0789	0.00257236	   10.0858	0.00255213	   10.0858	   63.8031	
   10.0404	0.00252313	   10.0558	 0.0025602	   10.0375	0.00257193	   10.0446	0.00255175	   10.0446	   63.7939	
   9.99878	0.00252267	    10.014	 0.0025599	   9.99559	0.00257149	   10.0028	0.00255135	   10.0028	   63.7838	
   9.95676	0.00252217	   9.97181	0.00255944	   9.95336	0.00257095	   9.96064	0.00255085	   9.96064	   63.7713	
   9.91448	0.00252157	   9.92926	0.00255898	   9.91085	0.00257048	   9.91819	0.00255034	   9.91819	   63.7586	
   9.87168	  0.002521	   9.88624	0.00255856	   9.86778	0.00256986	   9.87523	0.00254981	   9.87523	   63.7452	
   9.82841	0.00252032	   9.84274	 0.0025579	   9.82428	0.00256919	   9.83181	0.00254914	   9.83181	   63.7284	
   9.78486	0.00251958	   9.79895	0.00255728	   9.78052	0.00256857	   9.78811	0.00254848	   9.78811	   63.7119	
   9.74104	0.00251883	   9.75479	0.00255666	   9.73641	0.00256783	   9.74408	0.00254777	   9.74408	   63.6943	
   9.69667	0.00251803	   9.71009	0.00255586	   9.69182	0.00256702	   9.69953	0.00254697	   9.69953	   63.6742	
   9.65194	0.00251724	   9.66501	0.00255505	    9.6469	0.00256622	   9.65462	0.00254617	   9.65462	   63.6543	
   9.60687	0.00251636	    9.6197	0.00255422	   9.60172	0.00256534	   9.60943	0.00254531	   9.60943	   63.6326	
   9.56131	0.00251548	   9.57394	0.00255328	     9.556	0.00256425	   9.56375	0.00254434	   9.56375	   63.6084	
   9.51532	0.00251461	   9.52773	0.00255239	   9.50988	 0.0025633	   9.51764	0.00254343	   9.51764	   63.5858	
   9.46905	0.00251363	   9.48126	 0.0025514	   9.46353	0.00256223	   9.47128	0.00254242	   9.47128	   63.5605	
   9.42236	0.00251256	   9.43444	0.00255028	   9.41675	0.00256099	   9.42452	0.00254128	   9.42452	   63.5319	
   9.37519	0.00251152	   9.38717	0.00254917	   9.36953	0.00255985	   9.37729	0.00254018	   9.37729	   63.5045	
   9.32772	0.00251039	   9.33958	  0.002548	   9.32204	0.00255856	   9.32978	0.00253899	   9.32978	   63.4747	
   9.27991	0.00250918	   9.29171	0.00254674	   9.27421	0.00255714	   9.28194	0.00253769	   9.28194	   63.4422	
   9.23157	  0.002508	   9.24336	0.00254543	    9.2259	0.00255579	   9.23361	0.00253641	   9.23361	   63.4102	
   9.18289	0.00250676	   9.19464	0.00254408	   9.17728	0.00255433	   9.18494	0.00253506	   9.18494	   63.3764	
   9.13401	0.00250544	   9.14574	0.00254266	   9.12844	0.00255269	   9.13606	 0.0025336	   9.13606	   63.3399	
    9.0846	0.00250413	   9.09635	0.00254121	   9.07913	 0.0025511	    9.0867	0.00253215	    9.0867	   63.3036	
   9.03482	0.00250277	   9.04655	0.00253971	   9.02946	0.00254942	   9.03695	0.00253063	   9.03695	   63.2658	
   8.98482	0.00250135	   8.99653	0.00253816	   8.97954	0.00254758	   8.98697	0.00252903	   8.98697	   63.2257	
    8.9343	    0.0025	   8.94603	0.00253657	   8.92919	0.00254578	   8.93651	0.00252745	   8.93651	   63.1863	
   8.88337	0.00249853	   8.89509	0.00253496	   8.87845	0.00254387	   8.88564	0.00252578	   8.88564	   63.1446	
   8.83222	0.00249702	   8.84391	0.00253329	   8.82748	0.00254184	   8.83454	0.00252405	   8.83454	   63.1013	
   8.78061	0.00249555	   8.79238	0.00253155	    8.7761	0.00253979	   8.78303	 0.0025223	   8.78303	   63.0574	
    8.7286	0.00249396	   8.74042	0.00252971	   8.72432	0.00253768	   8.73111	0.00252045	   8.73111	   63.0113	
   8.67636	0.00249235	   8.68819	0.00252784	   8.67233	0.00253549	   8.67896	0.00251856	   8.67896	    62.964	
   8.62372	0.00249075	   8.63561	0.00252598	   8.61988	0.00253325	    8.6264	0.00251666	    8.6264	   62.9164	
   8.57066	0.00248903	   8.58258	0.00252402	   8.56702	0.00253097	   8.57342	0.00251467	   8.57342	   62.8668	
   8.51738	0.00248727	   8.52933	0.00252199	   8.51394	0.00252859	   8.52022	0.00251261	   8.52022	   62.8153	
   8.46364	0.00248552	    8.4757	0.00251995	   8.46047	0.00252616	    8.4666	0.00251054	    8.4666	   62.7635	
   8.40949	0.00248369	   8.42163	0.00251785	   8.40658	0.00252375	   8.41257	0.00250843	   8.41257	   62.7107	
    8.3551	0.00248177	   8.36732	0.00251565	   8.35248	0.00252112	    8.3583	0.00250618	    8.3583	   62.6545	
   8.30064	0.00247988	   8.31277	0.00251339	   8.29802	0.00251851	   8.30381	0.00250392	   8.30381	   62.5981	
   8.24557	0.00247793	    8.2578	0.00251114	   8.24315	0.00251592	   8.24884	0.00250166	   8.24884	   62.5415	
   8.19027	0.00247582	   8.20261	0.00250881	    8.1881	0.00251313	   8.19366	0.00249925	   8.19366	   62.4813	
    8.1345	0.00247392	   8.14709	0.00250644	    8.1327	0.00251032	    8.1381	 0.0024969	    8.1381	   62.4224	
   8.07836	0.00247186	   8.09115	0.00250409	   8.07691	0.00250752	   8.08214	0.00249449	   8.08214	   62.3622	
   8.02197	0.00246962	   8.03501	0.00250166	    8.0209	0.00250455	   8.02596	0.00249195	   8.02596	   62.2987	
   7.96516	0.00246758	   7.97848	0.00249921	   7.96452	0.00250155	   7.96939	0.00248944	   7.96939	   62.2361	
   7.90801	0.00246536	    7.9218	0.00249676	   7.90777	0.00249853	   7.91253	0.00248688	   7.91253	   62.1721	
   7.85069	0.00246297	    7.8646	0.00249425	   7.85085	0.00249537	   7.85538	 0.0024842	   7.85538	   62.1049	
    7.7929	0.00246068	   7.80715	0.00249158	   7.79355	0.00249216	   7.79787	0.00248148	   7.79787	   62.0369	
   7.73482	0.00245825	   7.74934	0.00248904	   7.73592	0.00248895	   7.74003	0.00247875	   7.74003	   61.9687	
   7.67659	0.00245569	   7.69135	0.00248639	    7.6781	0.00248561	   7.68201	 0.0024759	   7.68201	   61.8974	
   7.61798	0.00245313	   7.63301	0.00248361	   7.61985	0.00248225	   7.62361	  0.002473	   7.62361	   61.8249	
   7.55913	0.00245042	   7.57435	0.00248095	   7.56131	0.00247887	   7.56493	0.00247008	   7.56493	    61.752	
   7.50013	0.00244762	   7.51543	0.00247817	    7.5026	0.00247541	   7.50605	0.00246707	   7.50605	   61.6767	
    7.4407	0.00244483	   7.45603	0.00247529	   7.44374	0.00247184	   7.44682	0.00246399	   7.44682	   61.5996	
   7.38106	0.00244192	   7.39637	0.00247247	   7.38431	0.00246834	   7.38725	0.00246091	   7.38725	   61.5227	
   7.32115	0.00243891	   7.33642	0.00246956	   7.32459	0.00246477	   7.32739	0.00245774	   7.32739	   61.4436	
   7.26085	0.00243589	   7.27604	0.00246652	   7.26459	0.00246099	   7.26716	0.00245447	   7.26716	   61.3618	
   7.20041	 0.0024328	   7.21547	0.00246351	   7.20438	 0.0024573	   7.20675	 0.0024512	   7.20675	   61.2801	
   7.13973	0.00242963	   7.15466	0.00246048	    7.1438	0.00245354	   7.14606	0.00244788	   7.14606	   61.1971	
   7.07871	0.00242645	   7.09347	0.00245731	    7.0829	0.00244957	   7.08503	0.00244444	   7.08503	    61.111	
   7.01754	0.00242318	   7.03213	0.00245416	   7.02178	0.00244563	   7.02382	0.00244099	   7.02382	   61.0248	
   6.95597	0.00241984	   6.97043	0.00245097	   6.96032	0.00244175	   6.96224	0.00243752	   6.96224	    60.938	
   6.89412	0.00241644	   6.90845	0.00244765	    6.8985	0.00243766	   6.90036	0.00243392	   6.90036	   60.8479	
   6.83206	  0.002413	   6.84641	0.00244436	    6.8363	0.00243357	   6.83826	0.00243031	   6.83826	   60.7578	
   6.76974	 0.0024095	   6.78396	0.00244099	   6.77383	0.00242955	   6.77584	0.00242668	   6.77584	    60.667	
   6.70724	0.00240594	    6.7213	0.00243758	   6.71115	0.00242538	   6.71323	0.00242297	   6.71323	   60.5741	
   6.64453	 0.0024023	   6.65845	0.00243411	   6.64814	0.00242117	   6.65037	0.00241919	   6.65037	   60.4798	
   6.58154	0.00239858	   6.59521	0.00243053	   6.58482	0.00241696	   6.58719	0.00241535	   6.58719	   60.3839	
   6.51841	0.00239478	   6.53185	0.00242696	   6.52132	0.00241261	   6.52386	0.00241145	   6.52386	   60.2862	
   6.45486	 0.0023909	   6.46821	0.00242327	   6.45751	0.00240822	   6.46019	0.00240747	   6.46019	   60.1867	
   6.39105	0.00238699	    6.4043	0.00241948	   6.39346	0.00240375	   6.39627	0.00240341	   6.39627	   60.0852	
   6.32705	0.00238297	    6.3401	0.00241572	   6.32926	0.00239921	   6.33214	 0.0023993	   6.33214	   59.9825	
   6.26266	0.00237892	   6.27568	0.00241185	   6.26471	0.00239462	   6.26768	0.00239513	   6.26768	   59.8782	
   6.19805	0.00237481	   6.21111	0.00240779	   6.20001	0.00238996	   6.20306	0.00239085	   6.20306	   59.7714	
   6.13312	0.00237058	   6.14626	0.00240372	   6.13509	0.00238526	   6.13816	0.00238652	   6.13816	    59.663	
   6.06791	0.00236633	   6.08107	0.00239958	   6.06986	0.00238051	   6.07295	0.00238214	   6.07295	   59.5536	
   6.00258	0.00236198	   6.01568	0.00239529	    6.0045	0.00237572	   6.00759	0.00237766	   6.00759	   59.4416	
   5.93691	 0.0023575	   5.94993	0.00239095	   5.93889	0.00237086	   5.94191	0.00237311	   5.94191	   59.3276	
   5.87105	0.00235299	   5.88399	0.00238657	   5.87286	0.00236599	   5.87596	0.00236852	   5.87596	   59.2129	
   5.80504	0.00234838	   5.81794	0.00238205	   5.80668	0.00236099	   5.80989	 0.0023638	   5.80989	   59.0951	
   5.73871	0.00234366	   5.75154	0.00237747	   5.74047	0.00235594	   5.74357	0.00235903	   5.74357	   58.9757	
   5.67226	0.00233898	   5.68501	0.00237284	    5.6739	0.00235085	   5.67706	0.00235422	   5.67706	   58.8556	
    5.6055	0.00233416	   5.61827	0.00236806	   5.60714	0.00234575	    5.6103	0.00234932	    5.6103	    58.733	
   5.53851	0.00232928	   5.55125	0.00236321	   5.54022	0.00234053	   5.54333	0.00234434	   5.54333	   58.6085	
    5.4714	0.00232435	   5.48416	0.00235835	   5.47313	0.00233522	   5.47623	0.00233931	   5.47623	   58.4827	
   5.40401	0.00231937	   5.41675	0.00235331	   5.40578	0.00232988	   5.40885	0.00233418	   5.40885	   58.3546	
   5.33651	0.00231428	   5.34919	0.00234817	   5.33817	 0.0023244	   5.34129	0.00232895	   5.34129	   58.2238	
    5.2688	0.00230916	   5.28146	0.00234305	   5.27049	0.00231888	   5.27358	0.00232369	   5.27358	   58.0923	
   5.20084	0.00230396	   5.21344	0.00233774	   5.20261	0.00231335	   5.20563	0.00231835	   5.20563	   57.9587	
   5.13271	0.00229863	   5.14535	0.00233235	    5.1345	0.00230778	   5.13752	0.00231292	   5.13752	    57.823	
   5.06425	0.00229327	   5.07688	0.00232697	   5.06619	0.00230203	   5.06911	0.00230743	   5.06911	   57.6856	
   4.99567	0.00228783	   5.00826	0.00232138	   4.99763	0.00229624	   5.00052	0.00230181	   5.00052	   57.5454	
   4.92687	0.00228232	   4.93939	0.00231579	   4.92888	0.00229041	   4.93171	0.00229617	   4.93171	   57.4044	
   4.85782	0.00227674	   4.87024	0.00231017	   4.85987	0.00228447	   4.86265	0.00229046	   4.86265	   57.2616	
   4.78865	0.00227107	   4.80098	0.00230439	   4.79075	0.00227844	   4.79346	0.00228463	   4.79346	   57.1158	
   4.71916	0.00226537	   4.73176	0.00229855	   4.72134	0.00227237	   4.72409	0.00227876	   4.72409	   56.9691	
   4.64954	0.00225961	   4.66211	 0.0022928	   4.65182	 0.0022662	   4.65449	0.00227287	   4.65449	   56.8217	
   4.57986	0.00225374	    4.5924	0.00228677	   4.58201	0.00225997	   4.58475	0.00226683	   4.58475	   56.6707	
   4.50994	0.00224785	   4.52241	0.00228066	   4.51196	 0.0022537	   4.51477	0.00226074	   4.51477	   56.5185	
   4.43991	0.00224189	   4.45232	0.00227461	    4.4418	0.00224734	   4.44468	0.00225461	   4.44468	   56.3654	
   4.36963	0.00223585	    4.3819	0.00226831	   4.37138	0.00224091	    4.3743	0.00224836	    4.3743	   56.2089	
   4.29923	0.00222972	   4.31136	0.00226193	   4.30087	0.00223445	   4.30382	0.00224203	   4.30382	   56.0508	
   4.22861	0.00222357	   4.24068	0.00225556	   4.23025	0.00222786	   4.23318	0.00223566	   4.23318	   55.8916	
   4.15777	 0.0022173	   4.16974	  0.002249	   4.15941	0.00222126	   4.16231	0.00222919	   4.16231	   55.7296	
   4.08683	0.00221094	   4.09879	0.00224235	    4.0885	0.00221458	   4.09137	0.00222262	   4.09137	   55.5655	
   4.01562	0.00220451	    4.0275	0.00223569	   4.01735	0.00220782	   4.02016	0.00221601	   4.02016	   55.4002	
   3.94435	0.00219796	    3.9561	0.00222887	   3.94612	0.00220103	   3.94885	0.00220929	   3.94885	   55.2322	
   3.87297	0.00219138	   3.88454	0.00222195	   3.87477	0.00219414	   3.87743	0.00220249	   3.87743	   55.0622	
   3.80153	0.00218465	   3.81277	0.00221502	   3.80323	0.00218717	   3.80584	0.00219561	   3.80584	   54.8903	
   3.72978	0.00217783	   3.74098	0.00220797	   3.73167	0.00218016	   3.73414	0.00218865	   3.73414	   54.7164	
   3.65794	0.00217097	   3.66896	0.00220082	   3.65987	0.00217311	   3.66226	0.00218163	   3.66226	   54.5408	
   3.58598	0.00216399	   3.59689	0.00219366	   3.58801	0.00216598	   3.59029	0.00217454	   3.59029	   54.3636	
   3.51385	0.00215697	   3.52463	0.00218639	    3.5159	0.00215878	   3.51813	0.00216738	   3.51813	   54.1844	
   3.44153	0.00214989	    3.4522	0.00217901	   3.44364	0.00215157	   3.44579	0.00216015	   3.44579	   54.0038	
   3.36915	0.00214268	   3.37969	0.00217159	   3.37128	0.00214425	   3.37338	0.00215284	   3.37338	    53.821	
   3.29655	0.00213543	   3.30694	0.00216407	   3.29869	0.00213687	   3.30073	0.00214545	   3.30073	   53.6364	
   3.22388	0.00212806	   3.23415	0.00215645	   3.22611	 0.0021294	   3.22804	0.00213797	   3.22804	   53.4493	
   3.15102	0.00212062	   3.16118	0.00214878	   3.15335	 0.0021219	   3.15518	0.00213043	   3.15518	   53.2609	
   3.07805	0.00211313	   3.08808	0.00214102	   3.08047	0.00211433	    3.0822	0.00212282	    3.0822	   53.0706	
     3.005	 0.0021055	   3.01493	0.00213319	    3.0075	0.00210662	   3.00914	 0.0021151	   3.00914	   52.8776	
   2.93172	0.00209783	   2.94154	0.00212529	   2.93429	0.00209885	   2.93585	0.00210732	   2.93585	   52.6831	
   2.85845	0.00209009	   2.86813	0.00211724	     2.861	0.00209107	   2.86253	0.00209947	   2.86253	   52.4866	
   2.78494	0.00208224	    2.7946	0.00210906	   2.78745	0.00208316	     2.789	0.00209149	     2.789	   52.2872	
   2.71137	0.00207428	   2.72093	0.00210083	   2.71384	0.00207519	   2.71538	0.00208343	   2.71538	   52.0858	
   2.63785	0.00206633	   2.64709	0.00209256	   2.64005	0.00206718	   2.64166	0.00207536	   2.64166	   51.8839	
   2.56416	0.00205825	   2.57315	0.00208411	   2.56609	0.00205904	    2.5678	0.00206714	    2.5678	   51.6784	
   2.49049	0.00205004	   2.49915	0.00207565	   2.49213	0.00205087	   2.49392	0.00205885	   2.49392	   51.4713	
   2.41662	0.00204188	   2.42495	0.00206711	   2.41794	0.00204259	   2.41984	0.00205053	   2.41984	   51.2631	
   2.34274	 0.0020336	   2.35075	0.00205836	   2.34374	0.00203417	   2.34574	0.00204204	   2.34574	   51.0511	
   2.26872	0.00202517	   2.27647	0.00204965	    2.2694	0.00202571	   2.27153	0.00203351	   2.27153	   50.8378	
   2.19457	0.00201669	   2.20206	0.00204079	   2.19497	0.00201715	    2.1972	0.00202488	    2.1972	    50.622	
   2.12039	0.00200814	    2.1276	0.00203181	   2.12055	0.00200841	   2.12285	0.00201612	   2.12285	    50.403	
    2.0459	0.00199946	   2.05292	0.00202281	   2.04597	0.00199972	   2.04826	0.00200733	   2.04826	   50.1833	
    1.9714	0.00199062	   1.97825	0.00201376	   1.97142	0.00199083	   1.97369	0.00199841	   1.97369	   49.9601	
   1.89681	0.00198175	   1.90338	0.00200445	   1.89684	0.00198182	   1.89901	0.00198934	   1.89901	   49.7335	
   1.82214	0.00197281	   1.82845	0.00199513	   1.82221	0.00197281	   1.82427	0.00198025	   1.82427	   49.5062	
   1.74746	0.00196371	    1.7535	0.00198572	   1.74749	0.00196361	   1.74948	0.00197101	   1.74948	   49.2754	
   1.67274	 0.0019546	   1.67839	0.00197608	   1.67265	0.00195435	   1.67459	0.00196168	   1.67459	   49.0419	
   1.59801	0.00194534	   1.60334	 0.0019664	    1.5979	  0.001945	   1.59975	0.00195225	   1.59975	   48.8062	
   1.52316	0.00193598	   1.52811	0.00195662	   1.52299	0.00193549	   1.52475	 0.0019427	   1.52475	   48.5674	
   1.44829	0.00192657	    1.4529	0.00194665	   1.44805	 0.0019259	   1.44975	0.00193304	   1.44975	   48.3261	
   1.37332	0.00191699	   1.37762	0.00193658	   1.37305	 0.0019162	   1.37466	0.00192326	   1.37466	   48.0814	
   1.29822	 0.0019073	   1.30227	0.00192648	   1.29793	 0.0019063	   1.29947	0.00191336	   1.29947	    47.834	
   1.22321	 0.0018976	   1.22692	0.00191614	   1.22282	0.00189632	   1.22432	0.00190335	   1.22432	   47.5838	
   1.14806	 0.0018877	   1.15145	0.00190572	   1.14755	0.00188628	   1.14902	0.00189323	   1.14902	   47.3308	
   1.07293	0.00187768	   1.07598	0.00189526	   1.07228	0.00187603	   1.07373	0.00188299	   1.07373	   47.0748	
  0.997725	0.00186765	    1.0005	0.00188461	  0.996904	0.00186563	  0.998377	0.00187263	  0.998377	   46.8157	
  0.922445	0.00185744	  0.924973	0.00187388	  0.921456	0.00185525	  0.922958	0.00186219	  0.922958	   46.5547	
  0.847248	0.00184711	  0.849477	 0.0018631	  0.846092	0.00184469	  0.847606	0.00185163	  0.847606	   46.2908	
  0.771888	0.00183672	  0.773896	0.00185213	  0.770588	0.00183389	  0.772124	0.00184092	  0.772124	   46.0229	
  0.696527	0.00182617	  0.698407	0.00184113	  0.695153	0.00182315	  0.696696	0.00183015	  0.696696	   45.7538	
  0.621143	0.00181557	  0.622787	0.00183002	  0.619663	0.00181221	  0.621198	0.00181927	  0.621198	   45.4816	
   0.54574	0.00180481	  0.547147	0.00181869	  0.544173	0.00180106	  0.545687	0.00180819	  0.545687	   45.2047	
  0.470395	0.00179388	  0.471541	0.00180733	  0.468737	0.00178992	  0.470224	0.00179704	  0.470224	   44.9261	
  0.394936	0.00178292	  0.395846	0.00179588	  0.393179	0.00177858	  0.394654	0.00178579	  0.394654	   44.6449	
  0.319618	0.00177183	  0.320197	0.00178421	   0.31771	0.00176702	  0.319175	0.00177435	  0.319175	   44.3589	
  0.244189	0.00176057	  0.244446	0.00177247	  0.242324	0.00175545	  0.243653	0.00176283	  0.243653	   44.0707	
  0.168759	0.00174921	   0.16875	0.00176064	  0.166768	0.00174375	  0.168092	 0.0017512	  0.168092	   43.7799	
 0.0933303	0.00173778	 0.0931599	0.00174867	 0.0912369	0.00173184	 0.0925757	0.00173943	 0.0925757	   43.4857	
 0.0178345	0.00172613	 0.0174989	 0.0017366	 0.0157594	0.00171986	 0.0170309	0.00172753	 0.0170309	   43.1882	
-0.0575496	0.00171439	-0.0581012	0.00172438	-0.0597901	0.00170777	-0.0584803	0.00171551	-0.0584803	   42.8879	
 -0.133047	0.00170255	 -0.133786	0.00171203	 -0.135378	0.00169551	  -0.13407	0.00170336	  -0.13407	   42.5841	
 -0.208501	0.00169057	 -0.209427	0.00169962	 -0.210926	0.00168314	 -0.209618	0.00169111	 -0.209618	   42.2777	
  -0.28401	0.00167846	 -0.285069	0.00168707	  -0.28653	0.00167068	 -0.285203	0.00167874	 -0.285203	   41.9684	
 -0.359568	0.00166624	 -0.360785	 0.0016744	 -0.362136	0.00165806	  -0.36083	0.00166623	  -0.36083	   41.6559	
 -0.435045	 0.0016539	 -0.436443	0.00166167	 -0.437665	0.00164539	 -0.436384	0.00165365	 -0.436384	   41.3414	
 -0.510589	0.00164145	 -0.512091	0.00164877	 -0.513343	0.00163258	 -0.512008	0.00164093	 -0.512008	   41.0233	
 -0.586024	0.00162894	 -0.587807	0.00163576	 -0.588885	0.00161958	 -0.587572	 0.0016281	 -0.587572	   40.7024	
 -0.661523	0.00161632	 -0.663477	0.00162277	 -0.664444	0.00160652	 -0.663148	 0.0016152	 -0.663148	   40.3801	
  -0.73703	0.00160357	 -0.739126	0.00160959	 -0.739991	 0.0015933	 -0.738716	0.00160216	 -0.738716	   40.0539	
 -0.812443	0.00159074	 -0.814749	0.00159628	 -0.815352	0.00157992	 -0.814182	0.00158898	 -0.814182	   39.7245	
 -0.887937	0.00157779	 -0.890343	0.00158292	 -0.890835	0.00156646	 -0.889705	0.00157572	 -0.889705	   39.3931	
 -0.963357	0.00156469	 -0.965837	0.00156938	 -0.966255	0.00155283	 -0.965149	 0.0015623	 -0.965149	   39.0575	
  -1.03878	0.00155145	  -1.04133	0.00155575	  -1.04171	0.00153908	  -1.04061	0.00154876	  -1.04061	    38.719	
  -1.11418	0.00153822	  -1.11679	0.00154202	  -1.11712	0.00152523	  -1.11603	0.00153516	  -1.11603	   38.3789	
  -1.18948	0.00152471	  -1.19217	 0.0015282	  -1.19245	0.00151127	  -1.19137	0.00152139	  -1.19137	   38.0348	
  -1.26486	0.00151122	   -1.2676	 0.0015143	  -1.26786	0.00149718	  -1.26677	0.00150757	  -1.26677	   37.6891	
  -1.34012	0.00149764	  -1.34289	0.00150023	  -1.34312	0.00148298	  -1.34204	0.00149362	  -1.34204	   37.3405	
  -1.41542	0.00148386	  -1.41821	 0.0014861	  -1.41845	0.00146868	  -1.41736	0.00147955	  -1.41736	   36.9887	
  -1.49055	0.00147012	  -1.49343	0.00147187	  -1.49371	0.00145427	  -1.49256	0.00146542	  -1.49256	   36.6355	
  -1.56554	0.00145626	  -1.56849	0.00145748	   -1.5688	0.00143975	  -1.56761	0.00145116	  -1.56761	   36.2791	
  -1.64055	0.00144229	  -1.64354	  0.001443	  -1.64386	0.00142513	  -1.64265	0.00143681	  -1.64265	   35.9202	
  -1.71539	0.00142829	  -1.71844	0.00142842	  -1.71875	 0.0014104	  -1.71753	0.00142237	  -1.71753	   35.5592	
  -1.79013	0.00141414	  -1.79333	0.00141368	   -1.7936	0.00139557	  -1.79235	 0.0014078	  -1.79235	   35.1949	
  -1.86485	0.00139996	  -1.86815	0.00139883	  -1.86839	0.00138062	  -1.86713	0.00139314	  -1.86713	   34.8285	
  -1.93928	0.00138571	  -1.94287	0.00138389	  -1.94303	0.00136559	  -1.94173	 0.0013784	  -1.94173	   34.4599	
  -2.01374	0.00137133	  -2.01758	0.00136879	  -2.01765	0.00135045	  -2.01632	0.00136352	  -2.01632	    34.088	
  -2.08804	0.00135687	  -2.09211	0.00135359	   -2.0921	0.00133519	  -2.09075	0.00134855	  -2.09075	   33.7137	
  -2.16225	0.00134233	  -2.16642	0.00133834	  -2.16643	0.00131984	  -2.16504	0.00133351	  -2.16504	   33.3376	
  -2.23645	0.00132768	  -2.24074	0.00132286	  -2.24073	0.00130441	  -2.23931	0.00131832	  -2.23931	   32.9579	
  -2.31041	0.00131293	  -2.31502	0.00130727	  -2.31484	0.00128886	  -2.31342	0.00130302	  -2.31342	   32.5755	
  -2.38432	0.00129809	  -2.38917	 0.0012917	  -2.38893	0.00127319	  -2.38748	0.00128766	  -2.38748	   32.1916	
  -2.45811	0.00128316	  -2.46319	0.00127586	  -2.46286	0.00125744	  -2.46139	0.00127215	  -2.46139	   31.8038	
  -2.53179	0.00126814	  -2.53717	 0.0012599	  -2.53677	0.00124158	  -2.53524	0.00125654	  -2.53524	   31.4135	
  -2.60547	0.00125301	   -2.6111	0.00124395	  -2.61064	0.00122562	  -2.60907	0.00124086	  -2.60907	   31.0215	
  -2.67897	0.00123779	  -2.68484	0.00122782	  -2.68433	0.00120957	  -2.68271	0.00122506	  -2.68271	   30.6265	
   -2.7523	0.00122248	  -2.75862	0.00121157	  -2.75759	0.00119338	  -2.75617	0.00120914	  -2.75617	   30.2286	
  -2.82556	0.00120708	  -2.83226	0.00119532	  -2.83117	0.00117717	  -2.82966	0.00119319	  -2.82966	   29.8297	
  -2.89867	0.00119159	  -2.90577	0.00117889	  -2.90451	0.00116075	  -2.90298	0.00117708	  -2.90298	   29.4269	
  -2.97178	0.00117595	  -2.97926	0.00116236	  -2.97772	 0.0011443	  -2.97625	0.00116087	  -2.97625	   29.0218	
  -3.04473	0.00116026	  -3.05253	0.00114576	   -3.0507	0.00112777	  -3.04932	0.00114459	  -3.04932	   28.6149	
  -3.11776	0.00114455	  -3.12576	0.00112909	   -3.1236	0.00111113	  -3.12237	0.00112825	  -3.12237	   28.2064	
  -3.19058	0.00112857	  -3.19888	0.00111224	  -3.19633	0.00109438	  -3.19526	0.00111173	  -3.19526	   27.7932	
  -3.26324	0.00111253	  -3.27175	0.00109532	  -3.26921	0.00107763	  -3.26807	0.00109516	  -3.26807	   27.3791	
   -3.3359	0.00109648	   -3.3446	0.00107831	  -3.34191	0.00106066	   -3.3408	0.00107848	   -3.3408	   26.9621	
  -3.40841	0.00108026	  -3.41727	0.00106119	  -3.41444	0.00104367	  -3.41338	0.00106171	  -3.41338	   26.5427	
  -3.48082	 0.0010639	  -3.48976	  0.001044	  -3.48673	0.00102661	  -3.48577	0.00104484	  -3.48577	    26.121	
  -3.55316	0.00104755	  -3.56221	0.00102673	  -3.55901	0.00100937	  -3.55813	0.00102788	  -3.55813	   25.6971	
  -3.62526	0.00103103	  -3.63444	0.00100931	  -3.63106	0.000992062	  -3.63026	 0.0010108	  -3.63026	     25.27	
  -3.69724	0.00101438	  -3.70653	0.00099188	  -3.70302	0.000974707	  -3.70226	0.000993657	  -3.70226	   24.8414	
  -3.76916	0.000997715	  -3.77849	0.000974394	  -3.77486	0.000957139	  -3.77417	0.000976416	  -3.77417	   24.4104	
   -3.8408	0.000980852	  -3.85017	0.000956763	  -3.84646	0.000939546	  -3.84581	0.000959054	  -3.84581	   23.9763	
  -3.91237	0.00096392	  -3.92177	0.000939136	  -3.91794	0.000921891	  -3.91736	0.000941649	  -3.91736	   23.5412	
  -3.98379	0.000946885	  -3.99321	0.000921413	  -3.98926	0.000904081	  -3.98876	0.000924126	  -3.98876	   23.1032	
    -4.055	0.000929701	  -4.06472	0.000903596	  -4.06029	0.000886224	  -4.06001	0.000906507	  -4.06001	   22.6627	
  -4.12619	0.000912438	  -4.13597	0.000885685	  -4.13125	0.000868281	  -4.13114	0.000888801	  -4.13114	     22.22	
  -4.19716	0.000895079	  -4.20695	0.00086762	  -4.20198	0.000850244	  -4.20203	0.000870981	  -4.20203	   21.7745	
  -4.26795	0.000877588	  -4.27778	0.000849515	  -4.27251	0.00083214	  -4.27275	0.000853081	  -4.27275	    21.327	
  -4.33868	0.000860029	  -4.34857	0.000831363	  -4.34298	0.000813943	  -4.34341	0.000835111	  -4.34341	   20.8778	
  -4.40921	0.000842366	  -4.41925	0.000813024	  -4.41323	0.00079569	   -4.4139	0.000817027	   -4.4139	   20.4257	
  -4.47961	0.000824572	   -4.4898	0.000794609	  -4.48334	0.000777359	  -4.48425	0.000798847	  -4.48425	   19.9712	
  -4.54987	0.000806705	  -4.56018	0.000776158	  -4.55338	0.000758949	  -4.55447	0.000780604	  -4.55447	   19.5151	
  -4.61979	0.000788754	  -4.63025	0.000757532	  -4.62327	0.000740488	  -4.62444	0.000762258	  -4.62444	   19.0564	
  -4.68958	0.000770641	  -4.70019	0.000738844	  -4.69294	0.000722041	  -4.69423	0.000743842	  -4.69423	   18.5961	
   -4.7592	0.000752484	  -4.76992	0.000720109	  -4.76236	0.000703495	  -4.76383	0.000725363	  -4.76383	   18.1341	
  -4.82861	0.000734238	  -4.83934	0.000701247	  -4.83166	0.000684737	   -4.8332	0.000706741	   -4.8332	   17.6685	
  -4.89789	0.00071589	  -4.90868	0.000682356	  -4.90081	0.00066605	  -4.90246	0.000688099	  -4.90246	   17.2025	
  -4.96698	0.000697443	  -4.97778	 0.0006634	   -4.9698	0.000647305	  -4.97152	0.000669382	  -4.97152	   16.7346	
  -5.03583	0.000678963	  -5.04663	0.000644312	  -5.03848	0.00062833	  -5.04031	0.000650535	  -5.04031	   16.2634	
  -5.10463	0.000660345	  -5.11541	0.000625236	  -5.10679	0.000609405	  -5.10894	0.000631662	  -5.10894	   15.7915	
  -5.17318	0.000641618	  -5.18389	0.000606124	  -5.17493	0.000590476	  -5.17733	0.000612739	  -5.17733	   15.3185	
  -5.24139	0.000622898	  -5.25216	0.00058678	  -5.24292	0.000571366	  -5.24549	0.000593681	  -5.24549	    14.842	
  -5.30957	0.000604049	  -5.32033	0.000567451	  -5.31067	0.000552274	  -5.31352	0.000574591	  -5.31352	   14.3648	
  -5.37748	0.000585095	   -5.3882	0.000548111	   -5.3782	0.000533174	  -5.38129	0.00055546	  -5.38129	   13.8865	
  -5.44513	0.000566131	   -5.4559	0.000528592	  -5.44547	0.000513841	  -5.44883	0.000536188	  -5.44883	   13.4047	
  -5.51266	0.000547074	  -5.52346	0.000509029	  -5.51267	0.000494528	  -5.51626	0.000516877	  -5.51626	   12.9219	
  -5.57989	0.000527885	  -5.59066	0.000489429	   -5.5796	0.000475206	  -5.58338	0.000497507	  -5.58338	   12.4377	
  -5.64684	0.000508652	  -5.65795	0.000469827	  -5.64631	0.000455715	  -5.65037	0.000478065	  -5.65037	   11.9516	
  -5.71365	0.00048934	  -5.72486	0.000450035	   -5.7129	0.000436204	  -5.71714	0.000458526	  -5.71714	   11.4632	
  -5.78017	0.000469919	   -5.7915	0.000430229	  -5.77922	0.000416647	  -5.78363	0.000438932	  -5.78363	   10.9733	
  -5.84633	0.000450444	  -5.85785	0.000410417	  -5.84531	0.000396946	  -5.84983	0.000419269	  -5.84983	   10.4817	
  -5.91239	0.000430904	  -5.92402	0.000390446	  -5.91133	0.000377243	  -5.91591	0.000399531	  -5.91591	   9.98828	
  -5.97816	0.000411261	  -5.98985	0.000370447	  -5.97707	0.000357493	   -5.9817	0.000379733	   -5.9817	   9.49334	
  -6.04364	0.000391569	  -6.05541	0.000350431	  -6.04247	0.00033768	  -6.04717	0.000359893	  -6.04717	   8.99733	
  -6.10895	0.00037182	  -6.12082	0.000330296	  -6.10775	0.000317832	  -6.11251	0.000339983	  -6.11251	   8.49957	
  -6.17375	0.000352043	  -6.18589	0.000310122	  -6.17276	0.000297928	  -6.17747	0.000320031	  -6.17747	   8.00078	
  -6.23857	0.000332111	  -6.25056	0.000289949	  -6.23745	0.000277937	  -6.24219	0.000299999	  -6.24219	   7.49998	
  -6.30311	0.000312124	  -6.31509	0.00026968	  -6.30199	0.00025791	  -6.30673	0.000279905	  -6.30673	   6.99762	
  -6.36731	0.000292236	  -6.37932	0.000249391	  -6.36629	0.000237848	  -6.37097	0.000259825	  -6.37097	   6.49562	
  -6.43126	0.000272121	  -6.44322	0.000229123	  -6.43023	0.000217719	   -6.4349	0.000239654	   -6.4349	   5.99136	
  -6.49504	0.000252023	  -6.50701	0.000208799	  -6.49401	0.000197527	  -6.49868	0.000219449	  -6.49868	   5.48623	
  -6.55861	0.000232009	  -6.57053	0.000188395	  -6.55755	0.000177253	  -6.56223	0.000199219	  -6.56223	   4.98047	
  -6.62182	0.000211808	  -6.63369	0.000168053	  -6.62067	0.000156929	  -6.62539	0.00017893	  -6.62539	   4.47325	
  -6.68481	0.000191589	  -6.69669	0.000147634	  -6.68354	0.000136613	  -6.68835	0.000158612	  -6.68835	   3.96529	
  -6.74764	0.000171492	  -6.75948	0.000127151	  -6.74626	0.000116206	  -6.75112	0.000138283	  -6.75112	   3.45707	
  -6.81012	0.000151216	  -6.82189	0.000106687	  -6.80863	9.57742e-05	  -6.81354	0.000117892	  -6.81354	   2.94731	
  -6.87227	0.000130899	  -6.88408	8.61814e-05	  -6.87071	7.53127e-05	  -6.87569	9.74643e-05	  -6.87569	   2.43661	
  -6.93427	0.000110657	  -6.94609	6.55309e-05	  -6.93265	5.48684e-05	  -6.93767	7.70187e-05	  -6.93767	   1.92547	
  -6.99595	9.03005e-05	  -7.00772	4.49456e-05	  -6.99427	3.43618e-05	  -6.99931	5.6536e-05	  -6.99931	    1.4134	
  -7.05723	6.99005e-05	  -7.06911	2.43565e-05	  -7.05545	1.38095e-05	   -7.0606	3.60222e-05	   -7.0606	  0.900555	
  -7.11837	4.95255e-05	  -7.13032	3.65625e-06	   -7.1164	-6.73142e-06	   -7.1217	1.54834e-05	   -7.1217	  0.387086	
  -7.17926	2.90544e-05	  -7.19124	-1.69493e-05	  -7.17712	-2.73249e-05	  -7.18254	-5.07325e-06	  -7.18254	 -0.126831	
  -7.23976	8.54147e-06	  -7.25184	-3.7579e-05	  -7.23744	-4.79298e-05	  -7.24301	-2.56558e-05	  -7.24301	 -0.641394	
      -7.3	-1.19574e-05	  -7.31215	-5.83479e-05	  -7.29749	-6.85193e-05	  -7.30321	-4.62749e-05	  -7.30321	  -1.15687	
  -7.36007	-3.25126e-05	   -7.3722	-7.90381e-05	  -7.35732	-8.91753e-05	   -7.3632	-6.69086e-05	   -7.3632	  -1.67272	
   -7.4198	-5.30956e-05	  -7.43201	-9.96874e-05	  -7.41681	-0.000109837	  -7.42287	-8.754e-05	  -7.42287	   -2.1885	
  -7.47917	-7.36748e-05	  -7.49153	-0.000120415	   -7.4759	-0.00013047	   -7.4822	-0.000108187	   -7.4822	  -2.70467	
  -7.53827	-9.42937e-05	  -7.55084	-0.00014111	  -7.53479	-0.000151159	   -7.5413	-0.000128854	   -7.5413	  -3.22136	
  -7.59715	-0.000114926	  -7.60983	-0.000161888	  -7.59344	-0.000171882	  -7.60014	-0.000149565	  -7.60014	  -3.73913	
  -7.65572	-0.000135558	  -7.66841	-0.000182596	   -7.6517	-0.000192522	  -7.65861	-0.000170225	  -7.65861	  -4.25563	
  -7.71409	-0.000156189	  -7.72678	-0.000203299	  -7.70965	-0.000213216	  -7.71684	-0.000190901	  -7.71684	  -4.77253	
  -7.77211	-0.000176817	  -7.78491	-0.000224053	  -7.76745	-0.000233905	  -7.77482	-0.000211592	  -7.77482	  -5.28979	
  -7.82987	-0.000197471	  -7.84263	-0.000244744	  -7.82491	-0.000254569	  -7.83247	-0.000232261	  -7.83247	  -5.80653	
  -7.88718	-0.000218135	  -7.90004	-0.000265407	  -7.88199	-0.000275268	  -7.88974	-0.000252937	  -7.88974	  -6.32342	
  -7.94414	-0.000238788	  -7.95724	-0.000286095	  -7.93886	-0.000295972	  -7.94675	-0.000273618	  -7.94675	  -6.84046	
   -8.0008	-0.000259459	  -8.01412	-0.000306753	  -7.99551	-0.000316636	  -8.00348	-0.000294283	  -8.00348	  -7.35707	
  -8.05707	-0.000280065	  -8.07058	-0.000327351	  -8.05178	-0.000337336	  -8.05981	-0.000314918	  -8.05981	  -7.87294	
  -8.11298	-0.00030074	  -8.12672	-0.000347966	   -8.1077	-0.000358062	   -8.1158	-0.000335589	   -8.1158	  -8.38973	
  -8.16871	-0.000321402	  -8.18268	-0.000368482	  -8.16346	-0.000378718	  -8.17162	-0.000356201	  -8.17162	  -8.90501	
  -8.22416	-0.000341923	  -8.23828	-0.000389018	  -8.21897	-0.000399358	  -8.22713	-0.000376766	  -8.22713	  -9.41916	
  -8.27918	-0.000362539	  -8.29344	-0.000409638	  -8.27403	-0.000420028	  -8.28222	-0.000397401	  -8.28222	  -9.93504	
  -8.33374	-0.000383166	  -8.34823	-0.000430071	  -8.32867	-0.0004406	  -8.33688	-0.000417945	  -8.33688	  -10.4486	
  -8.38807	-0.000403651	  -8.40283	-0.000450534	  -8.38308	-0.000461183	  -8.39133	-0.000438456	  -8.39133	  -10.9614	
  -8.44212	-0.000424156	  -8.45707	-0.000471094	  -8.43721	-0.000481834	  -8.44546	-0.000459028	  -8.44546	  -11.4757	
  -8.49571	-0.000444657	  -8.51087	-0.000491444	  -8.49089	-0.00050235	  -8.49916	-0.000479484	  -8.49916	  -11.9871	
  -8.54887	-0.000465033	  -8.56431	-0.000511851	  -8.54418	-0.000522901	  -8.55245	-0.000499928	  -8.55245	  -12.4982	
  -8.60185	-0.000485393	   -8.6175	-0.0005323	  -8.59723	-0.000543498	  -8.60553	-0.000520397	  -8.60553	  -13.0099	
  -8.65454	-0.000505741	  -8.67034	-0.000552633	  -8.65001	-0.000563957	   -8.6583	-0.000540777	   -8.6583	  -13.5194	
  -8.70692	-0.000525994	  -8.72269	-0.00057295	  -8.70234	-0.000584482	  -8.71065	-0.000561142	  -8.71065	  -14.0286	
  -8.75881	-0.000546231	  -8.77472	-0.000593316	  -8.75421	-0.00060499	  -8.76258	-0.000581512	  -8.76258	  -14.5378	
  -8.81045	-0.000566433	  -8.82653	-0.00061361	  -8.80586	-0.000625389	  -8.81428	-0.000601811	  -8.81428	  -15.0453	
  -8.86179	-0.000586549	    -8.878	-0.000633829	  -8.85724	-0.000645829	  -8.86568	-0.000622069	  -8.86568	  -15.5517	
  -8.91275	-0.000606626	  -8.92897	-0.000654041	  -8.90822	-0.000666244	  -8.91665	-0.000642304	  -8.91665	  -16.0576	
  -8.96322	-0.00062663	  -8.97954	-0.000674172	  -8.95871	-0.000686603	  -8.96716	-0.000662468	  -8.96716	  -16.5617	
   -9.0134	-0.00064659	  -9.02988	-0.000694265	  -9.00894	-0.000706925	  -9.01741	-0.000682594	  -9.01741	  -17.0648	
   -9.0633	-0.000666495	  -9.07991	-0.000714362	  -9.05889	-0.000727207	  -9.06737	-0.000702688	  -9.06737	  -17.5672	
  -9.11283	-0.000686252	   -9.1295	-0.000734354	  -9.10849	-0.000747515	  -9.11694	-0.000722707	  -9.11694	  -18.0677	
  -9.16186	-0.000705996	  -9.17866	-0.000754268	  -9.15764	-0.000767763	  -9.16605	-0.000742676	  -9.16605	  -18.5669	
  -9.21048	-0.000725652	   -9.2275	-0.00077416	  -9.20633	-0.000787897	  -9.21477	-0.00076257	  -9.21477	  -19.0642	
  -9.25885	-0.000745209	  -9.27611	-0.000793958	  -9.25482	-0.000808027	  -9.26326	-0.000782398	  -9.26326	    -19.56	
  -9.30692	-0.000764661	  -9.32435	-0.000813687	  -9.30301	-0.000828112	  -9.31143	-0.000802153	  -9.31143	  -20.0538	
  -9.35457	-0.000784047	  -9.37211	-0.000833395	  -9.35078	-0.000848087	  -9.35915	-0.000821843	  -9.35915	  -20.5461	
  -9.40173	-0.000803442	   -9.4194	-0.000853027	  -9.39802	-0.000867993	  -9.40638	-0.000841487	  -9.40638	  -21.0372	
  -9.44864	-0.000822668	  -9.46647	-0.00087258	  -9.44485	-0.000887853	  -9.45332	-0.000861034	  -9.45332	  -21.5258	
  -9.49525	-0.000841805	  -9.51329	-0.000892058	  -9.49144	-0.000907597	  -9.49999	-0.000880487	  -9.49999	  -22.0122	
  -9.54154	-0.000860927	  -9.55969	-0.000911507	  -9.53773	-0.000927247	  -9.54632	-0.000899894	  -9.54632	  -22.4973	
  -9.58739	-0.000879858	  -9.60558	-0.000930939	  -9.58357	-0.000946887	  -9.59218	-0.000919228	  -9.59218	  -22.9807	
  -9.63274	-0.000898733	  -9.65101	-0.000950267	  -9.62895	-0.000966424	  -9.63756	-0.000938475	  -9.63756	  -23.4619	
  -9.67778	-0.000917557	   -9.6961	-0.000969448	  -9.67394	-0.000985826	   -9.6826	-0.00095761	   -9.6826	  -23.9403	
  -9.72259	-0.000936196	   -9.7409	-0.000988643	  -9.71868	-0.0010051	  -9.72739	-0.000976647	  -9.72739	  -24.4162	
  -9.76708	-0.000954851	  -9.78531	-0.00100771	  -9.76312	-0.00102442	  -9.77183	-0.00099566	  -9.77183	  -24.8915	
  -9.81111	-0.000973402	   -9.8292	-0.00102667	  -9.80713	-0.00104357	  -9.81581	-0.00101455	  -9.81581	  -25.3637	
  -9.85469	-0.000991831	   -9.8726	-0.00104564	  -9.85068	-0.00106263	  -9.85932	-0.00103337	  -9.85932	  -25.8342	
  -9.89775	-0.00101024	  -9.91578	-0.00106448	  -9.89372	-0.00108169	  -9.90242	-0.00105214	  -9.90242	  -26.3034	
  -9.94054	-0.00102855	  -9.95874	-0.0010832	  -9.93643	-0.00110056	  -9.94524	-0.00107077	  -9.94524	  -26.7693	
  -9.98293	-0.00104675	  -10.0013	-0.00110193	  -9.97885	-0.00111935	   -9.9877	-0.00108934	   -9.9877	  -27.2335	
  -10.0251	-0.0010649	  -10.0434	-0.0011205	  -10.0209	-0.00113813	  -10.0298	-0.00110784	  -10.0298	  -27.6961	
  -10.0669	-0.00108305	   -10.085	-0.00113899	  -10.0624	-0.00115676	  -10.0714	-0.00112627	  -10.0714	  -28.1567	
  -10.1082	-0.00110093	  -10.1261	-0.00115744	  -10.1035	-0.00117527	  -10.1126	-0.00114455	  -10.1126	  -28.6137	
  -10.1491	-0.00111884	   -10.167	-0.00117575	  -10.1443	-0.00119374	  -10.1534	-0.00116278	  -10.1534	  -29.0695	
  -10.1897	-0.00113672	  -10.2075	-0.00119397	  -10.1848	-0.00121207	   -10.194	-0.00118092	   -10.194	   -29.523	
  -10.2299	-0.00115432	  -10.2477	-0.00121212	   -10.225	-0.00123026	  -10.2342	-0.0011989	  -10.2342	  -29.9726	
  -10.2698	-0.00117197	  -10.2874	-0.00123016	  -10.2648	-0.00124841	   -10.274	-0.00121685	   -10.274	  -30.4211	
   -10.309	-0.00118961	  -10.3265	-0.00124809	  -10.3041	-0.0012664	  -10.3132	-0.0012347	  -10.3132	  -30.8675	
  -10.3477	-0.00120696	  -10.3652	-0.00126595	  -10.3429	-0.00128426	  -10.3519	-0.00125239	  -10.3519	  -31.3098	
  -10.3859	-0.00122438	  -10.4034	-0.0012837	  -10.3813	-0.00130209	  -10.3902	-0.00127006	  -10.3902	  -31.7514	
  -10.4238	-0.00124175	  -10.4414	-0.00130132	  -10.4195	-0.00131978	  -10.4282	-0.00128762	  -10.4282	  -32.1904	
  -10.4614	-0.0012589	   -10.479	-0.00131886	  -10.4574	-0.00133734	  -10.4659	-0.00130503	  -10.4659	  -32.6258	
  -10.4986	-0.00127609	  -10.5161	-0.00133627	  -10.4949	-0.00135483	  -10.5032	-0.0013224	  -10.5032	  -33.0599	
  -10.5353	-0.00129323	  -10.5527	-0.00135358	  -10.5318	-0.0013722	  -10.5399	-0.00133967	  -10.5399	  -33.4918	
  -10.5714	-0.00131016	  -10.5888	-0.00137083	  -10.5682	-0.00138943	  -10.5761	-0.0013568	  -10.5761	  -33.9201	
   -10.607	-0.00132706	  -10.6243	-0.0013879	  -10.6041	-0.00140656	  -10.6118	-0.00137384	  -10.6118	   -34.346	
  -10.6422	-0.00134381	  -10.6591	-0.00140492	  -10.6396	-0.00142358	   -10.647	-0.00139077	   -10.647	  -34.7693	
  -10.6771	-0.00136038	  -10.6941	-0.00142168	  -10.6749	-0.00144044	   -10.682	-0.0014075	   -10.682	  -35.1875	
  -10.7118	-0.00137693	  -10.7285	-0.00143848	  -10.7098	-0.0014571	  -10.7167	-0.00142417	  -10.7167	  -35.6042	
   -10.746	-0.00139333	  -10.7625	-0.00145514	  -10.7442	-0.00147378	  -10.7509	-0.00144075	  -10.7509	  -36.0188	
  -10.7798	-0.00140954	   -10.796	-0.00147158	  -10.7782	-0.00149029	  -10.7847	-0.00145714	  -10.7847	  -36.4284	
   -10.813	-0.0014257	  -10.8291	-0.00148798	  -10.8116	-0.00150663	  -10.8179	-0.00147343	  -10.8179	  -36.8359	
  -10.8458	-0.00144173	  -10.8617	-0.00150425	  -10.8445	-0.00152292	  -10.8506	-0.00148964	  -10.8506	  -37.2409	
  -10.8779	-0.00145759	  -10.8939	-0.00152035	  -10.8768	-0.00153898	  -10.8829	-0.00150564	  -10.8829	   -37.641	
  -10.9099	-0.0014733	  -10.9259	-0.00153635	  -10.9083	-0.00155498	  -10.9147	-0.00152155	  -10.9147	  -38.0387	
  -10.9413	-0.00148899	  -10.9576	-0.00155223	  -10.9399	-0.00157079	  -10.9463	-0.00153733	  -10.9463	  -38.4333	
  -10.9723	-0.00150457	  -10.9889	-0.00156798	  -10.9708	-0.00158653	  -10.9774	-0.00155303	  -10.9774	  -38.8257	
  -11.0029	-0.00151992	  -11.0198	-0.00158362	  -11.0012	-0.00160213	   -11.008	-0.00156856	   -11.008	  -39.2139	
  -11.0329	-0.0015352	  -11.0502	-0.00159914	  -11.0315	-0.00161752	  -11.0382	-0.00158396	  -11.0382	  -39.5989	
  -11.0625	-0.0015504	    -11.08	-0.00161448	  -11.0613	-0.00163296	  -11.0679	-0.00159928	  -11.0679	   -39.982	
  -11.0916	-0.00156541	  -11.1092	-0.00162974	  -11.0906	-0.00164816	  -11.0971	-0.00161444	  -11.0971	  -40.3609	
  -11.1201	-0.00158033	   -11.138	-0.00164484	  -11.1193	-0.00166323	  -11.1258	-0.00162947	  -11.1258	  -40.7366	
  -11.1481	-0.00159514	  -11.1662	-0.00165976	  -11.1476	-0.00167826	   -11.154	-0.00164439	   -11.154	  -41.1097	
  -11.1757	-0.00160985	  -11.1941	-0.00167457	  -11.1754	-0.00169313	  -11.1818	-0.00165918	  -11.1818	  -41.4796	
  -11.2031	-0.00162443	  -11.2218	-0.00168919	   -11.203	-0.0017078	  -11.2093	-0.00167381	  -11.2093	  -41.8452	
  -11.2302	-0.00163883	  -11.2491	-0.00170365	  -11.2303	-0.00172244	  -11.2365	-0.00168831	  -11.2365	  -42.2077	
   -11.257	-0.00165311	  -11.2761	-0.00171801	  -11.2573	-0.00173695	  -11.2634	-0.00170269	  -11.2634	  -42.5672	
  -11.2834	-0.00166728	  -11.3026	-0.00173219	  -11.2839	-0.00175117	    -11.29	-0.00171688	    -11.29	   -42.922	
  -11.3094	-0.0016813	  -11.3285	-0.00174616	    -11.31	-0.00176536	   -11.316	-0.00173094	   -11.316	  -43.2735	
   -11.335	-0.0016952	   -11.354	-0.00176003	  -11.3357	-0.00177937	  -11.3415	-0.00174487	  -11.3415	  -43.6217	
    -11.36	-0.00170899	   -11.379	-0.00177375	  -11.3607	-0.00179314	  -11.3666	-0.00175862	  -11.3666	  -43.9656	
  -11.3844	-0.00172258	  -11.4035	-0.00178729	  -11.3853	-0.00180676	  -11.3911	-0.00177221	  -11.3911	  -44.3053	
  -11.4083	-0.00173607	  -11.4277	-0.00180072	  -11.4092	-0.00182029	   -11.415	-0.00178569	   -11.415	  -44.6423	
  -11.4315	-0.00174942	  -11.4513	-0.00181395	  -11.4324	-0.00183361	  -11.4384	-0.00179899	  -11.4384	  -44.9749	
  -11.4541	-0.00176261	  -11.4745	 -0.001827	  -11.4551	-0.00184677	  -11.4613	-0.00181213	  -11.4613	  -45.3032	
  -11.4763	-0.00177568	  -11.4972	-0.00183996	  -11.4774	-0.0018598	  -11.4836	-0.00182515	  -11.4836	  -45.6287	
   -11.498	-0.00178862	  -11.5194	-0.00185276	  -11.4993	-0.00187262	  -11.5056	 -0.001838	  -11.5056	    -45.95	
  -11.5194	-0.0018014	  -11.5411	-0.00186539	  -11.5207	-0.00188527	  -11.5271	-0.00185069	  -11.5271	  -46.2672	
  -11.5405	-0.00181404	  -11.5625	-0.00187792	  -11.5418	-0.00189787	  -11.5482	-0.00186328	  -11.5482	   -46.582	
  -11.5614	-0.0018266	  -11.5834	-0.00189026	  -11.5625	-0.00191023	  -11.5691	-0.0018757	  -11.5691	  -46.8925	
  -11.5819	 -0.001839	   -11.604	-0.00190246	  -11.5828	-0.00192239	  -11.5896	-0.00188795	  -11.5896	  -47.1987	
  -11.6021	-0.00185121	  -11.6242	-0.00191457	  -11.6026	-0.00193444	  -11.6097	-0.00190007	  -11.6097	  -47.5018	
   -11.622	-0.00186336	  -11.6439	-0.00192653	  -11.6223	-0.00194625	  -11.6294	-0.00191205	  -11.6294	  -47.8012	
  -11.6414	-0.00187535	  -11.6631	-0.00193825	  -11.6413	-0.00195798	  -11.6486	-0.00192386	  -11.6486	  -48.0964	
  -11.6603	-0.00188713	  -11.6818	-0.00194996	  -11.6598	-0.00196961	  -11.6673	-0.00193557	  -11.6673	  -48.3891	
  -11.6788	-0.00189884	  -11.6999	-0.00196152	  -11.6779	-0.00198095	  -11.6855	-0.00194711	  -11.6855	  -48.6776	
  -11.6967	-0.00191041	  -11.7174	-0.00197285	  -11.6955	-0.00199216	  -11.7032	-0.00195847	  -11.7032	  -48.9619	
  -11.7142	-0.00192177	  -11.7344	-0.00198411	  -11.7126	-0.00200335	  -11.7204	-0.00196975	  -11.7204	  -49.2437	
   -11.731	-0.00193299	  -11.7509	-0.00199525	  -11.7292	-0.00201427	   -11.737	-0.00198084	   -11.737	  -49.5209	
  -11.7474	-0.00194415	  -11.7667	-0.00200618	  -11.7452	-0.00202502	  -11.7531	-0.00199178	  -11.7531	  -49.7946	
  -11.7631	-0.0019551	  -11.7819	 -0.002017	  -11.7607	-0.00203575	  -11.7686	-0.00200262	  -11.7686	  -50.0655	
  -11.7783	-0.00196592	  -11.7966	-0.00202773	  -11.7756	-0.00204631	  -11.7835	-0.00201332	  -11.7835	   -50.333	
  -11.7929	-0.00197667	   -11.811	-0.00203826	    -11.79	-0.00205667	   -11.798	-0.00202386	   -11.798	  -50.5966	
  -11.8069	-0.00198727	  -11.8249	-0.00204877	  -11.8038	-0.00206691	  -11.8119	-0.00203432	  -11.8119	   -50.858	
  -11.8204	-0.00199766	  -11.8385	-0.0020591	  -11.8171	-0.00207704	  -11.8253	-0.0020446	  -11.8253	   -51.115	
  -11.8333	 -0.002008	  -11.8515	-0.00206927	  -11.8299	-0.00208693	  -11.8382	-0.00205473	  -11.8382	  -51.3683	
  -11.8456	-0.00201821	   -11.864	-0.00207938	   -11.842	-0.00209671	  -11.8505	-0.00206476	  -11.8505	  -51.6191	
  -11.8573	-0.00202829	   -11.876	-0.0020893	  -11.8537	-0.0021064	  -11.8623	-0.00207466	  -11.8623	  -51.8665	
  -11.8688	-0.00203816	  -11.8875	-0.00209911	  -11.8649	-0.00211588	  -11.8737	-0.00208438	  -11.8737	  -52.1096	
  -11.8797	 -0.002048	  -11.8985	-0.00210882	  -11.8757	-0.00212524	  -11.8846	-0.00209402	  -11.8846	  -52.3505	
  -11.8903	-0.00205766	  -11.9089	-0.00211833	  -11.8859	-0.00213452	   -11.895	-0.0021035	   -11.895	  -52.5875	
  -11.9003	-0.00206715	  -11.9188	-0.00212777	  -11.8958	-0.00214359	   -11.905	-0.00211284	   -11.905	   -52.821	
  -11.9097	-0.00207662	  -11.9282	-0.00213709	  -11.9051	-0.00215254	  -11.9144	-0.00212208	  -11.9144	  -53.0521	
  -11.9186	-0.00208589	  -11.9372	-0.00214623	   -11.914	-0.00216138	  -11.9233	-0.00213116	  -11.9233	  -53.2791	
   -11.927	 -0.002095	  -11.9457	-0.00215529	  -11.9223	-0.00217008	  -11.9317	-0.00214013	  -11.9317	  -53.5031	
  -11.9349	-0.00210409	  -11.9537	-0.00216424	  -11.9303	-0.00217865	  -11.9396	-0.00214899	  -11.9396	  -53.7248	
  -11.9424	-0.00211299	  -11.9612	-0.00217302	  -11.9378	-0.00218711	  -11.9471	-0.00215771	  -11.9471	  -53.9427	
  -11.9494	-0.0021217	  -11.9682	-0.00218168	  -11.9449	-0.00219545	  -11.9542	-0.00216628	  -11.9542	  -54.1569	
  -11.9559	-0.00213045	  -11.9747	-0.00219019	  -11.9514	-0.0022037	  -11.9607	-0.00217478	  -11.9607	  -54.3695	
   -11.962	-0.00213896	  -11.9807	-0.00219856	  -11.9575	-0.00221182	  -11.9667	-0.00218311	  -11.9667	  -54.5779	
  -11.9675	-0.00214735	  -11.9861	-0.00220687	  -11.9631	-0.00221982	  -11.9723	-0.00219135	  -11.9723	  -54.7836	
  -11.9727	-0.00215575	  -11.9911	-0.00221496	  -11.9682	-0.00222774	  -11.9773	-0.00219948	  -11.9773	  -54.9871	
  -11.9773	-0.00216394	  -11.9956	-0.00222294	   -11.973	-0.0022355	   -11.982	-0.00220746	   -11.982	  -55.1865	
  -11.9816	-0.00217199	  -11.9997	-0.00223084	  -11.9773	-0.00224318	  -11.9862	-0.00221534	  -11.9862	  -55.3834	
  -11.9855	-0.00218003	  -12.0034	-0.00223855	  -11.9812	-0.00225078	    -11.99	-0.00222312	    -11.99	  -55.5781	
   -11.989	-0.0021879	  -12.0069	-0.00224614	  -11.9848	-0.00225824	  -11.9935	-0.00223076	  -11.9935	  -55.7691	
  -11.9922	-0.00219564	    -12.01	-0.00225365	   -11.988	-0.00226563	  -11.9967	-0.00223831	  -11.9967	  -55.9576	
   -11.995	-0.00220335	  -12.0125	-0.00226105	  -11.9908	-0.00227291	  -11.9995	-0.00224577	  -11.9995	  -56.1442	
  -11.9975	-0.0022109	  -12.0147	-0.00226827	  -11.9934	-0.00228004	  -12.0019	-0.00225307	  -12.0019	  -56.3267	
  -11.9997	-0.00221832	  -12.0166	-0.00227542	  -11.9956	-0.00228705	   -12.004	-0.00226026	   -12.004	  -56.5066	
  -12.0014	-0.0022257	  -12.0181	-0.00228244	  -11.9976	-0.00229399	  -12.0057	-0.00226738	  -12.0057	  -56.6844	
   -12.003	-0.00223295	  -12.0193	-0.00228933	  -11.9993	-0.00230081	  -12.0072	-0.00227436	  -12.0072	  -56.8591	
   -12.004	-0.00224012	  -12.0201	-0.00229618	  -12.0007	-0.00230752	  -12.0083	-0.00228127	  -12.0083	  -57.0318	
  -12.0046	-0.00224721	  -12.0206	-0.00230284	  -12.0017	-0.00231416	   -12.009	-0.00228807	   -12.009	  -57.2018	
  -12.0046	-0.00225406	  -12.0208	-0.00230945	  -12.0022	-0.00232072	  -12.0092	-0.00229474	  -12.0092	  -57.3686	
  -12.0043	-0.00226087	  -12.0207	-0.00231596	  -12.0023	-0.00232707	  -12.0091	-0.0023013	  -12.0091	  -57.5325	
  -12.0036	-0.0022676	  -12.0202	-0.00232231	  -12.0019	-0.0023334	  -12.0086	-0.00230777	  -12.0086	  -57.6942	
  -12.0024	-0.00227415	  -12.0193	-0.00232861	  -12.0009	-0.00233965	  -12.0075	-0.00231414	  -12.0075	  -57.8535	
  -12.0006	-0.00228064	  -12.0178	-0.0023348	  -11.9993	-0.0023457	  -12.0059	-0.00232038	  -12.0059	  -58.0095	
  -11.9983	-0.00228704	  -12.0158	-0.00234086	  -11.9972	-0.00235163	  -12.0037	-0.00232651	  -12.0037	  -58.1628	
  -11.9954	-0.00229331	  -12.0132	-0.00234681	  -11.9945	-0.00235762	   -12.001	-0.00233258	   -12.001	  -58.3144	
   -11.992	-0.00229947	    -12.01	-0.00235275	  -11.9913	-0.00236336	  -11.9978	-0.00233853	  -11.9978	  -58.4632	
  -11.9881	-0.00230559	  -12.0063	-0.00235854	  -11.9877	-0.00236896	   -11.994	-0.00234436	   -11.994	  -58.6091	
  -11.9839	-0.00231154	  -12.0021	-0.0023642	  -11.9837	-0.00237461	  -11.9899	-0.00235012	  -11.9899	  -58.7529	
  -11.9794	-0.00231736	  -11.9975	-0.00236987	  -11.9793	-0.00238009	  -11.9854	-0.00235578	  -11.9854	  -58.8944	
  -11.9745	-0.00232315	  -11.9926	-0.00237536	  -11.9745	-0.00238546	  -11.9805	-0.00236132	  -11.9805	  -59.0331	
  -11.9692	-0.00232879	  -11.9871	-0.00238072	  -11.9694	-0.00239083	  -11.9753	-0.00236678	  -11.9753	  -59.1694	
  -11.9635	-0.00233429	  -11.9813	-0.00238604	  -11.9638	-0.00239606	  -11.9696	-0.00237213	  -11.9696	  -59.3032	
  -11.9574	-0.00233973	   -11.975	-0.00239124	  -11.9577	-0.00240117	  -11.9634	-0.00237738	  -11.9634	  -59.4344	
  -11.9506	-0.00234501	  -11.9683	-0.00239628	   -11.951	-0.00240626	  -11.9566	-0.00238252	  -11.9566	  -59.5629	
  -11.9432	-0.00235018	  -11.9611	-0.0024013	  -11.9436	-0.00241122	  -11.9493	-0.00238757	  -11.9493	  -59.6892	
  -11.9352	-0.00235528	  -11.9534	-0.00240622	  -11.9356	-0.00241606	  -11.9414	-0.00239252	  -11.9414	   -59.813	
  -11.9267	-0.0023603	  -11.9451	-0.00241098	  -11.9272	-0.00242086	   -11.933	-0.00239738	   -11.933	  -59.9345	
  -11.9177	-0.00236515	  -11.9363	-0.0024157	  -11.9182	-0.00242559	  -11.9241	-0.00240214	  -11.9241	  -60.0536	
  -11.9084	-0.00236994	   -11.927	-0.00242038	  -11.9089	-0.0024301	  -11.9148	-0.00240681	  -11.9148	  -60.1702	
  -11.8988	-0.00237464	  -11.9174	-0.00242493	  -11.8993	-0.00243455	  -11.9051	-0.00241137	  -11.9051	  -60.2842	
  -11.8888	-0.00237922	  -11.9074	-0.0024294	  -11.8892	-0.0024389	  -11.8951	-0.00241584	  -11.8951	   -60.396	
  -11.8784	-0.00238371	  -11.8971	-0.00243382	  -11.8785	-0.00244313	  -11.8847	-0.00242022	  -11.8847	  -60.5055	
  -11.8674	-0.00238809	  -11.8863	-0.00243812	  -11.8674	-0.00244731	  -11.8737	-0.00242451	  -11.8737	  -60.6127	
  -11.8557	-0.00239242	  -11.8749	-0.00244233	  -11.8557	-0.00245137	  -11.8621	-0.00242871	  -11.8621	  -60.7177	
  -11.8435	-0.00239659	  -11.8629	-0.00244648	  -11.8436	-0.00245532	    -11.85	-0.0024328	    -11.85	  -60.8199	
  -11.8308	-0.00240066	  -11.8503	-0.00245053	   -11.831	-0.00245928	  -11.8374	-0.00243682	  -11.8374	  -60.9206	
  -11.8177	-0.00240467	  -11.8373	-0.00245446	   -11.818	-0.00246307	  -11.8243	-0.00244073	  -11.8243	  -61.0184	
  -11.8043	-0.00240851	  -11.8238	-0.0024583	  -11.8045	-0.00246681	  -11.8109	-0.00244454	  -11.8109	  -61.1135	
  -11.7906	-0.00241231	    -11.81	-0.0024621	  -11.7905	-0.00247052	   -11.797	-0.00244831	   -11.797	  -61.2078	
  -11.7762	-0.00241612	  -11.7958	-0.00246579	  -11.7759	 -0.002474	  -11.7827	-0.00245197	  -11.7827	  -61.2993	
  -11.7613	-0.00241978	  -11.7811	-0.00246933	  -11.7607	-0.00247743	  -11.7677	-0.00245551	  -11.7677	  -61.3879	
  -11.7458	-0.00242324	  -11.7657	-0.00247284	   -11.745	-0.00248085	  -11.7522	-0.00245898	  -11.7522	  -61.4745	
  -11.7298	-0.00242674	  -11.7498	-0.00247629	  -11.7288	-0.0024841	  -11.7361	-0.00246237	  -11.7361	  -61.5594	
  -11.7134	-0.00243016	  -11.7333	-0.00247961	  -11.7122	-0.00248727	  -11.7196	-0.00246568	  -11.7196	   -61.642	
  -11.6967	-0.00243338	  -11.7165	-0.00248291	  -11.6952	-0.00249048	  -11.7028	-0.00246892	  -11.7028	   -61.723	
  -11.6795	-0.00243661	  -11.6993	-0.00248612	  -11.6779	-0.00249347	  -11.6856	-0.00247207	  -11.6856	  -61.8016	
  -11.6618	-0.00243976	  -11.6817	-0.00248918	    -11.66	-0.00249638	  -11.6679	-0.00247511	  -11.6679	  -61.8777	
  -11.6436	-0.00244273	  -11.6636	-0.00249226	  -11.6415	-0.00249937	  -11.6495	-0.00247812	  -11.6495	   -61.953	
  -11.6248	-0.00244565	  -11.6447	-0.00249522	  -11.6225	-0.00250217	  -11.6307	-0.00248101	  -11.6307	  -62.0253	
  -11.6055	-0.00244855	  -11.6254	-0.00249805	   -11.603	-0.00250491	  -11.6113	-0.00248384	  -11.6113	   -62.096	
   -11.586	-0.00245126	  -11.6056	-0.00250087	  -11.5833	-0.00250772	  -11.5916	-0.00248661	  -11.5916	  -62.1653	
   -11.566	-0.00245393	  -11.5855	-0.00250361	  -11.5632	-0.00251036	  -11.5716	-0.0024893	  -11.5716	  -62.2325	
  -11.5455	-0.00245658	   -11.565	-0.00250621	  -11.5427	-0.00251289	  -11.5511	-0.00249189	  -11.5511	  -62.2974	
  -11.5246	-0.00245909	   -11.544	-0.00250882	  -11.5215	-0.00251548	  -11.5301	-0.00249447	  -11.5301	  -62.3616	
  -11.5032	-0.00246164	  -11.5224	-0.00251134	  -11.4999	-0.00251794	  -11.5085	-0.00249698	  -11.5085	  -62.4244	
  -11.4813	-0.00246406	  -11.5003	-0.00251374	  -11.4778	-0.00252029	  -11.4865	-0.00249936	  -11.4865	  -62.4841	
  -11.4591	-0.00246642	  -11.4778	-0.00251615	  -11.4554	-0.00252265	  -11.4641	-0.00250174	  -11.4641	  -62.5435	
  -11.4365	-0.0024688	   -11.455	-0.00251846	  -11.4326	-0.00252491	  -11.4414	-0.00250406	  -11.4414	  -62.6014	
  -11.4132	-0.00247106	  -11.4317	-0.00252067	  -11.4093	-0.00252706	  -11.4181	-0.00250626	  -11.4181	  -62.6565	
  -11.3894	-0.00247324	  -11.4078	-0.00252286	  -11.3854	-0.00252926	  -11.3942	-0.00250845	  -11.3942	  -62.7114	
  -11.3651	-0.00247548	  -11.3834	-0.00252497	  -11.3611	-0.00253137	  -11.3698	-0.00251061	  -11.3698	  -62.7652	
  -11.3404	-0.00247756	  -11.3585	-0.00252698	  -11.3364	-0.00253338	  -11.3451	-0.00251264	  -11.3451	   -62.816	
  -11.3153	-0.00247958	  -11.3333	-0.00252894	  -11.3114	-0.00253541	    -11.32	-0.00251464	    -11.32	  -62.8661	
  -11.2896	-0.00248163	  -11.3079	-0.00253086	   -11.286	-0.00253734	  -11.2945	-0.00251661	  -11.2945	  -62.9153	
  -11.2634	-0.00248354	  -11.2818	-0.00253267	  -11.2599	-0.00253917	  -11.2684	-0.00251846	  -11.2684	  -62.9615	
  -11.2367	-0.00248533	  -11.2552	-0.00253442	  -11.2334	-0.00254099	  -11.2418	-0.00252025	  -11.2418	  -63.0062	
  -11.2096	-0.00248717	  -11.2282	-0.00253614	  -11.2065	-0.00254273	  -11.2148	-0.00252201	  -11.2148	  -63.0503	
  -11.1822	-0.0024889	  -11.2008	-0.00253774	  -11.1793	-0.00254439	  -11.1874	-0.00252368	  -11.1874	  -63.0919	
  -11.1543	-0.00249051	   -11.173	-0.00253929	  -11.1516	-0.00254597	  -11.1596	-0.00252525	  -11.1596	  -63.1313	
  -11.1258	-0.00249207	  -11.1446	-0.00254083	  -11.1233	-0.00254751	  -11.1312	-0.0025268	  -11.1312	  -63.1701	
  -11.0968	-0.00249371	  -11.1157	-0.00254226	  -11.0945	-0.00254886	  -11.1023	-0.00252828	  -11.1023	  -63.2069	
  -11.0675	-0.00249514	  -11.0864	-0.00254359	  -11.0654	-0.00255017	  -11.0731	-0.00252963	  -11.0731	  -63.2408	
  -11.0378	-0.00249648	  -11.0567	-0.00254489	  -11.0359	-0.00255154	  -11.0435	-0.00253097	  -11.0435	  -63.2743	
  -11.0076	-0.00249791	  -11.0266	-0.00254607	  -11.0059	-0.00255275	  -11.0134	-0.00253224	  -11.0134	  -63.3061	
  -10.9769	-0.00249912	  -10.9955	-0.00254726	  -10.9753	-0.00255389	  -10.9826	-0.00253342	  -10.9826	  -63.3356	
  -10.9457	-0.0025002	  -10.9646	-0.00254828	  -10.9443	-0.00255505	  -10.9515	-0.00253451	  -10.9515	  -63.3627	
  -10.9143	-0.00250136	   -10.933	-0.00254934	   -10.913	-0.00255607	  -10.9201	-0.00253559	  -10.9201	  -63.3897	
  -10.8824	-0.00250234	  -10.9008	-0.0025503	  -10.8813	-0.00255702	  -10.8882	-0.00253655	  -10.8882	  -63.4138	
  -10.8502	-0.00250315	  -10.8682	-0.00255109	  -10.8491	-0.00255798	  -10.8558	-0.00253741	  -10.8558	  -63.4352	
  -10.8175	-0.0025041	  -10.8351	-0.00255191	  -10.8163	-0.00255888	   -10.823	-0.00253829	   -10.823	  -63.4574	
  -10.7843	-0.00250495	  -10.8016	-0.00255267	  -10.7832	-0.00255963	  -10.7897	-0.00253909	  -10.7897	  -63.4771	
  -10.7507	-0.00250565	  -10.7679	-0.00255328	  -10.7497	-0.00256039	  -10.7561	-0.00253977	  -10.7561	  -63.4943	
  -10.7166	-0.00250644	  -10.7338	-0.00255386	  -10.7153	-0.00256104	  -10.7219	-0.00254045	  -10.7219	  -63.5112	
  -10.6819	-0.00250716	  -10.6991	-0.00255443	   -10.681	-0.00256155	  -10.6874	-0.00254105	  -10.6874	  -63.5261	
   -10.647	-0.00250775	  -10.6641	-0.00255487	  -10.6461	-0.00256219	  -10.6524	-0.0025416	  -10.6524	  -63.5401	
  -10.6116	-0.00250834	  -10.6287	-0.00255525	  -10.6108	-0.00256261	  -10.6171	-0.00254207	  -10.6171	  -63.5517	
  -10.5758	-0.00250889	  -10.5929	-0.00255562	   -10.575	-0.00256299	  -10.5812	-0.0025425	  -10.5812	  -63.5626	
  -10.5395	-0.00250928	  -10.5567	-0.00255586	  -10.5386	-0.00256338	  -10.5449	-0.00254284	  -10.5449	   -63.571	
  -10.5028	-0.00250966	    -10.52	-0.00255603	   -10.502	-0.00256364	  -10.5082	-0.00254311	  -10.5082	  -63.5777	
  -10.4659	-0.00251001	   -10.483	-0.00255622	   -10.465	-0.00256386	  -10.4713	-0.00254336	  -10.4713	  -63.5841	
  -10.4284	-0.00251022	  -10.4457	-0.00255629	  -10.4277	-0.00256412	  -10.4339	-0.00254354	  -10.4339	  -63.5885	
  -10.3904	-0.00251042	  -10.4078	-0.00255625	  -10.3899	-0.00256418	   -10.396	-0.00254362	   -10.396	  -63.5904	
  -10.3521	-0.0025106	  -10.3695	-0.00255621	  -10.3517	-0.00256421	  -10.3578	-0.00254367	  -10.3578	  -63.5918	
  -10.3135	-0.00251066	  -10.3309	-0.00255608	  -10.3132	-0.00256423	  -10.3192	-0.00254366	  -10.3192	  -63.5915	
  -10.2743	-0.0025107	  -10.2918	-0.00255585	  -10.2743	-0.00256411	  -10.2802	-0.00254356	  -10.2802	  -63.5889	
  -10.2347	-0.00251071	  -10.2523	-0.00255559	  -10.2349	-0.00256394	  -10.2406	-0.00254341	  -10.2406	  -63.5854	
  -10.1947	-0.00251058	  -10.2124	-0.00255527	  -10.1952	-0.00256373	  -10.2007	-0.0025432	  -10.2007	  -63.5799	
  -10.1544	-0.00251048	  -10.1722	-0.00255489	  -10.1551	-0.0025634	  -10.1606	-0.00254292	  -10.1606	  -63.5731	
  -10.1135	-0.00251036	  -10.1316	-0.00255447	  -10.1145	-0.00256303	  -10.1199	-0.00254262	  -10.1199	  -63.5656	
  -10.0722	-0.0025101	  -10.0907	 -0.002554	  -10.0734	-0.00256264	  -10.0788	-0.00254225	  -10.0788	  -63.5562	
  -10.0308	-0.00250981	  -10.0494	-0.00255342	  -10.0321	-0.0025622	  -10.0374	-0.00254181	  -10.0374	  -63.5452	
  -9.98884	-0.0025095	  -10.0076	-0.00255279	   -9.9903	-0.00256169	  -9.99559	-0.00254132	  -9.99559	  -63.5331	
  -9.94644	-0.00250908	  -9.96564	-0.00255216	  -9.94796	-0.00256114	  -9.95335	-0.00254079	  -9.95335	  -63.5198	
   -9.9037	-0.00250865	   -9.9231	-0.00255145	  -9.90529	-0.00256056	   -9.9107	-0.00254022	   -9.9107	  -63.5055	
  -9.86072	-0.00250821	  -9.88013	-0.00255067	  -9.86225	-0.00255987	   -9.8677	-0.00253958	   -9.8677	  -63.4896	
  -9.81732	-0.00250768	  -9.83678	-0.00254992	  -9.81873	-0.00255918	  -9.82428	-0.00253893	  -9.82428	  -63.4732	
  -9.77349	-0.00250714	  -9.79292	-0.00254903	  -9.77481	-0.00255847	  -9.78041	-0.00253821	  -9.78041	  -63.4553	
  -9.72935	-0.00250661	  -9.74875	-0.0025481	  -9.73067	-0.00255768	  -9.73626	-0.00253746	  -9.73626	  -63.4366	
  -9.68486	-0.00250592	  -9.70427	-0.00254717	  -9.68617	-0.00255677	  -9.69177	-0.00253662	  -9.69177	  -63.4155	
   -9.6399	-0.0025053	   -9.6593	-0.00254611	  -9.64122	-0.00255577	  -9.64681	-0.00253573	  -9.64681	  -63.3932	
   -9.5946	-0.00250457	  -9.61393	-0.00254502	  -9.59591	-0.00255475	  -9.60148	-0.00253478	  -9.60148	  -63.3695	
  -9.54906	-0.00250376	  -9.56829	-0.00254395	  -9.55021	-0.00255371	  -9.55585	-0.00253381	  -9.55585	  -63.3452	
  -9.50305	 -0.002503	  -9.52215	-0.0025428	  -9.50421	-0.00255257	   -9.5098	-0.00253279	   -9.5098	  -63.3197	
  -9.45665	-0.00250214	  -9.47555	-0.00254159	  -9.45785	-0.00255139	  -9.46335	-0.00253171	  -9.46335	  -63.2927	
     -9.41	-0.00250123	  -9.42869	-0.00254038	  -9.41124	-0.0025502	  -9.41664	-0.00253061	  -9.41664	  -63.2651	
  -9.36302	-0.00250038	   -9.3815	-0.00253908	  -9.36417	-0.00254884	  -9.36956	-0.00252943	  -9.36956	  -63.2358	
  -9.31558	-0.00249935	  -9.33386	-0.00253778	  -9.31663	-0.00254752	  -9.32202	-0.00252822	  -9.32202	  -63.2055	
  -9.26786	-0.00249834	  -9.28568	-0.00253653	   -9.2688	-0.00254619	  -9.27411	-0.00252702	  -9.27411	  -63.1755	
  -9.21936	-0.00249743	  -9.23741	-0.00253498	  -9.22072	-0.00254471	  -9.22583	-0.00252571	  -9.22583	  -63.1426	
  -9.17092	-0.00249625	  -9.18864	-0.00253351	  -9.17217	-0.00254323	  -9.17725	-0.00252433	  -9.17725	  -63.1082	
  -9.12197	-0.00249518	  -9.13954	-0.00253208	  -9.12332	-0.00254172	  -9.12828	-0.00252299	  -9.12828	  -63.0748	
   -9.0726	-0.00249412	  -9.09023	-0.00253042	  -9.07418	-0.00254008	    -9.079	-0.00252154	    -9.079	  -63.0385	
  -9.02276	-0.00249286	   -9.0405	-0.0025288	  -9.02456	-0.00253846	  -9.02928	-0.00252004	  -9.02928	   -63.001	
  -8.97261	-0.00249166	  -8.99038	-0.0025272	   -8.9746	-0.00253674	  -8.97919	-0.00251853	  -8.97919	  -62.9633	
  -8.92219	-0.00249046	  -8.94001	-0.00252542	   -8.9244	-0.00253493	  -8.92887	-0.00251694	  -8.92887	  -62.9234	
  -8.87133	-0.0024891	  -8.88917	-0.00252366	  -8.87374	-0.00253315	  -8.87808	-0.0025153	  -8.87808	  -62.8826	
  -8.82011	-0.00248779	  -8.83791	-0.0025219	   -8.8227	-0.0025313	  -8.82691	-0.00251366	  -8.82691	  -62.8416	
  -8.76869	-0.00248643	   -8.7864	  -0.00252	  -8.77143	-0.00252935	  -8.77551	-0.00251192	  -8.77551	  -62.7981	
  -8.71684	-0.00248498	  -8.73454	-0.00251809	  -8.71972	-0.00252738	   -8.7237	-0.00251015	   -8.7237	  -62.7537	
  -8.66462	-0.00248354	  -8.68229	-0.00251618	  -8.66761	-0.00252537	  -8.67151	-0.00250836	  -8.67151	   -62.709	
  -8.61223	-0.00248203	  -8.62982	-0.00251415	  -8.61531	-0.0025233	  -8.61912	-0.00250649	  -8.61912	  -62.6623	
  -8.55941	-0.00248042	  -8.57701	-0.00251206	  -8.56259	-0.00252115	  -8.56634	-0.00250454	  -8.56634	  -62.6135	
  -8.50622	-0.00247884	  -8.52381	-0.00250999	  -8.50946	-0.00251899	  -8.51316	-0.00250261	  -8.51316	  -62.5652	
  -8.45284	-0.00247721	  -8.47035	-0.00250778	  -8.45608	-0.00251676	  -8.45976	-0.00250059	  -8.45976	  -62.5146	
  -8.39896	-0.00247544	  -8.41655	-0.00250555	  -8.40225	-0.00251446	  -8.40592	-0.00249848	  -8.40592	  -62.4621	
  -8.34472	-0.00247363	  -8.36229	-0.00250332	  -8.34805	-0.00251219	  -8.35169	-0.00249638	  -8.35169	  -62.4096	
  -8.29027	-0.00247181	  -8.30782	-0.00250095	  -8.29367	-0.00250986	  -8.29726	-0.00249421	  -8.29726	  -62.3552	
  -8.23539	-0.0024699	  -8.25304	-0.00249852	  -8.23889	-0.00250746	  -8.24244	-0.00249196	  -8.24244	   -62.299	
  -8.18015	-0.00246797	  -8.19782	-0.00249606	  -8.18373	-0.00250505	  -8.18723	-0.00248969	  -8.18723	  -62.2424	
  -8.12471	-0.00246597	   -8.1424	-0.00249351	  -8.12832	-0.00250258	  -8.13181	-0.00248735	  -8.13181	  -62.1838	
   -8.0689	-0.00246388	   -8.0867	-0.0024909	  -8.07252	-0.00250005	  -8.07604	-0.00248494	  -8.07604	  -62.1236	
  -8.01275	-0.00246175	  -8.03064	-0.00248819	  -8.01636	-0.00249745	  -8.01992	-0.00248247	  -8.01992	  -62.0616	
  -7.95647	-0.00245957	  -7.97429	-0.00248537	  -7.96003	-0.00249488	   -7.9636	-0.00247994	   -7.9636	  -61.9986	
  -7.89982	-0.00245737	  -7.91758	-0.00248253	  -7.90327	-0.00249222	  -7.90689	-0.00247737	  -7.90689	  -61.9343	
  -7.84271	-0.00245508	  -7.86046	-0.00247966	  -7.84618	-0.00248949	  -7.84978	-0.00247474	  -7.84978	  -61.8686	
  -7.78529	-0.00245271	  -7.80308	-0.00247666	  -7.78892	-0.00248675	  -7.79243	-0.00247204	  -7.79243	   -61.801	
  -7.72773	-0.00245034	  -7.74536	-0.00247361	  -7.73131	-0.00248388	   -7.7348	-0.00246928	   -7.7348	   -61.732	
  -7.66978	-0.00244791	  -7.68731	-0.00247052	   -7.6734	-0.00248095	  -7.67683	-0.00246646	  -7.67683	  -61.6615	
  -7.61154	-0.00244539	  -7.62903	-0.00246732	  -7.61536	-0.00247806	  -7.61864	-0.00246359	  -7.61864	  -61.5898	
  -7.55287	-0.00244286	  -7.57034	-0.00246405	  -7.55687	-0.00247501	  -7.56002	-0.00246064	  -7.56002	   -61.516	
  -7.49398	-0.00244023	  -7.51136	-0.00246078	  -7.49813	-0.00247188	  -7.50116	-0.00245763	  -7.50116	  -61.4407	
  -7.43481	-0.00243749	  -7.45215	-0.00245737	   -7.4391	-0.00246879	  -7.44202	-0.00245455	  -7.44202	  -61.3638	
  -7.37534	-0.00243482	  -7.39255	-0.00245387	  -7.37969	-0.00246557	  -7.38253	-0.00245142	  -7.38253	  -61.2855	
  -7.31569	-0.00243204	  -7.33274	-0.00245046	  -7.32008	-0.00246228	  -7.32284	-0.00244826	  -7.32284	  -61.2066	
  -7.25572	-0.00242913	  -7.27258	-0.00244684	  -7.26019	-0.00245901	  -7.26283	-0.00244499	  -7.26283	  -61.1248	
   -7.1954	-0.00242625	  -7.21203	-0.00244322	  -7.19993	-0.00245566	  -7.20245	-0.00244171	  -7.20245	  -61.0427	
  -7.13495	-0.00242328	  -7.15131	-0.00243964	  -7.13948	-0.00245224	  -7.14191	-0.00243839	  -7.14191	  -60.9596	
  -7.07411	-0.00242017	  -7.09034	-0.00243585	  -7.07867	-0.00244879	  -7.08104	-0.00243494	  -7.08104	  -60.8734	
  -7.01298	-0.00241705	  -7.02902	-0.00243204	  -7.01755	-0.00244525	  -7.01985	-0.00243145	  -7.01985	  -60.7862	
  -6.95178	-0.00241386	  -6.96759	-0.00242827	  -6.95626	-0.00244164	  -6.95855	-0.00242792	  -6.95855	  -60.6981	
  -6.89012	-0.00241055	  -6.90584	-0.00242432	  -6.89459	-0.00243798	  -6.89685	-0.00242428	  -6.89685	  -60.6071	
  -6.82821	-0.0024072	  -6.84382	-0.0024203	  -6.83269	-0.00243426	  -6.83491	-0.00242059	  -6.83491	  -60.5147	
  -6.76609	-0.00240379	   -6.7816	-0.00241632	  -6.77062	-0.00243044	  -6.77277	-0.00241685	  -6.77277	  -60.4213	
  -6.70361	-0.00240023	  -6.71894	-0.00241218	  -6.70819	-0.00242662	  -6.71025	-0.00241301	  -6.71025	  -60.3253	
  -6.64097	-0.00239665	  -6.65611	 -0.002408	  -6.64556	-0.00242274	  -6.64755	-0.00240913	  -6.64755	  -60.2282	
  -6.57806	-0.00239306	  -6.59298	-0.00240385	  -6.58268	-0.00241875	  -6.58457	-0.00240522	  -6.58457	  -60.1305	
  -6.51485	-0.00238933	  -6.52953	-0.00239956	  -6.51947	-0.00241471	  -6.52128	-0.0024012	  -6.52128	    -60.03	
  -6.45147	-0.00238556	  -6.46589	-0.00239514	  -6.45607	-0.00241061	  -6.45781	-0.0023971	  -6.45781	  -59.9276	
  -6.38772	-0.00238175	  -6.40185	-0.00239087	  -6.39234	-0.00240645	  -6.39397	-0.00239303	  -6.39397	  -59.8256	
  -6.32374	-0.00237783	  -6.33756	-0.00238641	  -6.32838	-0.0024022	  -6.32989	-0.00238881	  -6.32989	  -59.7203	
  -6.25955	-0.00237387	  -6.27306	-0.00238192	  -6.26423	-0.00239793	  -6.26562	-0.00238457	  -6.26562	  -59.6144	
  -6.19499	-0.00236988	  -6.20822	-0.00237752	   -6.1997	-0.00239367	  -6.20097	-0.00238035	  -6.20097	  -59.5088	
  -6.13033	-0.0023658	  -6.14321	-0.00237297	  -6.13498	-0.00238933	  -6.13618	-0.00237603	  -6.13618	  -59.4008	
  -6.06536	-0.00236168	  -6.07796	-0.00236838	  -6.06989	-0.00238494	  -6.07107	-0.00237167	  -6.07107	  -59.2917	
  -6.00012	-0.00235757	  -6.01242	-0.00236384	  -6.00454	-0.00238048	   -6.0057	-0.0023673	   -6.0057	  -59.1824	
  -5.93473	-0.00235329	  -5.94673	-0.00235915	  -5.93908	-0.00237595	  -5.94018	-0.0023628	  -5.94018	  -59.0699	
  -5.86903	 -0.002349	   -5.8807	-0.00235449	  -5.87334	-0.00237138	  -5.87435	-0.00235829	  -5.87435	  -58.9571	
  -5.80307	-0.0023447	  -5.81449	-0.00234983	  -5.80743	-0.00236671	  -5.80833	-0.00235375	  -5.80833	  -58.8437	
  -5.73689	-0.0023402	  -5.74801	-0.00234501	  -5.74128	-0.00236199	  -5.74206	-0.00234907	  -5.74206	  -58.7267	
  -5.67044	-0.00233567	  -5.68125	-0.00234018	  -5.67485	-0.00235721	  -5.67552	-0.00234435	  -5.67552	  -58.6088	
  -5.60386	-0.00233111	   -5.6144	-0.00233533	   -5.6083	-0.00235233	  -5.60885	-0.00233959	  -5.60885	  -58.4898	
  -5.53695	-0.00232637	   -5.5473	-0.00233037	  -5.54145	-0.00234739	   -5.5419	-0.00233471	   -5.5419	  -58.3678	
  -5.46988	-0.00232164	  -5.47999	-0.00232538	  -5.47437	-0.00234245	  -5.47475	-0.00232982	  -5.47475	  -58.2455	
  -5.40258	-0.00231689	  -5.41259	-0.00232041	  -5.40708	-0.00233731	  -5.40742	-0.00232487	  -5.40742	  -58.1217	
  -5.33496	-0.00231193	  -5.34487	-0.00231532	  -5.33947	-0.00233213	  -5.33977	-0.00231979	  -5.33977	  -57.9948	
  -5.26723	-0.00230693	  -5.27704	-0.00231018	   -5.2717	-0.00232695	  -5.27199	-0.00231469	  -5.27199	  -57.8672	
  -5.19919	-0.00230192	  -5.20897	-0.0023051	  -5.20358	-0.00232159	  -5.20391	-0.00230954	  -5.20391	  -57.7384	
  -5.13098	-0.00229672	  -5.14068	-0.00229986	  -5.13527	-0.00231619	  -5.13564	-0.00230426	  -5.13564	  -57.6064	
  -5.06257	-0.00229148	   -5.0722	-0.00229457	   -5.0668	-0.00231077	  -5.06719	-0.00229894	  -5.06719	  -57.4734	
  -4.99386	-0.00228622	   -5.0035	-0.00228934	    -4.998	-0.0023052	  -4.99845	-0.00229358	  -4.99845	  -57.3396	
  -4.92504	-0.00228076	  -4.93468	-0.00228392	  -4.92912	-0.00229957	  -4.92961	-0.00228808	  -4.92961	  -57.2021	
  -4.85591	-0.00227526	  -4.86562	-0.00227849	  -4.85997	-0.00229392	   -4.8605	-0.00228255	   -4.8605	  -57.0639	
  -4.78662	-0.00226984	  -4.79636	-0.00227307	  -4.79063	-0.00228816	   -4.7912	-0.00227702	   -4.7912	  -56.9255	
  -4.71722	-0.00226416	  -4.72695	-0.00226756	  -4.72123	-0.00228228	   -4.7218	-0.00227133	   -4.7218	  -56.7833	
  -4.64756	-0.0022584	  -4.65722	 -0.002262	  -4.65155	-0.00227639	  -4.65211	-0.00226559	  -4.65211	  -56.6398	
   -4.5778	-0.00225275	  -4.58739	-0.00225638	  -4.58176	-0.00227038	  -4.58232	-0.00225984	  -4.58232	  -56.4959	
  -4.50784	-0.00224687	  -4.51736	-0.00225064	  -4.51177	-0.00226424	  -4.51232	-0.00225392	  -4.51232	   -56.348	
  -4.43772	-0.00224096	  -4.44713	-0.00224487	  -4.44159	-0.00225806	  -4.44215	-0.00224796	  -4.44215	  -56.1991	
  -4.36748	-0.00223508	  -4.37674	-0.00223904	  -4.37136	-0.00225179	  -4.37186	-0.00224197	  -4.37186	  -56.0492	
  -4.29696	-0.00222899	  -4.30608	-0.00223314	  -4.30088	-0.0022454	  -4.30131	-0.00223584	  -4.30131	   -55.896	
  -4.22633	-0.00222288	  -4.23532	-0.00222713	  -4.23036	-0.00223897	  -4.23067	-0.00222966	  -4.23067	  -55.7415	
  -4.15549	-0.00221682	   -4.1644	-0.00222106	  -4.15964	-0.0022325	  -4.15984	-0.00222346	  -4.15984	  -55.5865	
  -4.08454	-0.00221063	  -4.09334	-0.00221491	  -4.08874	-0.00222586	  -4.08887	-0.00221713	  -4.08887	  -55.4283	
   -4.0135	-0.00220438	  -4.02217	-0.00220864	   -4.0177	-0.00221922	  -4.01779	-0.00221074	  -4.01779	  -55.2686	
   -3.9422	-0.00219812	  -3.95072	-0.00220231	  -3.94642	-0.0022125	  -3.94645	-0.00220431	  -3.94645	  -55.1078	
  -3.87086	-0.00219173	  -3.87923	-0.00219589	  -3.87507	-0.00220563	  -3.87505	-0.00219775	  -3.87505	  -54.9438	
  -3.79922	-0.00218529	  -3.80757	-0.00218936	  -3.80345	-0.0021988	  -3.80341	-0.00219115	  -3.80341	  -54.7788	
  -3.72748	-0.00217881	  -3.73575	-0.00218276	  -3.73172	-0.00219184	  -3.73165	-0.00218447	  -3.73165	  -54.6117	
   -3.6556	-0.00217212	  -3.66382	-0.00217609	  -3.65987	-0.00218471	  -3.65976	-0.00217764	  -3.65976	   -54.441	
   -3.5835	-0.00216542	  -3.59167	-0.00216931	   -3.5878	-0.00217759	  -3.58766	-0.00217077	  -3.58766	  -54.2694	
  -3.51135	-0.00215872	  -3.51951	-0.0021624	  -3.51568	-0.00217041	  -3.51551	-0.00216384	  -3.51551	   -54.096	
  -3.43893	-0.0021518	  -3.44715	-0.00215543	  -3.44338	-0.00216309	  -3.44315	-0.00215677	  -3.44315	  -53.9193	
  -3.36643	-0.00214481	  -3.37469	-0.00214836	  -3.37099	-0.00215575	   -3.3707	-0.00214964	   -3.3707	  -53.7409	
  -3.29377	-0.0021378	  -3.30211	-0.00214115	  -3.29844	-0.00214832	  -3.29811	-0.00214242	  -3.29811	  -53.5606	
  -3.22098	-0.00213061	  -3.22931	-0.0021339	  -3.22571	-0.00214076	  -3.22533	-0.00213509	  -3.22533	  -53.3772	
  -3.14812	-0.00212331	  -3.15651	-0.0021266	  -3.15291	-0.00213314	  -3.15251	-0.00212768	  -3.15251	  -53.1921	
  -3.07518	-0.00211599	  -3.08349	-0.00211909	  -3.07988	-0.00212545	  -3.07952	-0.00212018	  -3.07952	  -53.0044	
  -3.00205	-0.00210859	  -3.01041	-0.00211152	  -3.00681	-0.00211762	  -3.00642	-0.00211258	  -3.00642	  -52.8144	
  -2.92878	-0.00210115	  -2.93687	-0.00210391	  -2.93359	-0.00210973	  -2.93308	-0.00210493	  -2.93308	  -52.6233	
  -2.85555	-0.00209352	  -2.86367	 -0.002096	  -2.86021	-0.00210176	  -2.85981	-0.00209709	  -2.85981	  -52.4273	
   -2.7821	-0.00208588	  -2.79022	-0.0020882	  -2.78681	-0.00209366	  -2.78638	-0.00208924	  -2.78638	  -52.2311	
   -2.7085	-0.00207821	  -2.71667	-0.00208027	  -2.71321	-0.00208546	   -2.7128	-0.00208131	   -2.7128	  -52.0329	
  -2.63485	-0.00207037	  -2.64306	-0.00207214	  -2.63958	-0.00207714	  -2.63917	-0.00207322	  -2.63917	  -51.8304	
  -2.56108	-0.00206245	  -2.56933	-0.00206401	  -2.56581	-0.00206874	  -2.56541	-0.00206506	  -2.56541	  -51.6266	
  -2.48722	-0.00205454	  -2.49548	-0.00205577	  -2.49176	-0.0020603	  -2.49148	-0.00205687	  -2.49148	  -51.4218	
  -2.41333	-0.00204643	  -2.42164	-0.00204741	  -2.41791	-0.00205159	  -2.41763	-0.00204848	  -2.41763	  -51.2119	
  -2.33932	-0.00203821	   -2.3476	-0.00203895	  -2.34378	-0.00204288	  -2.34357	-0.00204001	  -2.34357	  -51.0004	
  -2.26532	-0.00202998	  -2.27352	-0.00203038	  -2.26942	-0.00203416	  -2.26942	-0.00203151	  -2.26942	  -50.7876	
  -2.19115	-0.00202156	  -2.19926	-0.00202169	  -2.19525	-0.00202514	  -2.19522	-0.0020228	  -2.19522	    -50.57	
  -2.11693	-0.00201305	  -2.12492	-0.00201289	  -2.12091	-0.00201611	  -2.12092	-0.00201402	  -2.12092	  -50.3504	
  -2.04264	-0.00200451	  -2.05058	-0.00200398	  -2.04645	-0.00200702	  -2.04656	-0.00200517	  -2.04656	  -50.1293	
  -1.96823	-0.00199581	  -1.97607	-0.00199495	  -1.97186	-0.00199767	  -1.97206	-0.00199614	  -1.97206	  -49.9036	
  -1.89385	 -0.001987	  -1.90155	-0.00198582	  -1.89726	-0.00198835	  -1.89755	-0.00198705	  -1.89755	  -49.6764	
  -1.81926	-0.00197818	  -1.82681	-0.00197655	  -1.82248	-0.00197897	  -1.82285	-0.0019779	  -1.82285	  -49.4476	
  -1.74469	-0.00196923	  -1.75203	-0.0019672	  -1.74772	-0.00196933	  -1.74815	-0.00196859	  -1.74815	  -49.2147	
