# User: ACHyster
# File name: C:/ACHYSTER/ACHyster SENS/SHAMS/CoFe2O4-1gl-water-32 Glycerol-Sens-07-03-2023/CoFe2O4-1gl-water-32 Glycerol- 10_100F- 24 kAm -Sens-07-03-20230007#1.txt
# Saved at: ma. mar. 7 16:34:06 2023
# Hyster Loop (3 iterations). Intensity: 24.0 kA/m; Tuned frequency: 101.8 kHz
# Units x axis: (kA/m)
# Units y axis: "Repeats y" & "Average y" (10^(-3)Am^2); "Mass avg y" (Am^2/kg)
# Magnetic mass: 4e-05 g
# Parameter      	Repeat   1	Repeat   2	Repeat   3	Average   	Sigma     
# H_C (kA/m)     	      21.7	      21.6	      21.3	      21.5	       0.2
# M_R (Am^2/kg)  	      28.9	      28.7	      28.7	      28.7	       0.1
# M_max (Am^2/kg)	      12.7	      13.4	      14.3	      13.5	       0.7
# Area (mJ/kg)   	    2653.7	    2638.1	    2632.1	    2641.3	       9.1
# SAR (W/g)      	     270.1	     268.6	     268.0	     268.9	       0.9
#Repeat 1 x	Repeat 1 y	Repeat 2 x	Repeat 2 y	Repeat 3 x	Repeat 3 y	Average x 	Average y 	Mass avg x 	Mass avg y 
  -3.72773	-0.00119907	  -3.76528	-0.00119395	  -3.76004	-0.00119623	  -3.75102	-0.00119641	  -3.75102	  -29.9104	
  -3.57805	-0.00119789	  -3.61624	-0.00119239	  -3.61207	-0.00119482	  -3.60212	-0.00119503	  -3.60212	  -29.8758	
  -3.42783	-0.00119672	  -3.46701	-0.00119083	  -3.46369	-0.00119348	  -3.45284	-0.00119368	  -3.45284	  -29.8419	
  -3.27733	-0.00119556	  -3.31852	-0.00118928	  -3.31444	-0.00119217	  -3.30343	-0.00119233	  -3.30343	  -29.8084	
  -3.12801	-0.00119438	  -3.16999	-0.00118774	  -3.16507	-0.00119086	  -3.15436	-0.00119099	  -3.15436	  -29.7749	
   -2.9783	-0.00119317	  -3.02114	-0.00118621	  -3.01485	-0.0011895	  -3.00476	-0.00118963	  -3.00476	  -29.7407	
  -2.82844	-0.00119191	  -2.87245	-0.00118466	  -2.86479	-0.00118803	  -2.85523	-0.0011882	  -2.85523	   -29.705	
  -2.67892	-0.00119055	  -2.72365	-0.00118308	   -2.7146	-0.00118643	  -2.70572	-0.00118669	  -2.70572	  -29.6672	
  -2.52991	-0.00118908	  -2.57495	-0.00118145	  -2.56453	-0.00118466	  -2.55647	-0.00118506	  -2.55647	  -29.6266	
  -2.38064	-0.00118749	  -2.42633	-0.00117973	  -2.41382	-0.00118272	  -2.40693	-0.00118331	  -2.40693	  -29.5828	
  -2.23134	-0.00118579	  -2.27727	-0.00117791	  -2.26321	-0.00118061	  -2.25727	-0.00118143	  -2.25727	  -29.5358	
  -2.08198	-0.00118397	  -2.12777	-0.00117597	   -2.1122	-0.00117837	  -2.10732	-0.00117944	  -2.10732	  -29.4859	
  -1.93255	-0.00118205	  -1.97882	-0.00117393	  -1.96081	-0.00117604	  -1.95739	-0.00117734	  -1.95739	  -29.4335	
  -1.78254	-0.00118007	  -1.82962	-0.00117178	  -1.80928	-0.00117366	  -1.80715	-0.00117517	  -1.80715	  -29.3793	
  -1.63247	-0.00117804	  -1.67945	-0.00116954	  -1.65784	-0.00117129	  -1.65659	-0.00117296	  -1.65659	  -29.3239	
  -1.48278	-0.00117598	  -1.52931	-0.00116723	  -1.50576	-0.00116895	  -1.50595	-0.00117072	  -1.50595	   -29.268	
  -1.33248	-0.00117393	  -1.37968	-0.00116488	  -1.35378	-0.00116667	  -1.35531	-0.00116849	  -1.35531	  -29.2124	
  -1.18206	-0.00117191	  -1.22951	-0.00116251	  -1.20141	-0.00116445	  -1.20432	-0.00116629	  -1.20432	  -29.1573	
  -1.03199	-0.00116991	  -1.07932	-0.00116015	  -1.04913	-0.00116229	  -1.05348	-0.00116411	  -1.05348	  -29.1029	
 -0.882232	-0.00116792	 -0.929076	-0.00115783	 -0.896438	-0.00116013	 -0.902582	-0.00116196	 -0.902582	   -29.049	
  -0.73225	-0.00116593	 -0.779015	-0.00115556	 -0.744085	-0.00115795	 -0.751783	-0.00115981	 -0.751783	  -28.9953	
  -0.58252	-0.00116391	 -0.628374	-0.00115332	 -0.591304	-0.00115571	 -0.600733	-0.00115764	 -0.600733	  -28.9411	
 -0.432762	-0.00116181	 -0.477419	-0.0011511	 -0.439072	-0.00115334	 -0.449751	-0.00115542	 -0.449751	  -28.8854	
 -0.283195	-0.00115962	 -0.326877	-0.00114886	 -0.286852	-0.00115081	 -0.298974	-0.0011531	 -0.298974	  -28.8274	
 -0.133059	-0.00115731	 -0.177651	-0.00114654	 -0.134626	-0.00114811	 -0.148445	-0.00115065	 -0.148445	  -28.7663	
 0.0169002	-0.00115485	-0.0296185	-0.0011441	 0.0180998	-0.00114523	0.00179382	-0.00114806	0.00179382	  -28.7015	
  0.167204	-0.00115225	  0.117103	-0.00114152	  0.170579	-0.00114217	  0.151628	-0.00114531	  0.151628	  -28.6328	
  0.316883	-0.00114952	  0.263851	-0.00113876	  0.323087	-0.00113898	  0.301274	-0.00114242	  0.301274	  -28.5605	
  0.467454	-0.00114668	  0.410656	-0.00113581	  0.475158	-0.00113568	   0.45109	-0.00113939	   0.45109	  -28.4847	
  0.617663	-0.00114375	  0.557785	-0.0011327	  0.627079	-0.00113231	  0.600842	-0.00113626	  0.600842	  -28.4064	
   0.76828	-0.00114078	  0.704522	-0.00112946	  0.778637	-0.00112894	   0.75048	-0.00113306	   0.75048	  -28.3264	
  0.919778	-0.00113779	  0.851412	-0.00112611	    0.9306	-0.00112558	  0.900597	-0.00112983	  0.900597	  -28.2457	
   1.07114	-0.00113481	    1.0004	-0.00112273	   1.08223	-0.00112227	   1.05126	-0.0011266	   1.05126	   -28.165	
   1.22168	-0.00113183	   1.14918	-0.00111931	   1.23405	-0.00111899	   1.20164	-0.00112338	   1.20164	  -28.0845	
   1.37268	-0.00112889	   1.29803	-0.00111593	    1.3856	-0.00111576	    1.3521	-0.00112019	    1.3521	  -28.0048	
    1.5234	-0.00112595	   1.44723	-0.00111261	   1.53713	-0.00111254	   1.50259	-0.00111703	   1.50259	  -27.9258	
   1.67365	-0.00112301	   1.59795	-0.00110938	   1.68843	-0.00110931	   1.65335	-0.0011139	   1.65335	  -27.8475	
    1.8242	-0.00112004	    1.7494	-0.00110622	   1.84027	-0.00110603	   1.80462	-0.00111076	   1.80462	   -27.769	
   1.97481	 -0.001117	   1.90224	-0.00110311	   1.99141	-0.00110265	   1.95615	-0.00110759	   1.95615	  -27.6897	
   2.12622	-0.00111388	    2.0547	-0.00110006	   2.14144	-0.00109915	   2.10745	-0.00110436	   2.10745	   -27.609	
   2.27718	-0.00111064	   2.20707	-0.00109701	   2.29216	-0.0010955	    2.2588	-0.00110105	    2.2588	  -27.5263	
   2.42823	-0.00110729	    2.3584	-0.00109391	   2.44281	-0.00109169	   2.40982	-0.00109763	   2.40982	  -27.4407	
   2.57866	-0.00110381	   2.51025	-0.00109074	   2.59318	-0.00108772	   2.56069	-0.00109409	   2.56069	  -27.3522	
   2.72878	-0.0011002	   2.66306	-0.00108745	   2.74355	-0.00108362	   2.71179	-0.00109043	   2.71179	  -27.2606	
   2.87887	-0.0010965	   2.81461	 -0.001084	   2.89346	-0.00107942	   2.86231	-0.00108664	   2.86231	   -27.166	
   3.02872	-0.00109271	   2.96525	-0.00108042	   3.04297	-0.00107516	   3.01231	-0.00108276	   3.01231	  -27.0691	
   3.17837	-0.00108887	   3.11677	-0.00107675	   3.19261	-0.00107086	   3.16258	-0.00107883	   3.16258	  -26.9707	
   3.32786	 -0.001085	   3.26887	-0.00107294	   3.34241	-0.00106657	   3.31304	-0.00107484	   3.31304	   -26.871	
   3.47698	-0.00108111	   3.41864	-0.00106902	    3.4914	-0.00106233	   3.46234	-0.00107082	   3.46234	  -26.7704	
   3.62555	-0.0010772	   3.56627	-0.00106505	   3.64064	-0.00105813	   3.61082	-0.00106679	   3.61082	  -26.6698	
   3.77436	-0.00107328	   3.71462	-0.00106105	   3.78966	-0.00105397	   3.75954	-0.00106277	   3.75954	  -26.5692	
   3.92366	-0.00106934	    3.8646	 -0.001057	   3.93873	-0.00104985	     3.909	-0.00105873	     3.909	  -26.4682	
   4.07247	-0.00106535	   4.01301	-0.00105296	   4.08715	-0.00104573	   4.05754	-0.00105468	   4.05754	   -26.367	
   4.22158	-0.0010613	    4.1607	-0.00104891	   4.23476	-0.00104158	   4.20568	-0.0010506	   4.20568	   -26.265	
   4.37074	-0.00105718	   4.30944	-0.00104485	   4.38191	-0.00103736	   4.35403	-0.00104647	   4.35403	  -26.1616	
   4.51926	-0.00105297	   4.46014	-0.00104077	   4.52888	-0.00103304	   4.50276	-0.00104226	   4.50276	  -26.0565	
   4.66746	-0.00104867	   4.60931	-0.00103665	   4.67501	-0.00102857	   4.65059	-0.00103796	   4.65059	  -25.9491	
   4.81563	-0.00104427	   4.75732	-0.00103246	    4.8216	-0.00102396	   4.79818	-0.00103357	   4.79818	  -25.8391	
   4.96404	-0.00103976	   4.90646	-0.00102819	   4.96841	-0.00101921	    4.9463	-0.00102905	    4.9463	  -25.7263	
   5.11221	-0.00103517	    5.0557	-0.00102387	   5.11472	-0.00101432	   5.09421	-0.00102445	   5.09421	  -25.6112	
   5.26068	-0.0010305	    5.2041	-0.00101949	   5.26134	-0.00100932	   5.24204	-0.00101977	   5.24204	  -25.4942	
   5.40945	-0.00102579	   5.35176	-0.00101505	   5.40803	-0.00100424	   5.38975	-0.00101503	   5.38975	  -25.3757	
   5.55804	-0.00102104	   5.49972	-0.00101058	   5.55433	-0.00099913	   5.53736	-0.00101025	   5.53736	  -25.2563	
   5.70602	-0.00101628	    5.6475	-0.00100608	   5.70008	-0.000994013	   5.68453	-0.00100546	   5.68453	  -25.1364	
   5.85441	-0.00101153	   5.79395	-0.00100155	   5.84606	-0.000988914	   5.83147	-0.00100066	   5.83147	  -25.0166	
   6.00226	-0.00100678	   5.93848	-0.000997001	   5.99158	-0.000983844	   5.97744	-0.000995874	   5.97744	  -24.8968	
   6.14962	-0.00100202	   6.08321	-0.00099244	   6.13575	-0.000978803	   6.12286	-0.000991088	   6.12286	  -24.7772	
   6.29658	-0.00099726	   6.22863	-0.000987832	   6.28063	-0.000973778	   6.26861	-0.00098629	   6.26861	  -24.6572	
   6.44223	-0.000992485	   6.37329	-0.00098317	   6.42549	-0.000968742	   6.41367	-0.000981466	   6.41367	  -24.5366	
   6.58768	-0.000987663	   6.51729	-0.000978454	   6.57013	-0.000963662	   6.55837	-0.000976593	   6.55837	  -24.4148	
   6.73249	-0.000982775	   6.66192	-0.000973656	    6.7146	-0.000958507	     6.703	-0.000971646	     6.703	  -24.2912	
   6.87771	-0.000977808	   6.80644	-0.000968751	   6.85848	-0.000953247	   6.84754	-0.000966602	   6.84754	  -24.1651	
   7.02288	-0.000972736	   6.94995	-0.000963747	   7.00208	-0.000947857	   6.99164	-0.000961447	   6.99164	  -24.0362	
   7.16706	-0.000967551	   7.09256	-0.000958643	   7.14524	-0.000942298	   7.13495	-0.000956164	   7.13495	  -23.9041	
   7.31109	-0.00096225	    7.2356	-0.000953434	   7.28804	-0.000936597	   7.27824	-0.00095076	   7.27824	   -23.769	
   7.45455	-0.000956844	   7.37931	-0.000948135	   7.43006	-0.00093079	    7.4213	-0.000945256	    7.4213	  -23.6314	
   7.59776	-0.000951351	   7.52223	-0.000942764	   7.57093	-0.000924892	   7.56364	-0.000939669	   7.56364	  -23.4917	
   7.74103	-0.00094579	   7.66353	-0.000937332	   7.71248	-0.000918949	   7.70568	-0.000934023	   7.70568	  -23.3506	
   7.88416	-0.000940192	   7.80433	-0.000931859	   7.85349	-0.000913006	   7.84733	-0.000928352	   7.84733	  -23.2088	
   8.02647	-0.000934577	   7.94568	-0.000926371	   7.99431	-0.000907111	   7.98882	-0.000922686	   7.98882	  -23.0672	
    8.1688	-0.000928959	   8.08614	-0.000920871	   8.13475	-0.000901295	   8.12989	-0.000917041	   8.12989	   -22.926	
   8.31094	-0.000923356	   8.22633	-0.000915361	   8.27489	-0.000895561	   8.27072	-0.000911426	   8.27072	  -22.7856	
   8.45225	-0.000917768	    8.3663	-0.000909846	    8.4153	-0.000889899	   8.41128	-0.000905838	   8.41128	  -22.6459	
   8.59332	-0.000912194	   8.50662	-0.00090432	     8.556	-0.000884272	   8.55198	-0.000900262	   8.55198	  -22.5065	
   8.73421	-0.000906615	   8.64634	-0.000898765	   8.69654	-0.000878644	   8.69237	-0.000894674	   8.69237	  -22.3669	
   8.87475	-0.00090101	   8.78557	-0.00089316	   8.83651	-0.000872978	   8.83228	-0.000889049	   8.83228	  -22.2262	
   9.01526	-0.000895358	   8.92464	-0.000887488	   8.97623	-0.000867212	   8.97205	-0.000883353	   8.97205	  -22.0838	
   9.15532	-0.000889633	   9.06289	-0.000881734	   9.11604	-0.000861293	   9.11141	-0.000877553	   9.11141	  -21.9388	
   9.29452	-0.000883818	   9.20021	-0.00087589	    9.2562	-0.00085519	   9.25031	-0.000871633	   9.25031	  -21.7908	
   9.43252	-0.000877896	   9.33746	-0.000869957	   9.39555	-0.000848896	   9.38851	-0.000865583	   9.38851	  -21.6396	
   9.57113	-0.000871865	   9.47445	-0.000863935	   9.53444	-0.000842423	   9.52667	-0.000859408	   9.52667	  -21.4852	
   9.70919	-0.000865732	   9.61103	-0.000857833	   9.67272	-0.000835795	   9.66431	-0.00085312	   9.66431	   -21.328	
    9.8463	-0.000859509	    9.7473	-0.000851673	   9.81051	-0.000829056	   9.80137	-0.000846746	   9.80137	  -21.1686	
   9.98308	-0.000853219	   9.88335	-0.000845515	    9.9479	-0.000822262	   9.93811	-0.000840332	   9.93811	  -21.0083	
   10.1196	-0.000846885	    10.019	-0.000839356	   10.0855	-0.000815473	   10.0747	-0.000833905	   10.0747	  -20.8476	
    10.256	-0.000840528	   10.1546	-0.000833201	   10.2228	-0.000808743	   10.2111	-0.000827491	   10.2111	  -20.6873	
   10.3921	-0.000834169	   10.2891	-0.000827039	   10.3608	-0.000802104	   10.3473	-0.000821104	   10.3473	  -20.5276	
   10.5274	-0.00082782	   10.4235	-0.000820867	   10.4978	-0.000795568	   10.4829	-0.000814752	   10.4829	  -20.3688	
   10.6624	-0.000821485	   10.5571	-0.000814679	   10.6347	-0.000789132	   10.6181	-0.000808432	   10.6181	  -20.2108	
   10.7967	-0.000815159	   10.6907	-0.000808436	   10.7719	-0.000782776	   10.7531	-0.000802123	   10.7531	  -20.0531	
   10.9308	-0.000808826	   10.8233	-0.000802118	   10.9081	-0.000776456	   10.8874	-0.0007958	   10.8874	   -19.895	
   11.0642	-0.00080247	   10.9551	-0.000795709	   11.0432	-0.000770117	   11.0208	-0.000789432	   11.0208	  -19.7358	
   11.1962	-0.00079607	   11.0867	-0.000789195	   11.1782	-0.000763703	   11.1537	-0.000782989	   11.1537	  -19.5747	
   11.3282	-0.000789607	   11.2182	-0.000782589	   11.3126	-0.000757169	   11.2863	-0.000776455	   11.2863	  -19.4114	
   11.4596	-0.000783062	   11.3492	-0.000775889	   11.4466	-0.000750479	   11.4185	-0.00076981	   11.4185	  -19.2452	
   11.5911	-0.000776431	   11.4801	-0.000769103	   11.5801	-0.00074362	   11.5504	-0.000763051	   11.5504	  -19.0763	
   11.7225	-0.000769712	   11.6101	-0.000762268	    11.713	-0.000736595	   11.6819	-0.000756192	   11.6819	  -18.9048	
   11.8539	-0.000762911	   11.7401	-0.000755421	   11.8445	-0.000729424	   11.8128	-0.000749252	   11.8128	  -18.7313	
   11.9848	-0.00075605	   11.8695	-0.000748596	   11.9752	-0.000722148	   11.9432	-0.000742265	   11.9432	  -18.5566	
   12.1151	-0.000749121	   11.9985	-0.000741802	   12.1058	-0.000714817	   12.0731	-0.000735246	   12.0731	  -18.3812	
   12.2449	-0.000742133	   12.1269	-0.000735046	   12.2354	-0.000707475	   12.2024	-0.000728218	   12.2024	  -18.2055	
   12.3749	-0.000735128	   12.2562	-0.000728335	   12.3646	-0.000700163	   12.3319	-0.000721209	   12.3319	  -18.0302	
   12.5043	-0.000728119	   12.3849	-0.000721657	   12.4931	-0.000692912	   12.4607	-0.000714229	   12.4607	  -17.8557	
    12.633	-0.000721097	   12.5126	-0.000714994	   12.6218	-0.000685743	   12.5891	-0.000707278	   12.5891	  -17.6819	
   12.7613	-0.000714083	   12.6397	-0.000708311	   12.7497	-0.00067865	   12.7169	-0.000700348	   12.7169	  -17.5087	
   12.8882	-0.000707098	   12.7667	-0.000701574	   12.8767	-0.000671615	   12.8439	-0.000693429	   12.8439	  -17.3357	
   13.0147	-0.000700129	   12.8931	-0.000694763	   13.0036	-0.000664607	   12.9705	-0.000686499	   12.9705	  -17.1625	
   13.1407	-0.000693168	   13.0191	-0.000687856	   13.1299	-0.000657583	   13.0966	-0.000679536	   13.0966	  -16.9884	
   13.2656	-0.000686215	    13.146	-0.00068084	   13.2561	-0.000650504	   13.2226	-0.00067252	   13.2226	   -16.813	
   13.3898	-0.000679248	   13.2705	-0.00067371	   13.3827	-0.000643332	   13.3477	-0.00066543	   13.3477	  -16.6357	
   13.5139	-0.000672237	    13.395	-0.000666474	   13.5074	-0.000636035	   13.4721	-0.000658249	   13.4721	  -16.4562	
   13.6381	-0.000665181	   13.5187	-0.00065915	   13.6319	-0.000628601	   13.5962	-0.000650977	   13.5962	  -16.2744	
   13.7619	-0.000658058	   13.6417	-0.000651763	   13.7553	-0.000621033	   13.7197	-0.000643618	   13.7197	  -16.0905	
   13.8844	-0.00065084	   13.7647	-0.000644346	   13.8792	-0.000613346	   13.8428	-0.000636178	   13.8428	  -15.9044	
   14.0063	-0.000643526	   13.8872	-0.000636922	   14.0025	-0.000605568	   13.9654	-0.000628672	   13.9654	  -15.7168	
   14.1278	-0.000636116	   14.0091	-0.000629511	   14.1254	-0.000597736	   14.0874	-0.000621121	   14.0874	   -15.528	
    14.249	-0.000628614	   14.1308	-0.000622127	   14.2484	-0.00058989	   14.2094	-0.000613544	   14.2094	  -15.3386	
   14.3697	-0.000621103	   14.2511	-0.000614782	   14.3711	-0.000582068	   14.3306	-0.000605984	   14.3306	  -15.1496	
   14.4891	-0.000613596	   14.3707	-0.000607465	   14.4926	-0.0005743	   14.4508	-0.000598454	   14.4508	  -14.9613	
   14.6088	-0.000606103	   14.4904	-0.000600152	   14.6147	-0.000566605	   14.5713	-0.000590953	   14.5713	  -14.7738	
   14.7285	-0.00059862	   14.6092	-0.000592833	   14.7361	-0.000558983	   14.6913	-0.000583478	   14.6913	   -14.587	
   14.8472	-0.000591177	   14.7278	-0.000585486	   14.8558	-0.000551423	   14.8103	-0.000576029	   14.8103	  -14.4007	
    14.966	-0.000583769	   14.8455	-0.000578088	   14.9758	-0.000543901	   14.9291	-0.000568586	   14.9291	  -14.2146	
   15.0841	-0.000576325	   14.9637	-0.00057062	   15.0945	-0.000536384	   15.0475	-0.00056111	   15.0475	  -14.0278	
   15.2009	-0.00056885	   15.0819	-0.000563067	   15.2135	-0.000528797	   15.1654	-0.000553571	   15.1654	  -13.8393	
   15.3174	-0.000561344	   15.1994	-0.000555421	   15.3319	-0.00052112	   15.2829	-0.000545962	   15.2829	   -13.649	
   15.4335	-0.000553786	   15.3175	-0.000547687	   15.4493	-0.000513339	   15.4001	-0.000538271	   15.4001	  -13.4568	
   15.5486	-0.000546182	   15.4348	-0.000539879	    15.566	-0.000505457	   15.5165	-0.000530506	   15.5165	  -13.2626	
   15.6634	-0.00053852	   15.5513	-0.000532009	   15.6824	-0.000497473	   15.6324	-0.000522667	   15.6324	  -13.0667	
   15.7776	-0.000530801	   15.6672	-0.000524099	   15.7976	-0.000489401	   15.7475	-0.000514767	   15.7475	  -12.8692	
   15.8916	-0.000523044	   15.7825	-0.000516175	   15.9126	-0.000481292	   15.8622	-0.000506837	   15.8622	  -12.6709	
   16.0041	-0.000515276	   15.8976	-0.00050826	   16.0265	-0.00047318	   15.9761	-0.000498905	   15.9761	  -12.4726	
   16.1158	-0.000507541	   16.0127	-0.000500372	   16.1397	-0.000465101	   16.0894	-0.000491005	   16.0894	  -12.2751	
   16.2271	-0.000499846	   16.1276	-0.000492521	   16.2519	-0.000457091	   16.2022	-0.000483153	   16.2022	  -12.0788	
   16.3383	-0.000492198	   16.2417	-0.00048471	   16.3638	-0.000449151	   16.3146	-0.000475353	   16.3146	  -11.8838	
   16.4499	-0.000484606	   16.3543	-0.000476951	   16.4756	-0.000441287	   16.4266	-0.000467615	   16.4266	  -11.6904	
   16.5607	-0.000477067	   16.4662	-0.000469269	   16.5868	-0.000433494	   16.5379	-0.000459943	   16.5379	  -11.4986	
   16.6706	-0.000469571	   16.5774	-0.000461626	   16.6981	-0.000425738	   16.6487	-0.000452312	   16.6487	  -11.3078	
   16.7801	-0.000462077	   16.6878	-0.000453977	   16.8077	-0.000417971	   16.7586	-0.000444675	   16.7586	  -11.1169	
   16.8888	-0.00045455	   16.7978	-0.000446287	   16.9175	-0.000410144	    16.868	-0.000436994	    16.868	  -10.9248	
   16.9971	-0.000446962	   16.9063	-0.000438519	   17.0266	-0.000402229	   16.9767	-0.000429237	   16.9767	  -10.7309	
   17.1039	-0.000439296	   17.0146	-0.000430638	   17.1337	-0.000394199	   17.0841	-0.000421378	   17.0841	  -10.5344	
   17.2104	-0.000431529	   17.1219	-0.000422608	   17.2392	-0.000386036	   17.1905	-0.000413391	   17.1905	  -10.3348	
   17.3163	-0.000423652	   17.2269	-0.00041442	   17.3453	-0.000377744	   17.2962	-0.000405272	   17.2962	  -10.1318	
   17.4215	-0.000415681	   17.3318	-0.000406087	   17.4501	-0.000369335	   17.4011	-0.000397034	   17.4011	  -9.92585	
   17.5258	-0.000407635	   17.4359	-0.000397633	   17.5539	-0.00036085	   17.5052	-0.000388706	   17.5052	  -9.71765	
   17.6296	-0.000399543	   17.5392	-0.000389105	   17.6561	-0.00035234	   17.6083	-0.000380329	   17.6083	  -9.50823	
   17.7326	-0.000391442	   17.6417	-0.000380546	   17.7578	-0.000343847	   17.7107	-0.000371945	   17.7107	  -9.29863	
   17.8359	-0.000383361	   17.7436	-0.000372011	   17.8588	-0.000335412	   17.8128	-0.000363594	   17.8128	  -9.08986	
   17.9388	-0.000375318	   17.8467	-0.000363552	   17.9588	-0.000327064	   17.9147	-0.000355311	   17.9147	  -8.88278	
   18.0406	-0.000367333	   17.9492	-0.000355218	   18.0583	-0.000318823	   18.0161	-0.000347125	   18.0161	  -8.67812	
   18.1415	-0.000359411	   18.0512	-0.000347047	   18.1579	-0.000310684	   18.1169	-0.000339047	   18.1169	  -8.47618	
   18.2416	-0.000351538	   18.1536	-0.000339046	   18.2563	-0.000302628	   18.2172	-0.000331071	   18.2172	  -8.27676	
   18.3408	-0.000343695	   18.2563	-0.000331168	   18.3543	-0.000294622	   18.3171	-0.000323161	   18.3171	  -8.07904	
   18.4387	-0.000335865	   18.3587	-0.000323388	   18.4507	-0.000286624	    18.416	-0.000315293	    18.416	  -7.88231	
    18.536	-0.000328022	   18.4605	-0.000315667	   18.5468	-0.000278595	   18.5144	-0.000307428	   18.5144	   -7.6857	
   18.6321	-0.000320137	   18.5612	-0.000307931	   18.6417	-0.000270499	   18.6117	-0.000299522	   18.6117	  -7.48805	
    18.727	-0.000312193	   18.6609	-0.000300106	   18.7366	-0.00026231	   18.7081	-0.000291536	   18.7081	  -7.28841	
   18.8218	-0.000304177	    18.759	-0.000292152	   18.8312	-0.000253984	    18.804	-0.000283437	    18.804	  -7.08594	
   18.9157	-0.000296085	   18.8564	-0.000284047	   18.9252	-0.000245521	   18.8991	-0.000275218	   18.8991	  -6.88044	
    19.008	-0.000287926	   18.9518	-0.000275772	   19.0185	-0.000236975	   18.9928	-0.000266891	   18.9928	  -6.67227	
   19.0998	-0.000279714	   19.0454	-0.000267335	   19.1107	-0.000228349	   19.0853	-0.000258466	   19.0853	  -6.46165	
   19.1905	-0.000271465	   19.1391	-0.000258767	   19.2017	-0.000219676	   19.1771	-0.000249969	   19.1771	  -6.24924	
   19.2809	-0.000263204	   19.2328	-0.000250073	   19.2913	-0.000211017	   19.2683	-0.000241432	   19.2683	  -6.03579	
   19.3704	-0.000254959	   19.3246	-0.00024132	   19.3808	-0.000202426	   19.3586	-0.000232902	   19.3586	  -5.82254	
   19.4584	-0.000246746	   19.4151	-0.000232602	   19.4691	-0.000193932	   19.4476	-0.000224427	   19.4476	  -5.61067	
   19.5463	-0.000238578	   19.5035	-0.00022395	   19.5562	-0.000185557	   19.5353	-0.000216028	   19.5353	  -5.40071	
   19.6331	-0.000230464	   19.5915	-0.000215403	   19.6434	-0.000177319	   19.6227	-0.000207729	   19.6227	  -5.19322	
     19.72	-0.000222403	   19.6792	-0.000207004	   19.7297	-0.000169203	   19.7096	-0.000199537	   19.7096	  -4.98842	
   19.8062	-0.000214384	   19.7656	-0.000198778	   19.8152	-0.000161181	   19.7957	-0.000191448	   19.7957	  -4.78619	
   19.8914	-0.00020639	    19.852	-0.000190702	      19.9	-0.000153224	   19.8811	-0.000183439	   19.8811	  -4.58596	
   19.9761	-0.000198401	   19.9381	-0.000182741	   19.9842	-0.000145268	   19.9661	-0.00017547	   19.9661	  -4.38675	
   20.0593	-0.000190396	   20.0229	-0.000174849	   20.0672	-0.000137246	   20.0498	-0.000167497	   20.0498	  -4.18743	
   20.1416	-0.00018235	   20.1071	-0.000166963	   20.1493	-0.00012912	   20.1326	-0.000159478	   20.1326	  -3.98694	
   20.2228	-0.00017425	   20.1896	-0.00015903	   20.2313	-0.000120859	   20.2146	-0.00015138	   20.2146	  -3.78449	
   20.3028	-0.000166088	   20.2716	-0.000151016	   20.3129	-0.000112445	   20.2958	-0.000143183	   20.2958	  -3.57958	
   20.3815	-0.000157861	   20.3517	-0.000142867	   20.3939	-0.000103878	   20.3757	-0.000134869	   20.3757	  -3.37171	
     20.46	-0.00014958	   20.4304	-0.000134546	   20.4736	-9.5191e-05	   20.4547	-0.000126439	   20.4547	  -3.16098	
   20.5378	-0.000141263	   20.5082	-0.000126069	   20.5523	-8.64287e-05	   20.5327	-0.00011792	   20.5327	  -2.94801	
   20.6151	-0.00013293	    20.585	-0.000117468	   20.6299	-7.76446e-05	     20.61	-0.000109347	     20.61	  -2.73369	
   20.6907	-0.000124604	   20.6611	-0.000108779	   20.7067	-6.8906e-05	   20.6862	-0.000100763	   20.6862	  -2.51907	
    20.767	-0.000116307	   20.7359	-0.000100061	   20.7829	-6.02605e-05	   20.7619	-9.22095e-05	   20.7619	  -2.30524	
   20.8427	-0.000108062	   20.8101	-9.1376e-05	   20.8589	-5.17488e-05	   20.8372	-8.37288e-05	   20.8372	  -2.09322	
   20.9179	-9.988e-05	   20.8841	-8.27749e-05	   20.9331	-4.34081e-05	   20.9117	-7.53543e-05	   20.9117	  -1.88386	
   20.9921	-9.17695e-05	   20.9567	-7.43045e-05	   21.0063	-3.5246e-05	    20.985	-6.71067e-05	    20.985	  -1.67767	
   21.0647	-8.37207e-05	   21.0281	-6.60012e-05	   21.0783	-2.724e-05	    21.057	-5.89873e-05	    21.057	  -1.47468	
   21.1361	-7.57162e-05	   21.0992	-5.78581e-05	   21.1494	-1.93576e-05	   21.1282	-5.09773e-05	   21.1282	  -1.27443	
   21.2071	-6.77903e-05	   21.1696	-4.9856e-05	   21.2205	-1.15568e-05	   21.1991	-4.30677e-05	   21.1991	  -1.07669	
   21.2769	-5.99098e-05	   21.2398	-4.19681e-05	   21.2906	-3.78098e-06	   21.2691	-3.52196e-05	   21.2691	 -0.880491	
   21.3469	-5.19916e-05	   21.3091	-3.41502e-05	   21.3598	4.03179e-06	   21.3386	-2.737e-05	   21.3386	  -0.68425	
   21.4161	-4.40666e-05	   21.3787	-2.63424e-05	   21.4278	1.19296e-05	   21.4075	-1.94931e-05	   21.4075	 -0.487328	
   21.4841	-3.61175e-05	   21.4475	-1.84945e-05	   21.4952	1.99489e-05	   21.4756	-1.15544e-05	   21.4756	 -0.288859	
    21.551	-2.80916e-05	   21.5153	-1.05695e-05	   21.5617	2.8109e-05	   21.5427	-3.51736e-06	   21.5427	-0.0879339	
   21.6171	-1.99747e-05	   21.5822	-2.53747e-06	   21.6273	3.63797e-05	   21.6089	4.62251e-06	   21.6089	  0.115563	
   21.6825	-1.17892e-05	   21.6479	5.60913e-06	   21.6918	4.47357e-05	   21.6741	1.28519e-05	   21.6741	  0.321297	
   21.7468	-3.52965e-06	   21.7123	1.38517e-05	   21.7552	5.31474e-05	   21.7381	2.11565e-05	   21.7381	  0.528911	
   21.8094	4.80807e-06	   21.7761	2.2166e-05	   21.8173	6.15653e-05	   21.8009	2.95131e-05	   21.8009	  0.737828	
   21.8722	1.31864e-05	   21.8393	3.05165e-05	   21.8789	6.99242e-05	   21.8635	3.78757e-05	   21.8635	  0.946892	
   21.9338	2.15791e-05	   21.9015	3.88447e-05	   21.9391	7.81831e-05	   21.9248	4.62023e-05	   21.9248	   1.15506	
   21.9947	2.99989e-05	   21.9635	4.71143e-05	   21.9991	8.6328e-05	   21.9858	5.44804e-05	   21.9858	   1.36201	
    22.055	3.84354e-05	   22.0235	5.53045e-05	   22.0582	9.43461e-05	   22.0456	6.26953e-05	   22.0456	   1.56738	
    22.115	4.68042e-05	   22.0829	6.33793e-05	   22.1162	0.000102233	   22.1047	7.08057e-05	   22.1047	   1.77014	
   22.1746	5.50442e-05	   22.1422	7.13314e-05	   22.1737	0.000110015	   22.1635	7.87967e-05	   22.1635	   1.96992	
   22.2322	6.31334e-05	   22.2006	7.91828e-05	   22.2306	0.000117755	   22.2211	8.66905e-05	   22.2211	   2.16726	
   22.2905	7.10259e-05	   22.2581	8.69537e-05	   22.2861	0.000125485	   22.2782	9.44883e-05	   22.2782	   2.36221	
    22.351	7.87299e-05	   22.3138	9.46688e-05	   22.3416	0.000133222	   22.3355	0.000102207	   22.3355	   2.55517	
   22.4112	8.62323e-05	   22.3689	0.000102371	   22.3965	0.000141032	   22.3922	0.000109878	   22.3922	   2.74696	
   22.4687	9.3566e-05	   22.4235	0.000110108	   22.4509	0.000148924	   22.4477	0.000117533	   22.4477	   2.93832	
   22.5242	 0.0001008	   22.4763	0.000117903	   22.5051	0.000156885	   22.5019	0.000125196	   22.5019	   3.12991	
   22.5822	0.000108015	   22.5292	0.000125768	   22.5586	 0.0001649	   22.5566	0.000132894	   22.5566	   3.32236	
   22.6408	0.000115281	   22.5805	0.000133726	   22.6119	0.000172948	   22.6111	0.000140651	   22.6111	   3.51629	
   22.6949	0.000122649	   22.6313	0.000141752	   22.6646	0.000180992	   22.6636	0.000148464	   22.6636	   3.71161	
   22.7437	0.000130167	   22.6811	0.000149818	   22.7169	0.000188982	   22.7139	0.000156322	   22.7139	   3.90806	
   22.7925	0.000137887	   22.7296	0.000157898	   22.7673	0.000196893	   22.7631	0.000164226	   22.7631	   4.10565	
   22.8418	0.000145824	   22.7778	0.000165957	   22.8173	0.000204699	   22.8123	0.00017216	   22.8123	     4.304	
   22.8878	0.000153947	   22.8251	0.000173954	   22.8656	0.000212378	   22.8595	0.000180093	   22.8595	   4.50233	
   22.9294	 0.0001622	    22.871	0.000181859	   22.9141	0.000219955	   22.9048	0.000188005	   22.9048	   4.70012	
   22.9708	0.000170496	   22.9159	0.000189663	   22.9613	0.000227466	   22.9493	0.000195875	   22.9493	   4.89687	
   23.0121	0.000178777	   22.9595	0.000197352	   23.0077	0.000234936	   22.9931	0.000203688	   22.9931	    5.0922	
   23.0521	0.000186968	   23.0024	0.000204932	   23.0537	0.00024241	    23.036	0.000211437	    23.036	   5.28592	
   23.0905	0.000194995	   23.0445	0.000212437	   23.0986	0.000249931	   23.0779	0.000219121	   23.0779	   5.47802	
   23.1289	0.000202795	   23.0863	0.000219889	   23.1425	0.000257527	   23.1192	0.000226737	   23.1192	   5.66843	
   23.1679	0.00021035	   23.1272	0.000227316	   23.1853	0.000265209	   23.1601	0.000234292	   23.1601	   5.85729	
   23.2056	0.000217677	   23.1663	0.000234756	   23.2276	0.00027298	   23.1999	0.000241804	   23.1999	   6.04511	
   23.2426	0.000224815	   23.2051	0.000242234	   23.2692	0.00028082	    23.239	0.00024929	    23.239	   6.23224	
   23.2799	0.000231825	   23.2427	0.000249763	   23.3101	0.000288689	   23.2776	0.000256759	   23.2776	   6.41897	
   23.3167	0.000238783	   23.2788	0.00025735	   23.3502	0.000296564	   23.3152	0.000264233	   23.3152	   6.60581	
   23.3528	0.000245771	   23.3139	0.000264989	   23.3887	 0.0003044	   23.3518	0.00027172	   23.3518	     6.793	
   23.3889	0.000252863	   23.3479	0.000272656	   23.4259	0.000312146	   23.3875	0.000279222	   23.3875	   6.98055	
   23.4247	0.000260122	   23.3815	0.000280326	   23.4615	0.000319776	   23.4226	0.000286742	   23.4226	   7.16854	
   23.4599	0.000267567	   23.4143	0.000287977	   23.4962	0.000327278	   23.4568	0.000294274	   23.4568	   7.35685	
   23.4932	0.000275188	    23.446	0.000295575	   23.5295	0.000334655	   23.4896	0.000301806	   23.4896	   7.54516	
   23.5249	0.000282951	   23.4774	0.000303095	   23.5622	0.000341921	   23.5215	0.000309322	   23.5215	   7.73306	
    23.557	0.000290796	   23.5082	0.000310524	   23.5934	0.000349111	   23.5529	0.00031681	   23.5529	   7.92025	
   23.5881	0.00029865	   23.5384	0.000317856	   23.6231	0.000356261	   23.5832	0.000324256	   23.5832	    8.1064	
   23.6173	0.000306434	   23.5677	0.000325095	   23.6522	0.000363412	   23.6124	0.000331647	   23.6124	   8.29118	
   23.6447	0.000314084	   23.5956	0.000332257	   23.6806	0.000370608	   23.6403	0.000338983	   23.6403	   8.47457	
   23.6709	0.000321555	    23.623	0.000339369	   23.7074	0.000377877	   23.6671	0.000346267	   23.6671	   8.65667	
   23.6969	0.000328834	   23.6497	0.000346458	   23.7327	0.000385232	   23.6931	0.000353508	   23.6931	    8.8377	
    23.721	0.000335931	   23.6755	0.000353553	   23.7575	0.000392674	    23.718	0.000360719	    23.718	   9.01798	
   23.7435	0.000342872	   23.7005	0.000360681	   23.7808	0.000400183	   23.7416	0.000367912	   23.7416	    9.1978	
   23.7653	0.000349708	   23.7245	0.000367855	   23.8031	0.000407734	   23.7643	0.000375099	   23.7643	   9.37748	
   23.7869	0.000356511	    23.747	0.000375082	   23.8247	0.000415285	   23.7862	0.000382293	   23.7862	   9.55732	
   23.8083	0.000363349	   23.7691	0.000382359	   23.8453	0.000422794	   23.8076	0.000389501	   23.8076	   9.73752	
   23.8286	0.000370278	   23.7889	0.00038967	   23.8659	0.000430234	   23.8278	0.000396727	   23.8278	   9.91819	
   23.8472	0.000377353	   23.8082	0.000396991	   23.8843	0.000437582	   23.8466	0.000403975	   23.8466	   10.0994	
   23.8656	0.000384605	    23.826	0.000404296	   23.9022	0.000444825	   23.8646	0.000411242	   23.8646	   10.2811	
   23.8823	0.000391993	   23.8426	0.00041156	   23.9188	0.000451966	   23.8812	0.000418506	   23.8812	   10.4627	
   23.8984	0.000399457	   23.8584	0.000418757	   23.9349	0.000459004	   23.8972	0.000425739	   23.8972	   10.6435	
   23.9136	0.000406944	    23.873	0.000425868	   23.9504	0.000465962	   23.9123	0.000432925	   23.9123	   10.8231	
   23.9272	0.000414379	   23.8868	0.000432891	   23.9645	0.000472868	   23.9262	0.000440046	   23.9262	   11.0011	
   23.9393	0.000421698	   23.8995	0.000439826	    23.978	0.000479747	   23.9389	0.000447091	   23.9389	   11.1773	
   23.9499	0.000428837	    23.911	0.000446686	   23.9903	0.000486619	   23.9504	0.000454048	   23.9504	   11.3512	
   23.9593	0.000435761	   23.9222	0.000453492	   24.0013	0.000493495	   23.9609	0.000460916	   23.9609	   11.5229	
   23.9678	0.000442465	   23.9323	0.000460266	   24.0116	0.00050039	   23.9706	0.000467707	   23.9706	   11.6927	
   23.9759	0.000448972	   23.9421	0.000467032	   24.0208	0.000507304	   23.9796	0.000474436	   23.9796	   11.8609	
   23.9827	0.000455316	   23.9515	0.000473815	   24.0296	0.000514229	   23.9879	0.00048112	   23.9879	    12.028	
   23.9889	0.000461568	     23.96	0.000480631	   24.0377	0.000521165	   23.9955	0.000487788	   23.9955	   12.1947	
   23.9932	0.000467801	   23.9682	0.000487491	   24.0441	0.000528096	   24.0018	0.000494463	   24.0018	   12.3616	
    23.997	0.000474101	   23.9749	0.00049439	   24.0501	0.000534998	   24.0073	0.000501163	   24.0073	   12.5291	
   23.9999	0.000480535	   23.9807	0.000501317	   24.0544	0.00054187	   24.0117	0.000507907	   24.0117	   12.6977	
   24.0014	0.000487144	   23.9852	0.00050825	   24.0574	0.000548706	   24.0147	 0.0005147	   24.0147	   12.8675	
   24.0021	0.000493953	   23.9883	0.000515167	   24.0596	0.000555467	   24.0167	0.000521529	   24.0167	   13.0382	
   24.0021	0.000500944	   23.9902	0.000522042	   24.0612	0.00056215	   24.0179	0.000528379	   24.0179	   13.2095	
   24.0008	0.000508075	   23.9915	0.000528852	   24.0622	0.000568771	   24.0182	0.000535233	   24.0182	   13.3808	
   23.9988	0.000515293	   23.9914	0.00053558	   24.0626	0.000575324	   24.0176	0.000542065	   24.0176	   13.5516	
   23.9964	0.000522525	   23.9916	0.000542215	   24.0618	0.000581807	   24.0166	0.000548849	   24.0166	   13.7212	
   23.9935	0.000529681	   23.9913	0.000548758	   24.0598	0.00058824	   24.0149	0.00055556	   24.0149	    13.889	
   23.9897	0.000536683	   23.9902	0.000555214	   24.0565	0.000594657	   24.0121	0.000562185	   24.0121	   14.0546	
   23.9856	0.000543495	    23.988	0.000561602	   24.0523	0.000601066	   24.0086	0.000568721	   24.0086	    14.218	
   23.9802	0.00055009	   23.9851	0.000567941	   24.0469	0.00060747	   24.0041	0.000575167	   24.0041	   14.3792	
   23.9739	0.000556478	   23.9806	0.000574255	   24.0401	0.000613905	   23.9982	0.000581546	   23.9982	   14.5387	
   23.9665	0.000562693	   23.9751	0.000580565	   24.0324	0.000620363	   23.9913	0.000587874	   23.9913	   14.6968	
   23.9585	0.000568795	   23.9689	0.000586892	   24.0235	0.00062682	   23.9836	0.000594169	   23.9836	   14.8542	
   23.9491	0.000574855	   23.9614	0.000593247	   24.0139	0.000633269	   23.9748	0.000600457	   23.9748	   15.0114	
   23.9392	0.000580942	   23.9528	0.00059963	   24.0047	0.000639703	   23.9656	0.000606759	   23.9656	    15.169	
   23.9286	0.000587125	    23.944	0.000606038	    23.994	0.000646093	   23.9556	0.000613085	   23.9556	   15.3271	
    23.917	0.000593439	   23.9342	0.000612453	   23.9824	0.000652416	   23.9445	0.000619436	   23.9445	   15.4859	
   23.9037	0.00059989	   23.9228	0.000618854	     23.97	0.000658666	   23.9322	0.000625803	   23.9322	   15.6451	
   23.8902	0.000606484	   23.9101	0.000625216	   23.9569	0.000664839	   23.9191	0.00063218	   23.9191	   15.8045	
   23.8759	0.000613184	   23.8961	0.000631521	   23.9425	0.000670936	   23.9048	0.000638547	   23.9048	   15.9637	
   23.8605	0.00061992	   23.8816	0.000637751	   23.9272	0.000676972	   23.8898	0.000644881	   23.8898	    16.122	
   23.8447	0.000626628	   23.8667	0.000643893	   23.9101	0.000682955	   23.8738	0.000651159	   23.8738	    16.279	
   23.8284	0.00063325	   23.8506	0.000649948	   23.8919	0.000688902	    23.857	0.000657367	    23.857	   16.4342	
   23.8112	0.000639734	   23.8335	0.000655928	   23.8722	0.000694828	    23.839	0.000663497	    23.839	   16.5874	
   23.7932	0.000646029	    23.815	0.000661846	   23.8523	0.000700736	   23.8202	0.000669537	   23.8202	   16.7384	
   23.7738	0.000652124	   23.7959	0.000667717	   23.8311	0.000706636	   23.8003	0.000675492	   23.8003	   16.8873	
   23.7526	0.000658032	    23.776	0.00067356	   23.8085	0.000712528	    23.779	0.000681373	    23.779	   17.0343	
   23.7302	0.000663772	    23.755	0.00067942	   23.7857	0.000718411	    23.757	0.000687201	    23.757	     17.18	
   23.7078	0.000669403	   23.7332	0.000685311	   23.7617	0.000724273	   23.7342	0.000692996	   23.7342	   17.3249	
   23.6838	0.000674994	   23.7105	0.000691219	   23.7371	0.000730107	   23.7105	0.000698773	   23.7105	   17.4693	
    23.659	0.000680603	   23.6871	0.000697173	   23.7106	0.000735907	   23.6856	0.000704561	   23.6856	    17.614	
   23.6337	0.000686283	   23.6627	0.000703162	   23.6829	0.000741661	   23.6598	0.000710369	   23.6598	   17.7592	
   23.6073	0.000692079	   23.6365	0.00070915	   23.6552	0.000747362	    23.633	0.000716197	    23.633	   17.9049	
   23.5805	0.000698005	   23.6091	0.000715107	    23.626	0.00075301	   23.6052	0.000722041	   23.6052	    18.051	
   23.5536	0.000704051	   23.5811	0.000721008	   23.5963	0.000758601	    23.577	0.000727887	    23.577	   18.1972	
   23.5257	0.000710189	   23.5522	0.000726819	   23.5656	0.000764139	   23.5478	0.000733716	   23.5478	   18.3429	
   23.4964	0.000716379	   23.5221	0.000732519	   23.5346	0.000769629	   23.5177	0.000739509	   23.5177	   18.4877	
   23.4673	0.000722538	   23.4912	0.000738103	   23.5024	0.000775085	    23.487	0.000745242	    23.487	   18.6311	
   23.4365	0.000728598	   23.4601	0.000743574	   23.4696	0.000780511	   23.4554	0.000750894	   23.4554	   18.7724	
   23.4048	0.000734531	   23.4283	0.00074894	   23.4364	0.000785916	   23.4232	0.000756462	   23.4232	   18.9116	
   23.3724	0.000740289	   23.3953	0.000754241	   23.4035	0.000791307	   23.3904	0.000761945	   23.3904	   19.0486	
   23.3388	0.000745837	   23.3605	0.000759522	   23.3697	0.000796685	   23.3563	0.000767348	   23.3563	   19.1837	
   23.3043	0.000751211	   23.3256	0.000764814	   23.3353	0.000802052	   23.3217	0.000772692	   23.3217	   19.3173	
    23.269	0.000756465	   23.2885	0.000770158	   23.2996	0.000807403	   23.2857	0.000778009	   23.2857	   19.4502	
   23.2326	0.00076164	   23.2508	0.000775581	   23.2627	0.000812732	   23.2487	0.000783318	   23.2487	   19.5829	
   23.1958	0.000766798	   23.2114	0.000781094	   23.2263	0.000818031	   23.2112	0.000788641	   23.2112	    19.716	
   23.1574	0.000772012	   23.1713	0.000786684	   23.1886	0.000823296	   23.1724	0.000793997	   23.1724	   19.8499	
   23.1181	0.000777333	   23.1299	0.000792332	   23.1495	0.00082852	   23.1325	0.000799395	   23.1325	   19.9849	
   23.0777	0.00078279	   23.0877	0.000798002	   23.1095	0.000833698	   23.0916	0.00080483	   23.0916	   20.1207	
   23.0361	0.00078841	   23.0446	0.000803645	   23.0685	0.000838823	   23.0498	0.000810293	   23.0498	   20.2573	
   22.9928	0.000794165	   23.0007	0.000809229	   23.0276	0.000843897	    23.007	0.000815764	    23.007	   20.3941	
   22.9496	0.000799997	   22.9563	0.000814715	   22.9852	0.000848924	   22.9637	0.000821212	   22.9637	   20.5303	
   22.9051	0.000805854	   22.9109	0.000820075	   22.9411	0.000853912	    22.919	0.000826614	    22.919	   20.6653	
     22.86	0.000811667	   22.8647	0.000825297	   22.8965	0.000858867	   22.8738	0.000831944	   22.8738	   20.7986	
    22.814	0.000817359	    22.818	0.000830395	   22.8506	0.000863796	   22.8276	0.000837183	   22.8276	   20.9296	
    22.767	0.000822874	   22.7709	0.000835388	   22.8038	0.000868705	   22.7805	0.000842322	   22.7805	   21.0581	
   22.7187	0.000828191	   22.7221	0.000840303	   22.7561	0.000873603	   22.7323	0.000847365	   22.7323	   21.1841	
   22.6693	0.000833301	   22.6724	0.000845183	   22.7074	0.000878488	    22.683	0.000852324	    22.683	   21.3081	
   22.6193	0.000838221	   22.6223	0.000850058	   22.6582	0.000883365	   22.6332	0.000857215	   22.6332	   21.4304	
    22.569	0.000843007	   22.5712	0.000854956	   22.6089	0.000888227	    22.583	0.000862063	    22.583	   21.5516	
   22.5177	0.000847718	   22.5193	0.000859888	   22.5588	0.000893071	    22.532	0.000866893	    22.532	   21.6723	
   22.4651	0.000852413	   22.4665	0.000864859	   22.5076	0.000897894	   22.4797	0.000871722	   22.4797	    21.793	
   22.4106	0.000857161	   22.4134	0.000869855	   22.4545	0.000902682	   22.4262	0.000876566	   22.4262	   21.9142	
   22.3552	0.00086202	   22.3602	0.000874861	   22.4007	0.000907433	    22.372	0.000881438	    22.372	    22.036	
   22.2998	0.000867013	   22.3056	0.000879851	   22.3455	0.000912141	    22.317	0.000886335	    22.317	   22.1584	
   22.2432	0.000872144	   22.2499	0.000884797	   22.2893	 0.0009168	   22.2608	0.000891247	   22.2608	   22.2812	
   22.1866	0.000877396	   22.1939	0.000889682	   22.2332	0.000921409	   22.2046	0.000896162	   22.2046	   22.4041	
   22.1299	0.000882721	   22.1372	0.000894478	   22.1758	0.000925965	   22.1476	0.000901055	   22.1476	   22.5264	
   22.0721	0.000888053	   22.0796	0.000899186	   22.1176	0.000930469	   22.0898	0.000905903	   22.0898	   22.6476	
   22.0132	0.00089333	   22.0219	0.000903825	   22.0593	0.000934926	   22.0315	0.000910694	   22.0315	   22.7673	
   21.9529	0.000898485	   21.9637	0.000908402	   21.9996	0.000939342	    21.972	0.00091541	    21.972	   22.8852	
   21.8905	0.000903462	   21.9042	0.000912914	   21.9388	0.000943724	   21.9112	0.000920033	   21.9112	   23.0008	
   21.8273	0.000908235	   21.8444	0.000917396	   21.8773	0.00094804	   21.8497	0.000924557	   21.8497	   23.1139	
   21.7642	0.000912801	   21.7838	0.000921875	   21.8145	0.000952295	   21.7875	0.000928991	   21.7875	   23.2248	
   21.6999	0.000917179	   21.7227	0.00092636	   21.7507	0.000956509	   21.7244	0.000933349	   21.7244	   23.3337	
   21.6345	0.000921413	   21.6609	0.000930862	   21.6864	0.000960714	   21.6606	0.000937663	   21.6606	   23.4416	
   21.5693	0.000925568	   21.5969	0.000935403	   21.6224	0.000964901	   21.5962	0.000941957	   21.5962	   23.5489	
   21.5034	0.00092971	   21.5329	0.000939975	   21.5569	0.000969069	    21.531	0.000946251	    21.531	   23.6563	
   21.4374	0.000933903	   21.4672	0.000944562	   21.4906	0.000973248	   21.4651	0.000950571	   21.4651	   23.7643	
   21.3702	 0.0009382	   21.4005	0.000949157	   21.4235	0.000977445	   21.3981	0.000954934	   21.3981	   23.8733	
    21.302	0.000942634	   21.3328	0.000953753	   21.3554	0.000981658	   21.3301	0.000959348	   21.3301	   23.9837	
   21.2318	0.000947209	   21.2646	0.000958303	   21.2865	0.00098589	    21.261	0.000963801	    21.261	    24.095	
   21.1611	0.000951907	   21.1952	0.000962775	   21.2173	0.00099013	   21.1912	0.000968271	   21.1912	   24.2068	
   21.0901	0.000956685	    21.125	0.000967164	   21.1472	0.000994369	   21.1208	0.000972739	   21.1208	   24.3185	
   21.0177	0.000961482	   21.0542	0.000971439	   21.0752	0.000998594	    21.049	0.000977172	    21.049	   24.4293	
   20.9442	0.000966231	   20.9838	0.000975593	    21.003	0.00100278	    20.977	0.000981536	    20.977	   24.5384	
   20.8698	0.000970875	   20.9123	0.000979642	   20.9299	 0.0010069	    20.904	0.000985805	    20.904	   24.6451	
   20.7935	0.000975361	   20.8394	0.000983607	    20.855	0.00101092	   20.8293	0.000989961	   20.8293	    24.749	
   20.7165	0.000979656	   20.7661	0.00098751	    20.779	0.00101483	   20.7539	  0.000994	   20.7539	     24.85	
   20.6383	0.000983751	   20.6914	0.000991392	   20.7018	0.00101866	   20.6771	0.000997934	   20.6771	   24.9483	
   20.5594	0.000987663	   20.6168	0.00099529	   20.6235	0.00102239	   20.5999	0.00100178	   20.5999	   25.0445	
   20.4807	0.000991426	   20.5414	0.000999219	   20.5441	0.00102604	   20.5221	0.00100556	   20.5221	   25.1391	
   20.4009	0.000995094	   20.4651	0.00100319	   20.4639	0.00102962	   20.4433	 0.0010093	   20.4433	   25.2326	
   20.3204	0.000998729	   20.3886	0.00100722	   20.3831	0.00103317	    20.364	0.00101304	    20.364	    25.326	
   20.2395	0.00100239	   20.3108	0.00101129	   20.3011	0.00103671	   20.2838	 0.0010168	   20.2838	   25.4199	
   20.1577	0.00100613	   20.2319	0.00101538	   20.2185	0.00104026	   20.2027	0.00102059	   20.2027	   25.5148	
   20.0767	0.00100998	   20.1523	0.00101947	   20.1348	0.00104384	   20.1213	0.00102443	   20.1213	   25.6107	
   19.9947	0.00101395	   20.0714	0.00102351	   20.0495	0.00104744	   20.0385	 0.0010283	   20.0385	   25.7076	
   19.9112	0.00101803	   19.9904	0.00102749	   19.9631	0.00105108	   19.9549	 0.0010322	   19.9549	   25.8051	
   19.8264	0.00102219	   19.9087	0.00103139	   19.8763	0.00105473	   19.8705	 0.0010361	   19.8705	   25.9025	
   19.7408	0.00102636	   19.8261	0.00103518	    19.789	0.00105836	   19.7853	0.00103997	   19.7853	   25.9992	
   19.6535	0.00103051	    19.743	0.00103885	   19.7015	0.00106197	   19.6993	0.00104377	   19.6993	   26.0944	
    19.567	0.00103456	    19.658	 0.0010424	   19.6134	0.00106552	   19.6128	0.00104749	   19.6128	   26.1874	
   19.4794	0.00103847	   19.5718	0.00104585	   19.5236	0.00106902	    19.525	0.00105111	    19.525	   26.2778	
   19.3917	0.00104221	   19.4845	0.00104922	   19.4341	0.00107244	   19.4368	0.00105462	   19.4368	   26.3656	
   19.3025	0.00104577	   19.3963	0.00105253	   19.3445	0.00107579	   19.3478	0.00105803	   19.3478	   26.4507	
   19.2132	0.00104915	   19.3069	0.00105582	   19.2549	0.00107905	   19.2583	0.00106134	   19.2583	   26.5335	
   19.1226	0.00105239	   19.2178	0.00105912	   19.1644	0.00108225	   19.1683	0.00106458	   19.1683	   26.6146	
   19.0311	0.00105553	   19.1274	0.00106244	   19.0731	0.00108539	   19.0772	0.00106779	   19.0772	   26.6946	
   18.9388	0.00105862	   19.0369	0.00106579	   18.9806	0.00108851	   18.9854	0.00107097	   18.9854	   26.7743	
   18.8455	0.00106172	   18.9461	0.00106919	   18.8873	 0.0010916	    18.893	0.00107417	    18.893	   26.8542	
   18.7508	0.00106487	    18.855	0.00107261	   18.7928	0.00109469	   18.7995	0.00107739	   18.7995	   26.9348	
   18.6558	0.00106811	   18.7632	0.00107605	   18.6972	0.00109777	   18.7054	0.00108064	   18.7054	   27.0161	
   18.5601	0.00107145	   18.6704	0.00107948	   18.6005	0.00110086	   18.6103	0.00108393	   18.6103	   27.0982	
   18.4633	0.00107488	   18.5762	0.00108287	    18.503	0.00110394	   18.5142	0.00108723	   18.5142	   27.1807	
   18.3665	0.00107836	   18.4809	0.00108619	   18.4052	0.00110702	   18.4175	0.00109052	   18.4175	   27.2631	
   18.2684	0.00108186	   18.3845	0.00108944	   18.3072	0.00111006	     18.32	0.00109379	     18.32	   27.3446	
   18.1695	0.00108532	   18.2871	 0.0010926	    18.208	0.00111307	   18.2216	  0.001097	   18.2216	   27.4249	
   18.0691	 0.0010887	   18.1884	0.00109567	    18.108	0.00111604	   18.1218	0.00110014	   18.1218	   27.5035	
   17.9673	0.00109197	   18.0881	0.00109866	   18.0076	0.00111894	    18.021	0.00110319	    18.021	   27.5797	
   17.8653	0.00109509	   17.9865	0.00110158	    17.907	0.00112179	   17.9196	0.00110615	   17.9196	   27.6538	
   17.7619	0.00109806	   17.8838	0.00110445	   17.8062	0.00112456	   17.8173	0.00110903	   17.8173	   27.7257	
   17.6591	0.00110091	   17.7808	0.00110729	   17.7052	0.00112728	    17.715	0.00111182	    17.715	   27.7956	
   17.5551	0.00110363	   17.6769	0.00111011	   17.6036	0.00112994	   17.6119	0.00111456	   17.6119	    27.864	
   17.4502	0.00110629	   17.5734	0.00111293	   17.5003	0.00113255	    17.508	0.00111726	    17.508	   27.9314	
   17.3454	0.00110892	   17.4693	0.00111575	   17.3963	0.00113512	   17.4037	0.00111993	   17.4037	   27.9983	
   17.2397	0.00111157	   17.3647	0.00111857	   17.2907	0.00113767	   17.2984	 0.0011226	   17.2984	   28.0651	
   17.1333	0.00111425	   17.2588	0.00112139	   17.1848	 0.0011402	   17.1923	0.00112528	   17.1923	    28.132	
   17.0268	  0.001117	   17.1517	0.00112419	    17.078	0.00114272	   17.0855	0.00112797	   17.0855	   28.1993	
   16.9189	0.00111982	   17.0442	0.00112696	   16.9707	0.00114524	   16.9779	0.00113067	   16.9779	   28.2669	
   16.8116	0.00112268	   16.9356	0.00112969	   16.8633	0.00114775	   16.8702	0.00113337	   16.8702	   28.3343	
   16.7037	0.00112558	    16.827	0.00113235	   16.7555	0.00115026	   16.7621	0.00113606	   16.7621	   28.4016	
   16.5946	0.00112849	   16.7177	0.00113495	   16.6482	0.00115275	   16.6535	0.00113873	   16.6535	   28.4682	
    16.485	0.00113136	   16.6077	0.00113746	   16.5397	0.00115523	   16.5442	0.00114135	   16.5442	   28.5337	
   16.3741	0.00113414	   16.4982	0.00113991	   16.4295	0.00115767	   16.4339	0.00114391	   16.4339	   28.5977	
   16.2635	0.00113683	   16.3879	0.00114229	   16.3197	0.00116008	   16.3237	 0.0011464	   16.3237	     28.66	
   16.1518	0.00113939	   16.2764	0.00114462	   16.2094	0.00116242	   16.2126	0.00114881	   16.2126	   28.7203	
    16.039	0.00114181	   16.1644	0.00114691	   16.0981	 0.0011647	   16.1005	0.00115114	   16.1005	   28.7785	
   15.9269	0.00114412	   16.0514	0.00114917	   15.9857	0.00116691	    15.988	 0.0011534	    15.988	    28.835	
   15.8137	0.00114634	   15.9379	0.00115141	   15.8723	0.00116903	   15.8747	 0.0011556	   15.8747	   28.8899	
   15.6991	0.00114851	   15.8239	0.00115366	   15.7582	0.00117109	   15.7604	0.00115775	   15.7604	   28.9438	
   15.5836	0.00115066	   15.7086	0.00115589	   15.6433	0.00117309	   15.6452	0.00115988	   15.6452	    28.997	
   15.4675	0.00115282	   15.5934	0.00115813	    15.528	0.00117506	   15.5296	  0.001162	   15.5296	     29.05	
   15.3513	  0.001155	   15.4783	0.00116036	   15.4126	0.00117701	   15.4141	0.00116412	   15.4141	   29.1031	
   15.2339	 0.0011572	   15.3618	0.00116257	   15.2969	0.00117897	   15.2975	0.00116625	   15.2975	   29.1562	
   15.1167	0.00115943	   15.2442	0.00116476	   15.1814	0.00118095	   15.1808	0.00116838	   15.1808	   29.2095	
   14.9976	0.00116166	   15.1254	 0.0011669	   15.0655	0.00118295	   15.0628	 0.0011705	   15.0628	   29.2626	
   14.8782	0.00116387	   15.0055	0.00116899	   14.9486	0.00118497	   14.9441	0.00117261	   14.9441	   29.3152	
   14.7585	0.00116603	   14.8845	0.00117103	   14.8308	0.00118699	   14.8246	0.00117468	   14.8246	   29.3671	
   14.6378	0.00116813	   14.7629	0.00117302	   14.7123	0.00118899	   14.7044	0.00117671	   14.7044	   29.4178	
   14.5163	0.00117015	   14.6411	0.00117495	    14.593	0.00119095	   14.5835	0.00117868	   14.5835	   29.4671	
    14.395	0.00117207	    14.519	0.00117684	   14.4725	0.00119285	   14.4622	0.00118059	   14.4622	   29.5147	
    14.273	0.00117389	   14.3967	0.00117867	   14.3505	0.00119468	   14.3401	0.00118242	   14.3401	   29.5604	
   14.1514	0.00117561	   14.2733	0.00118046	   14.2284	0.00119641	   14.2177	0.00118416	   14.2177	    29.604	
   14.0298	0.00117725	   14.1493	0.00118219	   14.1059	0.00119803	    14.095	0.00118582	    14.095	   29.6456	
   13.9071	0.00117886	   14.0243	0.00118388	   13.9818	0.00119955	   13.9711	0.00118743	   13.9711	   29.6858	
   13.7833	0.00118045	   13.8983	0.00118552	   13.8573	0.00120098	   13.8463	0.00118899	   13.8463	   29.7246	
   13.6594	0.00118206	   13.7721	 0.0011871	   13.7314	0.00120234	    13.721	 0.0011905	    13.721	   29.7625	
   13.5347	 0.0011837	   13.6458	0.00118863	   13.6046	0.00120364	    13.595	0.00119199	    13.595	   29.7998	
     13.41	0.00118543	   13.5187	0.00119012	   13.4773	 0.0012049	   13.4687	0.00119349	   13.4687	   29.8371	
    13.285	0.00118722	   13.3913	0.00119157	   13.3496	0.00120616	   13.3419	0.00119499	   13.3419	   29.8746	
   13.1599	0.00118907	   13.2632	0.00119299	   13.2215	0.00120741	   13.2149	0.00119649	   13.2149	   29.9122	
   13.0348	0.00119096	   13.1343	0.00119438	   13.0928	0.00120866	   13.0873	  0.001198	   13.0873	     29.95	
   12.9083	0.00119284	   13.0057	0.00119573	   12.9639	0.00120994	   12.9593	 0.0011995	   12.9593	   29.9876	
   12.7817	0.00119468	   12.8756	0.00119704	   12.8352	0.00121121	   12.8308	0.00120098	   12.8308	   30.0244	
   12.6539	0.00119643	   12.7454	0.00119833	   12.7057	0.00121248	   12.7017	0.00120241	   12.7017	   30.0603	
   12.5254	0.00119806	   12.6154	0.00119959	   12.5765	0.00121374	   12.5724	0.00120379	   12.5724	   30.0949	
   12.3966	0.00119954	   12.4847	0.00120081	   12.4478	0.00121497	    12.443	0.00120511	    12.443	   30.1277	
    12.268	0.00120087	   12.3543	  0.001202	   12.3179	0.00121615	   12.3134	0.00120634	   12.3134	   30.1585	
   12.1389	0.00120207	    12.224	0.00120317	   12.1875	0.00121726	   12.1835	 0.0012075	   12.1835	   30.1875	
   12.0094	0.00120316	   12.0932	0.00120432	   12.0569	0.00121829	   12.0532	0.00120859	   12.0532	   30.2147	
   11.8793	0.00120417	   11.9616	0.00120544	   11.9256	0.00121924	   11.9222	0.00120962	   11.9222	   30.2404	
   11.7482	0.00120515	   11.8296	0.00120654	   11.7943	 0.0012201	   11.7907	 0.0012106	   11.7907	   30.2649	
   11.6165	0.00120615	   11.6972	0.00120762	   11.6631	0.00122089	   11.6589	0.00121155	   11.6589	   30.2888	
    11.484	0.00120719	   11.5639	0.00120867	   11.5312	0.00122162	   11.5264	0.00121249	   11.5264	   30.3123	
   11.3511	0.00120829	   11.4303	0.00120967	   11.3991	0.00122231	   11.3935	0.00121343	   11.3935	   30.3356	
   11.2176	0.00120947	    11.297	0.00121064	    11.267	0.00122298	   11.2605	0.00121436	   11.2605	   30.3591	
   11.0838	 0.0012107	   11.1635	0.00121155	    11.134	0.00122364	   11.1271	 0.0012153	   11.1271	   30.3825	
   10.9498	0.00121197	   11.0307	 0.0012124	    11.001	0.00122433	   10.9938	0.00121623	   10.9938	   30.4058	
   10.8158	0.00121324	   10.8976	0.00121319	   10.8672	0.00122504	   10.8602	0.00121715	   10.8602	   30.4288	
   10.6813	0.00121447	   10.7641	0.00121391	   10.7338	0.00122578	   10.7264	0.00121805	   10.7264	   30.4513	
    10.547	0.00121563	   10.6298	0.00121457	   10.5998	0.00122654	   10.5922	0.00121891	   10.5922	   30.4728	
   10.4126	0.00121668	   10.4945	0.00121516	   10.4655	0.00122731	   10.4575	0.00121972	   10.4575	    30.493	
   10.2769	0.00121761	   10.3587	0.00121572	   10.3308	0.00122807	   10.3221	0.00122047	   10.3221	   30.5117	
   10.1403	 0.0012184	   10.2224	0.00121624	   10.1952	0.00122878	   10.1859	0.00122114	   10.1859	   30.5286	
   10.0041	0.00121907	    10.085	0.00121676	   10.0601	0.00122942	   10.0497	0.00122175	   10.0497	   30.5437	
   9.86724	0.00121962	   9.94798	0.00121728	   9.92459	0.00122996	   9.91327	0.00122229	   9.91327	   30.5572	
   9.72956	0.00122008	   9.81084	0.00121783	   9.78898	0.00123039	   9.77646	0.00122277	   9.77646	   30.5692	
    9.5915	0.00122048	   9.67253	0.00121841	     9.653	0.00123071	   9.63901	 0.0012232	   9.63901	     30.58	
    9.4528	0.00122085	   9.53404	  0.001219	   9.51685	0.00123091	   9.50123	0.00122359	   9.50123	   30.5897	
   9.31394	 0.0012212	   9.39462	 0.0012196	   9.38049	0.00123101	   9.36302	0.00122394	   9.36302	   30.5984	
   9.17437	0.00122155	   9.25451	0.00122019	   9.24339	0.00123103	   9.22409	0.00122426	   9.22409	   30.6065	
   9.03483	0.00122193	   9.11372	0.00122073	   9.10626	0.00123101	   9.08494	0.00122456	   9.08494	   30.6139	
   8.89502	0.00122233	   8.97274	0.00122121	   8.96833	0.00123095	   8.94536	0.00122483	   8.94536	   30.6208	
   8.75466	0.00122273	   8.83201	0.00122161	   8.82911	0.00123089	   8.80526	0.00122508	   8.80526	   30.6269	
     8.614	0.00122313	    8.6905	0.00122193	   8.68962	0.00123085	    8.6647	 0.0012253	    8.6647	   30.6325	
   8.47299	 0.0012235	    8.5487	0.00122214	   8.54982	0.00123082	   8.52384	0.00122549	   8.52384	   30.6372	
   8.33163	0.00122383	   8.40659	0.00122224	    8.4092	0.00123081	   8.38247	0.00122563	   8.38247	   30.6407	
    8.1894	0.00122409	   8.26366	0.00122225	   8.26849	0.00123082	   8.24051	0.00122572	   8.24051	    30.643	
   8.04681	0.00122429	   8.12042	0.00122218	   8.12669	0.00123081	   8.09797	0.00122576	   8.09797	   30.6441	
   7.90336	0.00122439	   7.97636	0.00122206	   7.98504	0.00123077	   7.95492	0.00122574	   7.95492	   30.6435	
    7.7598	0.00122437	   7.83223	 0.0012219	    7.8418	0.00123067	   7.81128	0.00122565	   7.81128	   30.6412	
   7.61585	0.00122426	   7.68776	0.00122173	   7.69872	 0.0012305	   7.66744	 0.0012255	   7.66744	   30.6374	
   7.47127	0.00122405	   7.54268	0.00122156	   7.55577	0.00123023	   7.52324	0.00122528	   7.52324	   30.6319	
    7.3263	0.00122372	   7.39774	0.00122139	   7.41239	0.00122981	   7.37881	0.00122498	   7.37881	   30.6244	
   7.18093	0.00122333	   7.25312	0.00122123	   7.26858	0.00122926	   7.23421	0.00122461	   7.23421	   30.6152	
   7.03421	0.00122291	   7.10853	0.00122107	   7.12434	0.00122858	   7.08903	0.00122419	   7.08903	   30.6047	
    6.8874	0.00122249	   6.96439	0.00122088	    6.9799	0.00122782	    6.9439	0.00122373	    6.9439	   30.5933	
   6.73976	0.00122209	   6.82064	0.00122066	    6.8345	0.00122698	    6.7983	0.00122325	    6.7983	   30.5812	
   6.59084	0.00122175	   6.67672	 0.0012204	   6.68772	0.00122611	   6.65176	0.00122275	   6.65176	   30.5688	
   6.44192	0.00122147	   6.53309	0.00122008	   6.54155	0.00122527	   6.50552	0.00122227	   6.50552	   30.5568	
   6.29226	0.00122122	    6.3892	0.00121966	   6.39495	0.00122447	    6.3588	0.00122178	    6.3588	   30.5446	
   6.14212	0.00122098	   6.24574	0.00121914	   6.24768	0.00122373	   6.21185	0.00122128	   6.21185	   30.5321	
   5.99176	0.00122072	   6.10145	0.00121855	   6.10047	0.00122304	   6.06456	0.00122077	   6.06456	   30.5192	
    5.8419	0.00122037	   5.95706	0.00121786	   5.95354	0.00122238	    5.9175	 0.0012202	    5.9175	   30.5051	
    5.6932	0.00121992	   5.81183	0.00121707	   5.80514	0.00122173	   5.77006	0.00121957	   5.77006	   30.4893	
   5.54579	0.00121932	    5.6653	0.00121624	   5.65658	0.00122104	   5.62256	0.00121887	   5.62256	   30.4717	
   5.39784	 0.0012186	   5.51899	0.00121539	   5.50759	0.00122023	   5.47481	0.00121807	   5.47481	   30.4518	
   5.24914	 0.0012177	   5.37308	0.00121453	   5.35866	0.00121928	   5.32696	0.00121717	   5.32696	   30.4292	
   5.10139	0.00121665	   5.22679	0.00121368	   5.20928	0.00121817	   5.17915	0.00121617	   5.17915	   30.4041	
   4.95377	0.00121548	   5.08108	0.00121286	   5.06018	0.00121686	   5.03168	0.00121507	   5.03168	   30.3767	
   4.80601	0.00121423	   4.93489	0.00121207	   4.91108	0.00121538	   4.88399	0.00121389	   4.88399	   30.3473	
   4.65904	0.00121293	   4.78825	0.00121129	   4.76195	0.00121377	   4.73641	0.00121266	   4.73641	   30.3165	
   4.51277	 0.0012116	    4.6421	0.00121053	   4.61301	0.00121207	    4.5893	 0.0012114	    4.5893	   30.2849	
   4.36568	0.00121027	   4.49543	0.00120973	   4.46398	0.00121033	   4.44169	0.00121011	   4.44169	   30.2527	
   4.21732	0.00120896	   4.34798	0.00120887	   4.31315	0.00120861	   4.29282	0.00120881	   4.29282	   30.2203	
   4.06967	0.00120766	   4.20052	0.00120791	   4.16281	0.00120697	   4.14434	0.00120751	   4.14434	   30.1878	
   3.92386	0.00120635	   4.05254	0.00120683	   4.01315	0.00120543	   3.99652	 0.0012062	   3.99652	   30.1551	
   3.77658	0.00120504	   3.90453	0.00120559	   3.86335	0.00120399	   3.84816	0.00120488	   3.84816	   30.1219	
   3.62841	0.00120373	   3.75622	 0.0012042	   3.71294	0.00120265	   3.69919	0.00120353	   3.69919	   30.0882	
   3.48033	0.00120238	   3.60737	0.00120266	   3.56243	0.00120136	   3.55004	0.00120213	   3.55004	   30.0533	
   3.33304	0.00120098	   3.45847	0.00120099	   3.41155	0.00120003	   3.40102	0.00120067	   3.40102	   30.0166	
   3.18331	0.00119952	   3.30999	0.00119922	    3.2608	0.00119864	   3.25137	0.00119913	   3.25137	   29.9782	
   3.03229	0.00119798	   3.16139	0.00119741	   3.11039	 0.0011971	   3.10136	 0.0011975	   3.10136	   29.9374	
   2.88294	0.00119635	    3.0112	0.00119557	   2.96027	0.00119536	   2.95147	0.00119576	   2.95147	    29.894	
    2.7351	0.00119463	   2.86098	0.00119374	   2.80991	 0.0011934	     2.802	0.00119392	     2.802	   29.8481	
    2.5867	0.00119283	   2.71094	0.00119196	   2.65932	0.00119121	   2.65232	  0.001192	   2.65232	   29.7999	
   2.43776	0.00119096	   2.56129	0.00119022	   2.50849	0.00118881	   2.50251	   0.00119	   2.50251	     29.75	
    2.2907	0.00118903	   2.41269	0.00118854	   2.35622	0.00118625	    2.3532	0.00118794	    2.3532	   29.6985	
   2.14438	0.00118705	   2.26336	0.00118688	   2.20429	0.00118359	   2.20401	0.00118584	   2.20401	    29.646	
   1.99559	0.00118503	    2.1138	0.00118522	   2.05193	 0.0011809	   2.05377	0.00118372	   2.05377	    29.593	
   1.84616	0.00118299	   1.96401	0.00118351	   1.89989	0.00117823	   1.90335	0.00118158	   1.90335	   29.5394	
   1.69831	0.00118093	   1.81423	0.00118172	   1.74836	0.00117565	   1.75363	0.00117943	   1.75363	   29.4858	
    1.5509	0.00117885	   1.66491	0.00117981	   1.59632	0.00117319	   1.60404	0.00117728	   1.60404	    29.432	
   1.40219	0.00117675	   1.51431	0.00117776	   1.44405	0.00117084	   1.45352	0.00117512	   1.45352	   29.3779	
   1.25274	0.00117462	   1.36371	0.00117555	   1.29153	 0.0011686	   1.30266	0.00117292	   1.30266	   29.3231	
   1.10306	0.00117246	   1.21286	0.00117318	   1.13974	0.00116643	   1.15188	0.00117069	   1.15188	   29.2672	
  0.953622	0.00117023	   1.06222	0.00117067	  0.988595	0.00116427	   1.00148	0.00116839	   1.00148	   29.2098	
  0.802469	0.00116794	  0.911285	0.00116805	  0.837075	0.00116205	  0.850276	0.00116601	  0.850276	   29.1503	
  0.651154	0.00116557	  0.760057	0.00116537	  0.685667	 0.0011597	  0.698959	0.00116355	  0.698959	   29.0886	
  0.500151	0.00116312	  0.609019	0.00116265	  0.534349	0.00115719	  0.547839	0.00116098	  0.547839	   29.0246	
  0.348456	 0.0011606	  0.458618	0.00115993	   0.38261	0.00115446	  0.396561	0.00115833	  0.396561	   28.9582	
  0.196109	0.00115803	  0.307822	0.00115723	  0.230948	 0.0011515	   0.24496	0.00115559	   0.24496	   28.8897	
 0.0433862	 0.0011554	  0.156404	0.00115459	  0.079102	0.00114834	 0.0929642	0.00115278	 0.0929642	   28.8194	
 -0.109218	0.00115274	0.00559464	0.00115198	-0.0724503	  0.001145	-0.0586911	0.00114991	-0.0586911	   28.7476	
 -0.261486	0.00115006	 -0.146595	0.00114939	 -0.223027	0.00114153	  -0.21037	  0.001147	  -0.21037	   28.6749	
 -0.414181	0.00114735	 -0.298633	0.00114681	 -0.374652	0.00113801	 -0.362489	0.00114406	 -0.362489	   28.6015	
 -0.566562	0.00114462	 -0.451508	 0.0011442	 -0.526297	 0.0011345	 -0.514789	0.00114111	 -0.514789	   28.5277	
 -0.718428	0.00114187	 -0.603964	0.00114152	 -0.677979	0.00113106	  -0.66679	0.00113815	  -0.66679	   28.4538	
 -0.870079	0.00113909	 -0.755809	0.00113875	  -0.82971	0.00112772	 -0.818533	0.00113518	 -0.818533	   28.3796	
  -1.02179	0.00113626	 -0.907827	0.00113586	 -0.980544	0.00112449	 -0.970053	 0.0011322	 -0.970053	   28.3051	
  -1.17381	 0.0011334	  -1.05978	0.00113283	  -1.13201	0.00112137	  -1.12187	 0.0011292	  -1.12187	   28.2299	
  -1.32565	0.00113046	   -1.2117	0.00112967	  -1.28312	0.00111831	  -1.27349	0.00112615	  -1.27349	   28.1537	
  -1.47735	0.00112744	  -1.36311	 0.0011264	  -1.43391	0.00111528	  -1.42479	0.00112304	  -1.42479	    28.076	
  -1.62941	0.00112434	  -1.51432	0.00112301	  -1.58492	0.00111221	  -1.57622	0.00111985	  -1.57622	   27.9963	
  -1.78037	0.00112114	   -1.6656	0.00111955	  -1.73519	0.00110904	  -1.72705	0.00111658	  -1.72705	   27.9144	
  -1.93155	0.00111785	  -1.81648	0.00111604	  -1.88551	0.00110572	  -1.87785	 0.0011132	  -1.87785	   27.8301	
  -2.08247	0.00111447	   -1.9687	0.00111251	  -2.03541	0.00110221	  -2.02886	0.00110973	  -2.02886	   27.7432	
   -2.2334	  0.001111	  -2.12096	0.00110898	  -2.18569	0.00109849	  -2.18002	0.00110616	  -2.18002	   27.6539	
  -2.38388	0.00110747	  -2.27208	0.00110547	  -2.33608	0.00109457	  -2.33068	 0.0011025	  -2.33068	   27.5626	
  -2.53398	0.00110388	  -2.42288	0.00110198	  -2.48684	0.00109048	  -2.48123	0.00109878	  -2.48123	   27.4696	
  -2.68349	0.00110026	  -2.57389	0.00109851	  -2.63749	0.00108626	  -2.63162	0.00109501	  -2.63162	   27.3752	
  -2.83274	0.00109662	  -2.72415	0.00109503	  -2.78805	0.00108196	  -2.78164	 0.0010912	  -2.78164	     27.28	
    -2.982	0.00109297	  -2.87518	0.00109152	  -2.93831	0.00107764	  -2.93183	0.00108738	  -2.93183	   27.1844	
  -3.13154	0.00108933	  -3.02503	0.00108795	  -3.08902	0.00107336	  -3.08187	0.00108355	  -3.08187	   27.0887	
  -3.27945	0.00108569	  -3.17548	0.00108429	  -3.23923	0.00106915	  -3.23139	0.00107971	  -3.23139	   26.9928	
  -3.42731	0.00108204	  -3.32579	0.00108053	  -3.38995	0.00106502	  -3.38102	0.00107586	  -3.38102	   26.8966	
  -3.57637	0.00107836	  -3.47503	0.00107664	  -3.54068	0.00106098	  -3.53069	0.00107199	  -3.53069	   26.7998	
   -3.7239	0.00107459	  -3.62499	0.00107261	  -3.69024	  0.001057	  -3.67971	0.00106807	  -3.67971	   26.7017	
  -3.87199	0.00107073	  -3.77444	0.00106845	  -3.83994	0.00105305	  -3.82879	0.00106408	  -3.82879	   26.6019	
  -4.01989	0.00106676	  -3.92368	0.00106419	  -3.98908	0.00104906	  -3.97755	   0.00106	  -3.97755	   26.5001	
  -4.16741	0.00106269	  -4.07299	0.00105983	  -4.13844	  0.001045	  -4.12628	0.00105584	  -4.12628	   26.3959	
  -4.31533	0.00105853	  -4.22191	0.00105541	  -4.28779	 0.0010408	  -4.27501	0.00105158	  -4.27501	   26.2895	
  -4.46292	0.00105431	   -4.3705	0.00105097	  -4.43644	0.00103643	  -4.42329	0.00104724	  -4.42329	   26.1809	
  -4.61073	0.00105007	  -4.51856	0.00104651	  -4.58494	0.00103189	  -4.57141	0.00104282	  -4.57141	   26.0706	
   -4.7578	0.00104579	  -4.66641	0.00104208	  -4.73334	0.00102716	  -4.71919	0.00103834	  -4.71919	   25.9586	
  -4.90494	0.00104154	  -4.81506	0.00103766	  -4.88071	0.00102228	  -4.86691	0.00103383	  -4.86691	   25.8456	
   -5.0529	0.00103729	  -4.96255	0.00103326	  -5.02765	0.00101727	  -5.01436	0.00102927	  -5.01436	   25.7318	
  -5.19996	0.00103302	  -5.10995	0.00102886	  -5.17493	0.00101219	  -5.16161	0.00102469	  -5.16161	   25.6173	
  -5.34718	0.00102874	  -5.25755	0.00102445	   -5.3228	0.00100707	  -5.30918	0.00102009	  -5.30918	   25.5022	
  -5.49434	0.00102443	  -5.40464	0.00101998	  -5.47029	0.00100197	  -5.45642	0.00101546	  -5.45642	   25.3865	
  -5.64004	0.00102004	  -5.55249	0.00101544	  -5.61673	0.000996924	  -5.60309	 0.0010108	  -5.60309	     25.27	
  -5.78587	0.00101553	  -5.70034	 0.0010108	  -5.76344	0.00099194	  -5.74988	0.00100609	  -5.74988	   25.1523	
  -5.93089	0.00101089	  -5.84799	0.00100605	  -5.91043	0.000987025	  -5.89644	0.00100132	  -5.89644	    25.033	
  -6.07568	 0.0010061	  -5.99524	0.00100118	  -6.05723	0.000982154	  -6.04272	0.000996479	  -6.04272	    24.912	
  -6.21958	0.00100117	  -6.14144	0.000996207	  -6.20413	0.000977296	  -6.18838	0.000991556	  -6.18838	   24.7889	
  -6.36342	0.00099612	   -6.2879	0.000991131	  -6.35043	0.000972414	  -6.33391	0.000986555	  -6.33391	   24.6639	
    -6.507	0.000990985	  -6.43391	0.000985977	  -6.49669	0.000967463	   -6.4792	0.000981475	   -6.4792	   24.5369	
   -6.6511	0.000985787	   -6.5793	0.000980767	  -6.64198	0.000962403	  -6.62413	0.000976319	  -6.62413	    24.408	
  -6.79478	0.000980577	   -6.7256	0.000975527	  -6.78643	0.000957204	  -6.76894	0.000971103	  -6.76894	   24.2776	
  -6.93833	0.00097539	  -6.87013	0.000970279	  -6.93181	0.00095185	  -6.91342	0.00096584	  -6.91342	    24.146	
  -7.08109	0.000970244	  -7.01427	0.000965033	  -7.07689	0.000946339	  -7.05742	0.000960539	  -7.05742	   24.0135	
  -7.22366	0.00096515	  -7.15736	0.000959798	  -7.22197	0.000940687	    -7.201	0.000955212	    -7.201	   23.8803	
  -7.36656	0.000960099	  -7.30026	0.000954565	  -7.36685	0.000934922	  -7.34456	0.000949862	  -7.34456	   23.7465	
  -7.50839	0.000955062	  -7.44206	0.000949317	  -7.51085	0.000929077	   -7.4871	0.000944485	   -7.4871	   23.6121	
  -7.64974	0.000950006	  -7.58385	0.000944034	  -7.65434	0.000923188	  -7.62931	0.000939076	  -7.62931	   23.4769	
   -7.7907	0.000944896	  -7.72593	0.00093869	  -7.79691	0.000917295	  -7.77118	0.000933627	  -7.77118	   23.3407	
  -7.93184	0.000939683	  -7.86808	0.000933262	  -7.93867	0.000911427	  -7.91286	0.000928124	  -7.91286	   23.2031	
  -8.07319	0.000934325	  -8.00961	0.000927736	  -8.08094	0.000905599	  -8.05458	0.000922553	  -8.05458	   23.0638	
  -8.21479	0.000928807	  -8.15087	0.000922108	  -8.22253	0.000899818	  -8.19606	0.000916911	  -8.19606	   22.9228	
  -8.35641	0.000923131	  -8.29072	0.000916379	   -8.3645	0.00089407	  -8.33721	0.000911193	  -8.33721	   22.7798	
  -8.49691	0.000917299	  -8.43173	0.000910563	  -8.50565	0.000888331	   -8.4781	0.000905398	   -8.4781	   22.6349	
   -8.6369	0.000911342	  -8.57218	0.000904686	  -8.64636	0.00088257	  -8.61848	0.000899532	  -8.61848	   22.4883	
   -8.7772	0.000905313	  -8.71216	0.000898771	  -8.78693	0.000876753	  -8.75877	0.000893612	  -8.75877	   22.3403	
   -8.9176	0.000899235	  -8.85224	0.000892839	  -8.92672	0.000870846	  -8.89885	0.00088764	  -8.89885	    22.191	
  -9.05741	0.000893145	  -8.99175	0.00088691	  -9.06703	0.000864819	  -9.03873	0.000881625	  -9.03873	   22.0406	
  -9.19699	0.000887092	  -9.13102	0.000880993	  -9.20716	0.000858661	  -9.17839	0.000875582	  -9.17839	   21.8896	
  -9.33519	0.000881097	   -9.2711	0.000875081	  -9.34622	0.000852371	   -9.3175	0.000869516	   -9.3175	   21.7379	
  -9.47291	0.000875154	  -9.41005	0.000869171	   -9.4853	0.00084596	  -9.45609	0.000863428	  -9.45609	   21.5857	
  -9.61073	0.000869256	  -9.54897	0.000863244	  -9.62398	0.000839456	  -9.59456	0.000857319	  -9.59456	    21.433	
  -9.74821	0.000863388	  -9.68792	0.000857269	  -9.76187	0.000832892	  -9.73266	0.000851183	  -9.73266	   21.2796	
   -9.8864	0.000857506	  -9.82599	0.000851225	  -9.90077	0.000826303	  -9.87105	0.000845011	  -9.87105	   21.1253	
  -10.0234	0.000851564	  -9.96428	0.000845104	  -10.0387	0.000819723	  -10.0088	0.000838797	  -10.0088	   20.9699	
  -10.1603	0.000845535	  -10.1014	0.00083888	  -10.1761	0.000813178	  -10.1459	0.000832531	  -10.1459	   20.8133	
  -10.2953	0.000839382	  -10.2379	0.00083254	  -10.3126	0.000806684	  -10.2819	0.000826202	  -10.2819	    20.655	
  -10.4304	0.000833077	  -10.3736	0.000826092	  -10.4487	0.000800242	  -10.4176	0.000819804	  -10.4176	   20.4951	
  -10.5659	0.000826618	  -10.5086	0.000819545	  -10.5853	0.000793842	  -10.5533	0.000813335	  -10.5533	   20.3334	
  -10.7011	0.000820014	  -10.6425	0.000812908	  -10.7208	0.00078746	  -10.6881	0.000806794	  -10.6881	   20.1699	
  -10.8358	0.000813279	  -10.7759	0.000806205	  -10.8567	0.000781064	  -10.8228	0.000800183	  -10.8228	   20.0046	
  -10.9704	0.000806454	  -10.9089	0.000799466	  -10.9916	0.000774619	   -10.957	0.000793513	   -10.957	   19.8378	
  -11.1037	0.00079958	  -11.0428	0.000792706	  -11.1247	0.000768093	  -11.0904	0.000786793	  -11.0904	   19.6698	
  -11.2373	0.000792697	   -11.176	0.000785939	  -11.2582	0.000761463	  -11.2238	0.000780033	  -11.2238	   19.5008	
   -11.371	0.000785839	  -11.3084	0.00077919	  -11.3913	0.000754716	  -11.3569	0.000773248	  -11.3569	   19.3312	
  -11.5043	0.000779041	  -11.4406	0.000772469	  -11.5237	0.000747849	  -11.4895	0.000766453	  -11.4895	   19.1613	
  -11.6376	0.000772312	  -11.5719	0.000765769	  -11.6553	0.00074089	  -11.6216	0.000759657	  -11.6216	   18.9914	
  -11.7698	0.000765644	  -11.7023	0.000759088	  -11.7862	0.000733876	  -11.7527	0.000752869	  -11.7527	   18.8217	
  -11.9022	0.000759025	  -11.8325	0.000752412	  -11.9171	0.000726825	  -11.8839	0.000746087	  -11.8839	   18.6522	
  -12.0335	0.000752425	  -11.9624	0.000745748	  -12.0472	0.000719745	  -12.0144	0.000739306	  -12.0144	   18.4827	
  -12.1647	 0.0007458	  -12.0929	0.000739053	   -12.177	0.000712665	  -12.1449	0.000732506	  -12.1449	   18.3126	
  -12.2956	0.000739114	  -12.2216	0.000732291	  -12.3076	0.000705586	  -12.2749	0.000725663	  -12.2749	   18.1416	
  -12.4256	0.000732332	  -12.3507	0.000725418	  -12.4375	0.000698505	  -12.4046	0.000718752	  -12.4046	   17.9688	
  -12.5553	0.000725423	  -12.4795	0.000718419	  -12.5666	0.000691403	  -12.5338	0.000711748	  -12.5338	   17.7937	
  -12.6849	0.000718376	  -12.6078	0.000711292	  -12.6954	0.00068427	  -12.6627	0.000704646	  -12.6627	   17.6162	
  -12.8141	0.000711196	  -12.7365	0.000704004	  -12.8226	0.000677096	  -12.7911	0.000697432	  -12.7911	   17.4358	
   -12.943	0.000703896	  -12.8645	0.000696565	  -12.9498	0.000669868	  -12.9191	0.000690109	  -12.9191	   17.2527	
  -13.0714	 0.0006965	  -12.9921	0.000689002	  -13.0756	0.000662577	  -13.0464	0.000682693	  -13.0464	   17.0673	
   -13.199	0.000689046	  -13.1198	0.000681352	  -13.2019	0.000655214	  -13.1736	0.000675204	  -13.1736	   16.8801	
  -13.3262	0.000681574	   -13.247	0.000673648	  -13.3271	0.000647766	  -13.3001	0.000667663	  -13.3001	   16.6916	
  -13.4527	0.000674116	  -13.3743	0.000665896	  -13.4512	0.000640258	  -13.4261	0.00066009	  -13.4261	   16.5023	
  -13.5785	0.000666707	  -13.5013	0.000658148	  -13.5761	0.000632715	   -13.552	0.000652523	   -13.552	   16.3131	
  -13.7036	0.000659365	  -13.6283	0.000650452	  -13.7006	0.000625152	  -13.6775	0.00064499	  -13.6775	   16.1247	
   -13.828	0.000652091	  -13.7539	0.000642837	  -13.8246	0.000617582	  -13.8022	0.000637504	  -13.8022	   15.9376	
  -13.9524	0.000644879	  -13.8788	0.000635334	  -13.9491	0.00061002	  -13.9268	0.000630078	  -13.9268	   15.7519	
  -14.0758	0.000637709	  -14.0031	0.000627928	  -14.0727	0.000602477	  -14.0505	0.000622705	  -14.0505	   15.5676	
  -14.1979	0.000630548	   -14.126	0.000620612	  -14.1946	0.000594962	  -14.1728	0.000615374	  -14.1728	   15.3844	
  -14.3194	0.00062336	  -14.2482	0.000613355	   -14.316	0.000587472	  -14.2945	0.000608062	  -14.2945	   15.2016	
  -14.4404	0.000616113	  -14.3692	0.000606109	  -14.4359	0.000579997	  -14.4152	0.00060074	  -14.4152	   15.0185	
  -14.5613	0.00060878	  -14.4887	0.000598824	  -14.5555	0.000572509	  -14.5352	0.000593371	  -14.5352	   14.8343	
  -14.6811	0.000601339	  -14.6081	0.00059144	  -14.6742	0.000564989	  -14.6544	0.000585923	  -14.6544	   14.6481	
  -14.8001	0.000593788	  -14.7268	0.000583921	  -14.7919	0.000557411	  -14.7729	0.000578373	  -14.7729	   14.4593	
  -14.9184	0.000586134	  -14.8447	0.000576246	  -14.9091	0.00054975	  -14.8907	0.00057071	  -14.8907	   14.2677	
  -15.0353	0.000578397	  -14.9628	0.000568397	  -15.0254	0.000541987	  -15.0078	0.000562927	  -15.0078	   14.0732	
  -15.1518	0.000570606	  -15.0804	0.000560375	  -15.1411	0.000534114	  -15.1244	0.000555032	  -15.1244	   13.8758	
  -15.2679	0.000562798	  -15.1975	0.000552203	  -15.2568	0.00052614	  -15.2407	0.000547047	  -15.2407	   13.6762	
  -15.3835	  0.000555	  -15.3135	0.000543931	  -15.3721	0.000518086	  -15.3564	0.000539006	  -15.3564	   13.4751	
  -15.4986	0.000547235	  -15.4283	0.000535615	  -15.4882	0.000509982	  -15.4717	0.000530944	  -15.4717	   13.2736	
  -15.6126	0.00053952	  -15.5425	0.000527308	  -15.6028	0.000501853	   -15.586	0.000522894	   -15.586	   13.0723	
  -15.7257	0.000531857	  -15.6557	0.000519062	   -15.716	0.000493731	  -15.6991	0.000514883	  -15.6991	   12.8721	
  -15.8382	0.000524236	  -15.7684	0.000510916	  -15.8291	0.000485635	  -15.8119	0.000506929	  -15.8119	   12.6732	
  -15.9493	0.00051664	  -15.8805	0.000502895	  -15.9413	0.000477584	  -15.9237	0.00049904	  -15.9237	    12.476	
  -16.0607	0.000509045	  -15.9915	0.000495003	  -16.0535	0.00046959	  -16.0352	0.000491213	  -16.0352	   12.2803	
  -16.1705	0.000501423	  -16.1018	0.000487222	   -16.165	0.000461655	  -16.1458	0.000483434	  -16.1458	   12.0858	
  -16.2794	0.000493749	  -16.2112	0.000479521	  -16.2753	0.000453766	  -16.2553	0.000475679	  -16.2553	    11.892	
  -16.3876	0.000486005	  -16.3199	0.000471851	  -16.3854	0.000445901	  -16.3643	0.000467919	  -16.3643	    11.698	
  -16.4952	0.000478175	  -16.4293	0.000464166	   -16.495	0.000438041	  -16.4732	0.000460128	  -16.4732	   11.5032	
  -16.6034	0.000470262	  -16.5373	0.000456425	  -16.6048	0.000430159	  -16.5818	0.000452282	  -16.5818	   11.3071	
  -16.7117	0.000462275	  -16.6447	0.000448589	  -16.7142	0.000422227	  -16.6902	0.000444363	  -16.6902	   11.1091	
    -16.82	0.000454232	  -16.7521	0.000440634	  -16.8226	0.000414226	  -16.7982	0.000436364	  -16.7982	   10.9091	
  -16.9277	0.000446156	  -16.8589	0.000432558	  -16.9308	0.000406161	  -16.9058	0.000428292	  -16.9058	   10.7073	
  -17.0345	0.000438074	  -16.9657	0.000424376	  -17.0377	0.000398019	  -17.0127	0.000420156	  -17.0127	   10.5039	
  -17.1405	0.000430008	  -17.0716	0.000416121	  -17.1444	0.000389802	  -17.1188	0.000411977	  -17.1188	   10.2994	
  -17.2458	0.000421977	  -17.1775	0.000407831	  -17.2499	0.000381527	  -17.2244	0.000403778	  -17.2244	   10.0945	
  -17.3501	0.000413987	  -17.2825	0.000399548	  -17.3551	 0.0003732	  -17.3292	0.000395579	  -17.3292	   9.88947	
   -17.454	0.000406042	  -17.3862	0.000391314	  -17.4601	0.000364849	  -17.4334	0.000387402	  -17.4334	   9.68504	
  -17.5574	0.00039813	  -17.4894	0.000383163	  -17.5642	0.000356499	   -17.537	0.000379264	   -17.537	    9.4816	
  -17.6597	0.000390242	  -17.5916	0.000375111	  -17.6668	0.000348177	  -17.6394	0.000371177	  -17.6394	   9.27942	
  -17.7606	0.00038236	  -17.6937	0.000367159	   -17.769	0.000339903	  -17.7411	0.00036314	  -17.7411	   9.07851	
  -17.8608	0.000374462	   -17.795	0.000359296	    -17.87	0.000331683	  -17.8419	0.000355147	  -17.8419	   8.87868	
  -17.9604	0.000366522	  -17.8958	0.000351501	    -17.97	0.000323562	  -17.9421	0.000347195	  -17.9421	   8.67987	
  -18.0588	0.000358524	  -17.9959	0.000343741	  -18.0691	0.000315569	  -18.0413	0.000339278	  -18.0413	   8.48195	
  -18.1565	0.000350503	  -18.0951	0.000335976	  -18.1678	0.000307648	  -18.1398	0.000331376	  -18.1398	   8.28439	
  -18.2535	0.000342451	  -18.1939	0.000328166	  -18.2653	0.000299722	  -18.2376	0.000323446	  -18.2376	   8.08616	
  -18.3486	0.000334329	  -18.2928	0.000320282	  -18.3604	0.000291774	  -18.3339	0.000315462	  -18.3339	   7.88654	
   -18.443	0.000326214	  -18.3907	 0.0003123	  -18.4536	0.00028375	  -18.4291	0.000307421	  -18.4291	   7.68554	
  -18.5359	0.000318114	  -18.4875	0.000304213	   -18.542	0.000275586	  -18.5218	0.000299305	  -18.5218	   7.48261	
  -18.6272	0.000310001	  -18.5838	0.000296028	  -18.6284	0.00026725	  -18.6131	0.000291093	  -18.6131	   7.27732	
  -18.7167	0.000301863	  -18.6791	0.000287765	  -18.7173	0.000258732	  -18.7044	0.000282787	  -18.7044	   7.06966	
  -18.8053	0.000293715	  -18.7741	0.000279454	  -18.8059	0.00025005	  -18.7951	0.000274407	  -18.7951	   6.86016	
  -18.8946	0.000285542	  -18.8683	0.000271114	  -18.8913	0.000241241	  -18.8847	0.000265966	  -18.8847	   6.64914	
  -18.9815	0.000277324	  -18.9612	0.000262726	  -18.9762	0.000232363	   -18.973	0.000257471	   -18.973	   6.43678	
  -19.0665	0.000269076	  -19.0536	0.000254366	  -19.0656	0.000223475	  -19.0619	0.000248972	  -19.0619	    6.2243	
  -19.1539	0.000260785	   -19.144	0.000246097	  -19.1594	0.000214632	  -19.1524	0.000240504	  -19.1524	   6.01261	
  -19.2426	0.000252446	  -19.2339	0.000237916	  -19.2508	0.000205921	  -19.2424	0.000232094	  -19.2424	   5.80236	
  -19.3298	0.000244104	  -19.3229	0.000229844	  -19.3402	0.000197415	   -19.331	0.000223787	   -19.331	   5.59469	
  -19.4156	0.000235793	  -19.4108	0.000221894	  -19.4323	0.000189112	  -19.4196	 0.0002156	  -19.4196	      5.39	
  -19.5017	0.000227518	  -19.4989	0.000214083	  -19.5269	0.000181003	  -19.5092	0.000207535	  -19.5092	   5.18837	
  -19.5907	0.000219308	   -19.586	0.000206383	  -19.6202	0.000173055	   -19.599	0.000199582	   -19.599	   4.98955	
  -19.6786	0.000211191	  -19.6713	0.000198752	  -19.7118	0.00016523	  -19.6872	0.000191725	  -19.6872	   4.79312	
  -19.7648	0.000203176	  -19.7554	0.00019115	  -19.8032	0.000157462	  -19.7745	0.000183929	  -19.7745	   4.59824	
   -19.851	0.000195249	  -19.8388	0.000183508	  -19.8939	0.000149668	  -19.8612	0.000176142	  -19.8612	   4.40354	
  -19.9371	0.000187397	   -19.922	0.00017579	  -19.9826	0.000141767	  -19.9472	0.000168318	  -19.9472	   4.20796	
   -20.022	0.000179583	  -20.0049	0.000167982	  -20.0701	0.000133692	  -20.0323	0.000160419	  -20.0323	   4.01048	
  -20.1041	0.000171756	  -20.0871	0.000160036	   -20.157	0.000125416	  -20.1161	0.000152403	  -20.1161	   3.81007	
  -20.1851	0.000163898	   -20.169	0.000151916	  -20.2429	0.00011694	   -20.199	0.000144251	   -20.199	   3.60629	
  -20.2652	0.000155972	  -20.2491	0.000143637	   -20.327	0.000108282	  -20.2804	0.000135964	  -20.2804	   3.39909	
  -20.3439	0.000147942	  -20.3285	0.000135235	  -20.4098	9.94896e-05	  -20.3608	0.000127556	  -20.3608	   3.18889	
  -20.4215	0.000139803	  -20.4081	0.000126753	  -20.4913	9.06384e-05	  -20.4403	0.000119065	  -20.4403	   2.97662	
  -20.4983	0.000131572	  -20.4865	0.000118235	  -20.5717	8.18052e-05	  -20.5188	0.000110537	  -20.5188	   2.76343	
  -20.5744	0.000123265	  -20.5639	0.000109736	  -20.6498	7.30943e-05	   -20.596	0.000102032	   -20.596	   2.55079	
  -20.6499	0.00011491	  -20.6403	0.000101311	  -20.7269	6.45586e-05	  -20.6724	9.35931e-05	  -20.6724	   2.33983	
  -20.7235	0.000106561	  -20.7162	9.30085e-05	  -20.8059	5.62029e-05	  -20.7485	8.52575e-05	  -20.7485	   2.13144	
  -20.7972	9.82586e-05	  -20.7912	8.4863e-05	  -20.8838	4.80542e-05	  -20.8241	7.70586e-05	  -20.8241	   1.92646	
  -20.8709	9.0034e-05	  -20.8653	7.68655e-05	  -20.9602	4.01007e-05	  -20.8988	6.90001e-05	  -20.8988	     1.725	
  -20.9438	8.1924e-05	  -20.9382	6.89952e-05	  -21.0344	3.22818e-05	  -20.9721	6.1067e-05	  -20.9721	   1.52668	
   -21.017	7.39447e-05	  -21.0099	6.12268e-05	  -21.1082	2.45122e-05	   -21.045	5.32279e-05	   -21.045	    1.3307	
  -21.0897	6.60865e-05	  -21.0809	5.35181e-05	  -21.1822	1.67277e-05	  -21.1176	4.54441e-05	  -21.1176	    1.1361	
  -21.1623	5.83306e-05	  -21.1519	4.58111e-05	  -21.2549	8.86115e-06	  -21.1897	3.76676e-05	  -21.1897	  0.941691	
  -21.2339	5.06512e-05	  -21.2211	3.80537e-05	  -21.3268	8.4927e-07	  -21.2606	2.98514e-05	  -21.2606	  0.746285	
  -21.3037	4.3004e-05	  -21.2899	3.02036e-05	  -21.3971	-7.33446e-06	  -21.3302	2.19577e-05	  -21.3302	  0.548942	
  -21.3731	3.53448e-05	  -21.3574	2.22343e-05	   -21.467	-1.56933e-05	  -21.3991	1.39619e-05	  -21.3991	  0.349049	
  -21.4413	2.76442e-05	  -21.4242	1.41456e-05	  -21.5365	-2.42098e-05	  -21.4673	5.85998e-06	  -21.4673	    0.1465	
  -21.5073	1.98729e-05	  -21.4917	5.9563e-06	  -21.6038	-3.28239e-05	  -21.5343	-2.33157e-06	  -21.5343	-0.0582893	
  -21.5725	1.20111e-05	  -21.5581	-2.31019e-06	  -21.6701	-4.14544e-05	  -21.6002	-1.05845e-05	  -21.6002	 -0.264612	
  -21.6375	4.06292e-06	   -21.624	-1.06139e-05	  -21.7353	-5.00343e-05	  -21.6656	-1.88618e-05	  -21.6656	 -0.471544	
  -21.7009	-3.9581e-06	   -21.689	-1.88991e-05	  -21.7993	-5.84972e-05	  -21.7298	-2.71181e-05	  -21.7298	 -0.677953	
  -21.7639	-1.20296e-05	  -21.7526	-2.71214e-05	  -21.8621	-6.67805e-05	  -21.7929	-3.53105e-05	  -21.7929	 -0.882762	
  -21.8255	-2.01154e-05	   -21.816	-3.5253e-05	  -21.9237	-7.48489e-05	  -21.8551	-4.34058e-05	  -21.8551	  -1.08514	
  -21.8861	-2.81775e-05	  -21.8776	-4.32735e-05	  -21.9842	-8.27086e-05	   -21.916	-5.13865e-05	   -21.916	  -1.28466	
  -21.9453	-3.6184e-05	  -21.9382	-5.11762e-05	  -22.0446	-9.03814e-05	   -21.976	-5.92472e-05	   -21.976	  -1.48118	
  -22.0038	-4.41122e-05	  -21.9988	-5.89733e-05	  -22.1037	-9.79186e-05	  -22.0354	-6.70014e-05	  -22.0354	  -1.67503	
  -22.0627	-5.19444e-05	  -22.0588	-6.66917e-05	  -22.1624	-0.000105396	  -22.0946	-7.46775e-05	  -22.0946	  -1.86694	
  -22.1207	-5.96762e-05	  -22.1184	-7.4367e-05	  -22.2201	-0.000112884	  -22.1531	-8.23091e-05	  -22.1531	  -2.05773	
   -22.178	-6.73206e-05	  -22.1771	-8.20437e-05	  -22.2765	-0.000120453	  -22.2106	-8.99392e-05	  -22.2106	  -2.24848	
  -22.2347	-7.48958e-05	  -22.2353	-8.97583e-05	  -22.3326	-0.000128168	  -22.2675	-9.76075e-05	  -22.2675	  -2.44019	
  -22.2905	-8.2429e-05	   -22.293	-9.7538e-05	  -22.3865	-0.000136069	  -22.3233	-0.000105345	  -22.3233	  -2.63363	
  -22.3458	-8.99583e-05	  -22.3493	-0.000105402	  -22.4399	-0.000144161	  -22.3784	-0.000113174	  -22.3784	  -2.82935	
  -22.4001	-9.75159e-05	  -22.4036	-0.000113354	   -22.491	-0.000152422	  -22.4316	-0.000121097	  -22.4316	  -3.02744	
  -22.4531	-0.000105129	  -22.4572	-0.000121382	  -22.5413	-0.000160809	  -22.4839	-0.000129107	  -22.4839	  -3.22766	
   -22.505	-0.000112816	  -22.5097	-0.00012946	   -22.591	-0.000169254	  -22.5352	-0.000137177	  -22.5352	  -3.42942	
  -22.5563	-0.000120583	  -22.5622	-0.000137558	  -22.6396	-0.000177678	   -22.586	-0.000145273	   -22.586	  -3.63183	
  -22.6071	-0.000128421	  -22.6138	-0.000145637	  -22.6873	-0.000186007	  -22.6361	-0.000153355	  -22.6361	  -3.83388	
  -22.6572	-0.00013631	  -22.6644	-0.000153663	  -22.7339	-0.000194175	  -22.6852	-0.000161383	  -22.6852	  -4.03457	
  -22.7061	-0.000144225	  -22.7145	-0.000161604	  -22.7796	-0.00020214	  -22.7334	-0.000169323	  -22.7334	  -4.23307	
  -22.7547	-0.000152129	  -22.7625	-0.000169439	  -22.8254	-0.000209887	  -22.7809	-0.000177152	  -22.7809	  -4.42879	
  -22.8016	-0.000159989	  -22.8091	-0.000177165	    -22.87	-0.000217432	  -22.8269	-0.000184862	  -22.8269	  -4.62155	
  -22.8473	-0.000167778	  -22.8551	-0.000184776	  -22.9145	-0.000224811	  -22.8723	-0.000192455	  -22.8723	  -4.81139	
  -22.8922	-0.000175475	  -22.8994	-0.000192281	  -22.9582	-0.000232083	  -22.9166	-0.000199946	  -22.9166	  -4.99866	
  -22.9366	-0.000183072	  -22.9445	-0.000199716	  -23.0002	-0.000239324	  -22.9604	-0.00020737	  -22.9604	  -5.18426	
  -22.9804	-0.000190574	  -22.9887	-0.000207132	   -23.042	-0.000246606	  -23.0037	-0.00021477	  -23.0037	  -5.36926	
  -23.0235	-0.000197981	  -23.0314	-0.000214528	  -23.0827	-0.00025399	  -23.0459	-0.000222166	  -23.0459	  -5.55415	
  -23.0651	-0.000205286	   -23.074	-0.000221949	   -23.123	-0.000261519	  -23.0874	-0.000229584	  -23.0874	  -5.73961	
   -23.106	-0.000212539	  -23.1144	-0.000229441	  -23.1622	-0.000269204	  -23.1275	-0.000237061	  -23.1275	  -5.92653	
  -23.1446	-0.000219799	  -23.1539	-0.00023702	  -23.2008	-0.000277033	  -23.1664	-0.000244617	  -23.1664	  -6.11543	
  -23.1829	-0.000227091	  -23.1913	-0.000244685	  -23.2387	-0.000284973	  -23.2043	-0.00025225	  -23.2043	  -6.30624	
  -23.2203	-0.00023445	  -23.2276	-0.000252433	  -23.2759	-0.000292966	  -23.2413	-0.00025995	  -23.2413	  -6.49874	
  -23.2569	-0.000241893	  -23.2639	-0.000260246	  -23.3112	-0.000300944	  -23.2773	-0.000267694	  -23.2773	  -6.69235	
  -23.2932	-0.000249445	  -23.2989	-0.000268082	  -23.3465	-0.000308837	  -23.3129	-0.000275454	  -23.3129	  -6.88636	
  -23.3279	-0.000257091	  -23.3333	-0.000275912	  -23.3804	-0.000316588	  -23.3472	-0.000283197	  -23.3472	  -7.07992	
  -23.3617	-0.000264803	  -23.3664	-0.00028368	  -23.4128	-0.000324155	  -23.3803	-0.000290879	  -23.3803	  -7.27198	
  -23.3944	-0.000272549	  -23.3991	-0.000291304	  -23.4438	-0.000331528	  -23.4124	-0.00029846	  -23.4124	  -7.46151	
  -23.4255	-0.000280278	  -23.4309	-0.00029878	  -23.4742	-0.000338665	  -23.4435	-0.000305908	  -23.4435	   -7.6477	
  -23.4556	-0.000287951	  -23.4613	-0.000306121	  -23.5039	-0.000345596	  -23.4736	-0.000313223	  -23.4736	  -7.83057	
  -23.4837	-0.000295537	   -23.491	-0.000313325	  -23.5321	-0.000352424	  -23.5022	-0.000320429	  -23.5022	  -8.01071	
  -23.5115	-0.000302992	  -23.5199	-0.00032042	  -23.5588	-0.000359192	  -23.5301	-0.000327535	  -23.5301	  -8.18837	
  -23.5387	-0.000310293	   -23.548	-0.000327453	   -23.584	-0.000365945	  -23.5569	-0.000334563	  -23.5569	  -8.36409	
  -23.5648	-0.00031745	  -23.5762	-0.000334494	  -23.6078	-0.000372768	  -23.5829	-0.000341571	  -23.5829	  -8.53927	
  -23.5909	-0.000324485	  -23.6028	-0.000341591	  -23.6288	-0.00037975	  -23.6075	-0.000348609	  -23.6075	  -8.71522	
  -23.6157	-0.000331433	  -23.6287	-0.000348786	    -23.65	-0.000386908	  -23.6315	-0.000355709	  -23.6315	  -8.89272	
  -23.6395	-0.000338327	  -23.6532	-0.000356104	  -23.6708	-0.000394253	  -23.6545	-0.000362895	  -23.6545	  -9.07237	
  -23.6621	-0.000345214	  -23.6762	-0.000363533	  -23.6911	-0.000401785	  -23.6764	-0.000370177	  -23.6764	  -9.25444	
  -23.6843	-0.000352127	  -23.6985	-0.000371063	  -23.7078	-0.000409453	  -23.6969	-0.000377548	  -23.6969	  -9.43869	
  -23.7054	-0.000359129	  -23.7199	-0.000378669	  -23.7248	-0.000417184	  -23.7167	-0.000384994	  -23.7167	  -9.62485	
  -23.7254	-0.000366245	  -23.7399	-0.000386283	  -23.7435	-0.000424923	  -23.7362	-0.000392484	  -23.7362	  -9.81209	
  -23.7443	-0.000373448	   -23.759	-0.000393829	  -23.7622	-0.00043257	  -23.7551	-0.000399949	  -23.7551	  -9.99872	
  -23.7628	-0.000380736	   -23.776	-0.000401258	  -23.7787	-0.000440018	  -23.7725	-0.000407338	  -23.7725	  -10.1834	
  -23.7798	-0.000388098	  -23.7918	-0.000408533	  -23.7949	-0.000447218	  -23.7888	-0.000414616	  -23.7888	  -10.3654	
  -23.7957	-0.000395473	  -23.8065	-0.000415624	  -23.8148	-0.000454142	  -23.8057	-0.000421746	  -23.8057	  -10.5437	
  -23.8107	-0.000402794	  -23.8204	-0.000422532	  -23.8358	-0.000460774	  -23.8223	-0.0004287	  -23.8223	  -10.7175	
   -23.824	-0.000410027	   -23.834	-0.000429274	  -23.8543	-0.000467123	  -23.8374	-0.000435475	  -23.8374	  -10.8869	
  -23.8368	-0.000417127	  -23.8469	-0.00043589	  -23.8715	-0.000473266	  -23.8517	-0.000442094	  -23.8517	  -11.0524	
  -23.8488	-0.000424059	  -23.8594	-0.000442437	  -23.8899	-0.000479293	   -23.866	-0.000448596	   -23.866	  -11.2149	
    -23.86	-0.000430819	    -23.87	-0.00044898	  -23.9072	-0.000485314	  -23.8791	-0.000455038	  -23.8791	  -11.3759	
  -23.8699	-0.000437431	  -23.8797	-0.000455564	  -23.9227	-0.000491455	  -23.8908	-0.000461483	  -23.8908	  -11.5371	
  -23.8783	-0.000443916	  -23.8897	-0.000462224	  -23.9351	-0.0004978	  -23.9011	-0.00046798	  -23.9011	  -11.6995	
  -23.8851	-0.000450334	  -23.8983	-0.000468991	   -23.947	-0.000504408	  -23.9101	-0.000474578	  -23.9101	  -11.8644	
  -23.8913	-0.000456759	  -23.9067	-0.000475871	  -23.9566	-0.000511312	  -23.9182	-0.000481314	  -23.9182	  -12.0329	
  -23.8975	-0.000463236	   -23.914	-0.000482847	  -23.9645	-0.000518493	  -23.9253	-0.000488192	  -23.9253	  -12.2048	
  -23.9039	-0.000469811	  -23.9198	-0.000489881	  -23.9703	-0.000525875	  -23.9313	-0.000495189	  -23.9313	  -12.3797	
  -23.9092	-0.000476514	  -23.9253	-0.000496928	  -23.9751	-0.000533355	  -23.9365	-0.000502266	  -23.9365	  -12.5566	
  -23.9126	-0.00048335	  -23.9292	-0.000503943	  -23.9789	-0.000540825	  -23.9402	-0.000509373	  -23.9402	  -12.7343	
  -23.9151	-0.0004903	  -23.9325	-0.000510879	  -23.9817	-0.00054817	  -23.9431	-0.00051645	  -23.9431	  -12.9112	
  -23.9173	-0.00049733	  -23.9351	-0.000517706	  -23.9837	-0.000555288	  -23.9454	-0.000523441	  -23.9454	   -13.086	
  -23.9187	-0.000504388	  -23.9367	-0.000524397	  -23.9853	-0.000562091	  -23.9469	-0.000530292	  -23.9469	  -13.2573	
  -23.9192	-0.000511405	   -23.937	-0.000530941	  -23.9853	-0.000568544	  -23.9472	-0.000536963	  -23.9472	  -13.4241	
  -23.9188	-0.000518329	  -23.9362	-0.000537351	  -23.9833	-0.000574658	  -23.9461	-0.000543446	  -23.9461	  -13.5861	
  -23.9183	-0.000525117	  -23.9345	-0.000543654	  -23.9812	-0.000580489	  -23.9447	-0.000549753	  -23.9447	  -13.7438	
  -23.9171	-0.000531733	  -23.9326	-0.000549876	  -23.9786	-0.000586135	  -23.9428	-0.000555915	  -23.9428	  -13.8979	
  -23.9143	-0.000538165	    -23.93	-0.000556045	  -23.9746	-0.00059169	  -23.9396	-0.000561967	  -23.9396	  -14.0492	
  -23.9102	-0.000544431	  -23.9258	-0.000562214	  -23.9688	-0.000597269	   -23.935	-0.000567971	   -23.935	  -14.1993	
  -23.9054	-0.000550567	  -23.9211	-0.000568419	  -23.9624	-0.00060298	  -23.9296	-0.000573989	  -23.9296	  -14.3497	
  -23.8994	-0.000556616	  -23.9149	-0.000574681	  -23.9551	-0.000608898	  -23.9232	-0.000580065	  -23.9232	  -14.5016	
  -23.8929	-0.000562638	   -23.908	-0.000581011	  -23.9474	-0.000615068	  -23.9161	-0.000586239	  -23.9161	   -14.656	
  -23.8854	-0.000568688	  -23.8998	-0.000587415	  -23.9389	-0.000621489	  -23.9081	-0.000592531	  -23.9081	  -14.8133	
  -23.8775	-0.000574811	  -23.8906	-0.000593878	  -23.9287	-0.000628131	  -23.8989	-0.00059894	  -23.8989	  -14.9735	
  -23.8681	-0.000581044	  -23.8811	-0.000600367	  -23.9173	-0.000634919	  -23.8888	-0.000605443	  -23.8888	  -15.1361	
   -23.858	-0.000587405	  -23.8707	-0.000606854	  -23.9064	-0.000641769	  -23.8783	-0.000612009	  -23.8783	  -15.3002	
  -23.8473	-0.000593881	  -23.8594	-0.000613312	  -23.8944	-0.000648579	   -23.867	-0.000618591	   -23.867	  -15.4648	
  -23.8354	-0.000600447	  -23.8468	-0.000619695	  -23.8815	-0.000655256	  -23.8545	-0.000625133	  -23.8545	  -15.6283	
  -23.8231	-0.000607062	  -23.8325	-0.000625982	  -23.8678	-0.000661723	  -23.8411	-0.000631589	  -23.8411	  -15.7897	
   -23.809	-0.000613671	  -23.8186	-0.000632169	  -23.8527	-0.00066794	  -23.8268	-0.000637927	  -23.8268	  -15.9482	
  -23.7948	-0.000620216	  -23.8034	-0.000638252	  -23.8371	-0.000673897	  -23.8118	-0.000644122	  -23.8118	   -16.103	
  -23.7791	-0.000626652	  -23.7872	-0.000644238	  -23.8203	-0.000679615	  -23.7955	-0.000650168	  -23.7955	  -16.2542	
  -23.7625	-0.00063294	  -23.7708	-0.000650156	  -23.8022	-0.000685139	  -23.7785	-0.000656078	  -23.7785	   -16.402	
  -23.7455	-0.000639059	   -23.753	-0.000656037	   -23.784	-0.000690549	  -23.7608	-0.000661882	  -23.7608	   -16.547	
  -23.7277	-0.000645014	  -23.7348	-0.000661907	  -23.7648	-0.000695933	  -23.7424	-0.000667618	  -23.7424	  -16.6904	
  -23.7096	-0.00065083	  -23.7154	-0.000667789	  -23.7456	-0.000701372	  -23.7236	-0.000673331	  -23.7236	  -16.8333	
  -23.6892	-0.000656547	  -23.6949	-0.000673704	  -23.7258	-0.000706946	  -23.7033	-0.000679066	  -23.7033	  -16.9766	
   -23.668	-0.000662212	   -23.674	-0.000679656	  -23.7053	-0.000712695	  -23.6824	-0.000684854	  -23.6824	  -17.1214	
  -23.6463	-0.00066788	  -23.6522	-0.000685643	  -23.6836	-0.000718637	  -23.6607	-0.00069072	  -23.6607	   -17.268	
  -23.6236	-0.000673598	  -23.6301	-0.000691657	   -23.661	-0.000724754	  -23.6382	-0.00069667	  -23.6382	  -17.4167	
  -23.5998	-0.000679397	   -23.606	-0.000697674	  -23.6376	 -0.000731	  -23.6145	-0.00070269	  -23.6145	  -17.5673	
  -23.5754	-0.000685296	  -23.5806	-0.000703669	  -23.6131	-0.000737307	  -23.5897	-0.000708757	  -23.5897	  -17.7189	
  -23.5495	-0.000691293	  -23.5542	-0.000709617	  -23.5873	-0.000743593	  -23.5637	-0.000714834	  -23.5637	  -17.8709	
  -23.5228	-0.000697366	  -23.5264	-0.000715503	  -23.5607	-0.000749783	  -23.5366	-0.000720884	  -23.5366	  -18.0221	
  -23.4949	-0.000703481	   -23.498	-0.000721311	  -23.5332	-0.000755806	  -23.5087	-0.000726866	  -23.5087	  -18.1716	
  -23.4656	-0.000709591	  -23.4693	-0.000727034	  -23.5043	-0.000761615	  -23.4797	-0.000732747	  -23.4797	  -18.3187	
  -23.4355	-0.000715649	  -23.4397	-0.000732682	  -23.4747	-0.000767189	    -23.45	-0.000738507	    -23.45	  -18.4627	
  -23.4033	-0.000721607	  -23.4098	-0.000738262	  -23.4441	-0.000772533	  -23.4191	-0.000744134	  -23.4191	  -18.6034	
  -23.3708	-0.000727439	  -23.3787	-0.000743795	  -23.4115	-0.000777686	   -23.387	-0.00074964	   -23.387	   -18.741	
  -23.3374	-0.000733127	  -23.3463	-0.000749304	   -23.379	-0.000782709	  -23.3542	-0.000755047	  -23.3542	  -18.8762	
  -23.3034	-0.000738669	  -23.3135	-0.000754812	  -23.3448	-0.000787671	  -23.3206	-0.000760384	  -23.3206	  -19.0096	
  -23.2687	-0.000744088	  -23.2783	-0.000760333	  -23.3103	-0.000792646	  -23.2858	-0.000765689	  -23.2858	  -19.1422	
  -23.2329	-0.00074942	  -23.2432	-0.000765883	  -23.2746	-0.000797704	  -23.2502	-0.000771002	  -23.2502	  -19.2751	
  -23.1968	-0.000754697	  -23.2067	-0.000771464	  -23.2381	-0.000802899	  -23.2139	-0.000776353	  -23.2139	  -19.4088	
  -23.1593	-0.000759969	  -23.1692	-0.000777066	  -23.2004	-0.000808257	  -23.1763	-0.000781764	  -23.1763	  -19.5441	
  -23.1198	-0.000765277	  -23.1315	-0.000782675	  -23.1615	-0.000813772	  -23.1376	-0.000787242	  -23.1376	   -19.681	
  -23.0794	-0.000770649	  -23.0925	-0.000788272	  -23.1222	-0.000819418	   -23.098	-0.000792779	   -23.098	  -19.8195	
  -23.0381	-0.000776104	  -23.0523	-0.000793834	  -23.0814	-0.000825134	  -23.0573	-0.000798358	  -23.0573	  -19.9589	
  -22.9962	-0.000781637	  -23.0118	-0.000799344	  -23.0402	-0.00083085	  -23.0161	-0.000803944	  -23.0161	  -20.0986	
  -22.9534	-0.000787234	  -22.9702	-0.000804783	  -22.9986	-0.000836498	  -22.9741	-0.000809505	  -22.9741	  -20.2376	
  -22.9097	-0.000792864	  -22.9278	-0.000810141	  -22.9554	-0.000842012	   -22.931	-0.000815006	   -22.931	  -20.3751	
  -22.8651	-0.000798493	  -22.8843	-0.000815414	  -22.9113	-0.000847348	  -22.8869	-0.000820418	  -22.8869	  -20.5105	
  -22.8199	-0.00080408	  -22.8398	-0.000820611	   -22.866	-0.000852481	  -22.8419	-0.000825724	  -22.8419	  -20.6431	
  -22.7728	-0.000809585	  -22.7945	-0.000825743	  -22.8203	-0.000857416	  -22.7959	-0.000830915	  -22.7959	  -20.7729	
  -22.7262	-0.000814978	  -22.7471	-0.000830827	  -22.7739	-0.000862182	  -22.7491	-0.000835996	  -22.7491	  -20.8999	
  -22.6792	-0.000820243	  -22.6991	-0.000835884	  -22.7264	-0.000866828	  -22.7015	-0.000840985	  -22.7015	  -21.0246	
  -22.6315	-0.000825375	  -22.6509	-0.000840934	  -22.6778	-0.000871418	  -22.6534	-0.000845909	  -22.6534	  -21.1477	
  -22.5827	-0.000830384	  -22.6024	-0.000845991	  -22.6282	-0.000876014	  -22.6045	-0.000850796	  -22.6045	  -21.2699	
  -22.5324	-0.000835296	  -22.5534	-0.000851065	  -22.5773	-0.000880674	  -22.5544	-0.000855678	  -22.5544	   -21.392	
  -22.4821	-0.000840146	  -22.5034	-0.000856154	  -22.5261	-0.000885445	  -22.5039	-0.000860582	  -22.5039	  -21.5145	
  -22.4309	-0.000844971	  -22.4522	-0.000861254	  -22.4739	-0.000890342	  -22.4524	-0.000865522	  -22.4524	  -21.6381	
  -22.3788	-0.000849804	  -22.3998	-0.00086635	  -22.4219	-0.000895361	  -22.4002	-0.000870505	  -22.4002	  -21.7626	
  -22.3257	-0.000854674	  -22.3456	-0.000871425	  -22.3689	-0.000900475	  -22.3467	-0.000875525	  -22.3467	  -21.8881	
  -22.2714	-0.000859589	  -22.2908	-0.000876462	  -22.3142	-0.000905639	  -22.2921	-0.000880563	  -22.2921	  -22.0141	
  -22.2161	-0.000864554	  -22.2348	-0.000881438	  -22.2596	-0.000910792	  -22.2368	-0.000885595	  -22.2368	  -22.1399	
  -22.1602	-0.000869568	  -22.1786	-0.00088634	  -22.2037	-0.000915873	  -22.1809	-0.000890593	  -22.1809	  -22.2648	
  -22.1038	-0.000874608	  -22.1217	-0.000891157	  -22.1464	-0.000920828	   -22.124	-0.000895531	   -22.124	  -22.3883	
  -22.0464	-0.000879646	  -22.0636	-0.000895887	  -22.0891	-0.000925621	  -22.0664	-0.000900385	  -22.0664	  -22.5096	
   -21.988	-0.000884655	  -22.0047	-0.000900538	  -22.0314	-0.000930231	  -22.0081	-0.000905141	  -22.0081	  -22.6285	
  -21.9292	-0.000889607	  -21.9445	-0.000905121	  -21.9726	-0.000934661	  -21.9488	-0.000909796	  -21.9488	  -22.7449	
  -21.8694	-0.000894472	  -21.8838	-0.000909652	  -21.9138	-0.000938935	   -21.889	-0.000914353	   -21.889	  -22.8588	
  -21.8088	-0.00089923	  -21.8227	-0.000914151	  -21.8537	-0.000943094	  -21.8284	-0.000918825	  -21.8284	  -22.9706	
  -21.7471	-0.00090388	  -21.7602	-0.000918637	  -21.7933	-0.000947192	  -21.7669	-0.000923236	  -21.7669	  -23.0809	
  -21.6842	-0.000908421	  -21.6967	-0.000923125	  -21.7322	-0.000951283	  -21.7044	-0.00092761	  -21.7044	  -23.1902	
  -21.6206	-0.000912868	  -21.6318	-0.000927625	   -21.669	-0.000955416	  -21.6405	-0.000931969	  -21.6405	  -23.2992	
   -21.556	-0.000917266	   -21.566	-0.000932136	  -21.6047	-0.00095963	  -21.5755	-0.000936344	  -21.5755	  -23.4086	
  -21.4905	-0.000921648	     -21.5	-0.000936655	   -21.539	-0.000963941	  -21.5098	-0.000940748	  -21.5098	  -23.5187	
  -21.4244	-0.000926019	  -21.4332	-0.000941166	  -21.4722	-0.000968349	  -21.4433	-0.000945178	  -21.4433	  -23.6294	
  -21.3574	-0.000930409	  -21.3659	-0.000945654	  -21.4048	-0.000972832	   -21.376	-0.000949632	   -21.376	  -23.7408	
  -21.2893	-0.000934847	  -21.2983	-0.000950101	  -21.3363	-0.000977353	   -21.308	-0.0009541	   -21.308	  -23.8525	
  -21.2207	-0.000939323	  -21.2286	-0.000954487	  -21.2676	-0.000981866	   -21.239	-0.000958559	   -21.239	   -23.964	
  -21.1503	-0.000943816	  -21.1578	-0.000958798	  -21.1975	-0.000986321	  -21.1685	-0.000962978	  -21.1685	  -24.0745	
    -21.08	-0.000948314	  -21.0861	-0.000963023	  -21.1263	-0.000990671	  -21.0975	-0.000967336	  -21.0975	  -24.1834	
  -21.0085	-0.000952801	  -21.0133	-0.000967162	  -21.0543	-0.000994881	  -21.0254	-0.000971615	  -21.0254	  -24.2904	
  -20.9366	-0.000957243	  -20.9402	-0.000971221	  -20.9818	-0.000998931	  -20.9529	-0.000975798	  -20.9529	   -24.395	
  -20.8641	-0.000961601	  -20.8651	-0.000975214	   -20.909	-0.00100282	  -20.8794	-0.000979879	  -20.8794	   -24.497	
  -20.7911	-0.000965878	  -20.7889	-0.000979163	  -20.8348	-0.00100657	  -20.8049	-0.00098387	  -20.8049	  -24.5967	
  -20.7167	-0.000970055	  -20.7121	-0.000983085	  -20.7587	-0.00101021	  -20.7292	-0.000987784	  -20.7292	  -24.6946	
  -20.6409	-0.000974123	  -20.6339	-0.000987005	  -20.6824	-0.00101379	  -20.6524	-0.00099164	  -20.6524	   -24.791	
  -20.5636	-0.000978115	  -20.5563	-0.000990939	  -20.6056	-0.00101736	  -20.5752	-0.000995472	  -20.5752	  -24.8868	
  -20.4852	-0.00098204	  -20.4775	-0.000994894	  -20.5281	-0.00102097	  -20.4969	-0.000999302	  -20.4969	  -24.9825	
  -20.4059	-0.00098592	  -20.3977	-0.000998871	    -20.45	-0.00102465	  -20.4179	-0.00100315	  -20.4179	  -25.0787	
  -20.3257	-0.000989779	  -20.3177	-0.00100286	  -20.3712	-0.00102843	  -20.3382	-0.00100702	  -20.3382	  -25.1756	
  -20.2454	-0.000993637	  -20.2366	-0.00100686	  -20.2924	-0.0010323	  -20.2581	-0.00101093	  -20.2581	  -25.2733	
  -20.1636	-0.000997509	  -20.1569	-0.00101082	  -20.2124	-0.00103626	  -20.1776	-0.00101486	  -20.1776	  -25.3715	
  -20.0813	-0.0010014	  -20.0763	-0.00101471	  -20.1316	-0.00104025	  -20.0964	-0.00101879	  -20.0964	  -25.4696	
  -19.9984	-0.00100532	  -19.9953	-0.00101852	  -20.0496	-0.00104423	  -20.0144	-0.00102269	  -20.0144	  -25.5673	
  -19.9145	-0.00100926	  -19.9146	-0.00102226	  -19.9665	-0.00104817	  -19.9319	-0.00102656	  -19.9319	  -25.6641	
  -19.8298	-0.00101319	  -19.8326	-0.00102589	  -19.8842	-0.00105201	  -19.8489	-0.00103037	  -19.8489	  -25.7591	
  -19.7454	-0.0010171	  -19.7499	-0.00102943	  -19.8005	-0.00105573	  -19.7653	-0.00103408	  -19.7653	  -25.8521	
    -19.66	-0.00102095	  -19.6666	-0.0010329	   -19.716	-0.00105929	  -19.6809	-0.00103772	  -19.6809	  -25.9429	
  -19.5744	-0.00102474	  -19.5828	-0.00103633	  -19.6312	-0.00106271	  -19.5962	-0.00104126	  -19.5962	  -26.0314	
  -19.4871	-0.00102844	   -19.499	-0.00103973	  -19.5455	-0.00106599	  -19.5105	-0.00104472	  -19.5105	   -26.118	
  -19.3989	-0.00103204	  -19.4142	-0.00104314	  -19.4587	-0.00106916	  -19.4239	-0.00104812	  -19.4239	  -26.2029	
  -19.3103	-0.00103555	  -19.3292	-0.00104659	  -19.3702	-0.00107228	  -19.3366	-0.00105147	  -19.3366	  -26.2868	
  -19.2217	-0.00103898	  -19.2437	-0.00105007	  -19.2812	-0.00107537	  -19.2489	-0.00105481	  -19.2489	  -26.3702	
  -19.1326	-0.00104235	  -19.1577	-0.0010536	  -19.1916	-0.00107849	  -19.1606	-0.00105815	  -19.1606	  -26.4536	
  -19.0427	-0.00104568	  -19.0709	-0.00105718	  -19.1014	-0.00108165	  -19.0717	-0.0010615	  -19.0717	  -26.5376	
  -18.9519	-0.00104898	  -18.9833	-0.00106075	  -19.0108	-0.0010849	   -18.982	-0.00106488	   -18.982	   -26.622	
   -18.861	-0.0010523	  -18.8949	-0.0010643	  -18.9188	-0.00108823	  -18.8916	-0.00106828	  -18.8916	  -26.7069	
  -18.7694	-0.00105563	  -18.8059	-0.00106779	  -18.8262	-0.00109163	  -18.8005	-0.00107168	  -18.8005	  -26.7921	
  -18.6782	-0.00105899	  -18.7153	-0.00107118	  -18.7328	-0.00109507	  -18.7088	-0.00107508	  -18.7088	   -26.877	
   -18.586	-0.00106237	  -18.6238	-0.00107445	  -18.6381	-0.00109849	  -18.6159	-0.00107844	  -18.6159	  -26.9609	
  -18.4934	-0.00106576	  -18.5314	-0.00107759	  -18.5426	-0.00110186	  -18.5225	-0.00108174	  -18.5225	  -27.0434	
  -18.3999	-0.00106914	  -18.4384	-0.0010806	   -18.446	-0.00110513	  -18.4281	-0.00108495	  -18.4281	  -27.1238	
  -18.3053	-0.00107249	  -18.3453	-0.0010835	   -18.348	-0.00110825	  -18.3329	-0.00108808	  -18.3329	  -27.2019	
  -18.2106	-0.00107578	  -18.2502	-0.00108633	  -18.2504	-0.0011112	   -18.237	-0.0010911	   -18.237	  -27.2776	
  -18.1146	-0.00107901	  -18.1544	-0.00108913	  -18.1523	 -0.001114	  -18.1405	-0.00109405	  -18.1405	  -27.3512	
  -18.0178	-0.00108216	  -18.0582	-0.00109194	  -18.0537	-0.00111665	  -18.0433	-0.00109692	  -18.0433	  -27.4229	
  -17.9201	-0.00108521	  -17.9612	-0.0010948	  -17.9548	-0.00111919	  -17.9454	-0.00109974	  -17.9454	  -27.4934	
  -17.8215	-0.00108819	  -17.8643	-0.00109772	   -17.854	-0.00112168	  -17.8466	-0.00110253	  -17.8466	  -27.5632	
  -17.7222	-0.0010911	  -17.7663	-0.00110069	  -17.7527	-0.00112414	  -17.7471	-0.00110531	  -17.7471	  -27.6328	
  -17.6221	-0.00109395	  -17.6677	-0.00110371	   -17.651	-0.00112663	  -17.6469	-0.00110809	  -17.6469	  -27.7024	
   -17.521	-0.00109677	  -17.5686	-0.00110674	   -17.549	-0.00112917	  -17.5462	-0.00111089	  -17.5462	  -27.7723	
  -17.4198	-0.00109957	  -17.4682	-0.00110975	  -17.4466	-0.0011318	  -17.4449	-0.00111371	  -17.4449	  -27.8427	
  -17.3175	-0.00110237	  -17.3672	-0.00111271	  -17.3436	-0.00113453	  -17.3428	-0.00111653	  -17.3428	  -27.9134	
  -17.2151	-0.00110518	  -17.2656	-0.00111559	  -17.2401	-0.00113733	  -17.2403	-0.00111937	  -17.2403	  -27.9842	
  -17.1115	 -0.001108	  -17.1638	-0.00111839	  -17.1351	-0.00114019	  -17.1368	-0.0011222	  -17.1368	  -28.0549	
  -17.0073	-0.00111083	  -17.0615	-0.0011211	  -17.0297	-0.00114308	  -17.0328	 -0.001125	  -17.0328	   -28.125	
  -16.9027	-0.00111365	  -16.9574	-0.0011237	  -16.9243	-0.00114594	  -16.9281	-0.00112777	  -16.9281	  -28.1941	
  -16.7973	-0.00111646	  -16.8536	-0.00112621	  -16.8177	-0.00114873	  -16.8229	-0.00113047	  -16.8229	  -28.2617	
  -16.6915	-0.00111924	  -16.7482	-0.00112863	  -16.7111	-0.00115141	  -16.7169	-0.0011331	  -16.7169	  -28.3274	
  -16.5847	-0.00112196	  -16.6422	-0.00113101	  -16.6041	-0.00115397	  -16.6104	-0.00113565	  -16.6104	  -28.3912	
  -16.4768	-0.00112461	  -16.5362	-0.00113337	  -16.4964	-0.00115639	  -16.5031	-0.00113813	  -16.5031	  -28.4531	
  -16.3687	-0.00112719	  -16.4289	-0.00113572	   -16.388	-0.00115867	  -16.3952	-0.00114053	  -16.3952	  -28.5132	
  -16.2596	-0.00112969	  -16.3209	-0.00113809	  -16.2789	-0.00116084	  -16.2865	-0.00114287	  -16.2865	  -28.5718	
  -16.1496	-0.00113212	  -16.2124	-0.0011405	   -16.169	-0.00116294	   -16.177	-0.00114519	   -16.177	  -28.6297	
  -16.0386	-0.00113447	  -16.1032	-0.00114295	  -16.0592	-0.00116502	   -16.067	-0.00114748	   -16.067	   -28.687	
  -15.9263	-0.00113677	  -15.9936	-0.00114541	   -15.949	-0.00116709	  -15.9563	-0.00114976	  -15.9563	  -28.7439	
  -15.8135	-0.00113903	  -15.8823	-0.00114786	  -15.8387	-0.00116917	  -15.8448	-0.00115202	  -15.8448	  -28.8005	
  -15.7003	-0.00114128	  -15.7708	-0.0011503	   -15.728	-0.00117128	   -15.733	-0.00115429	   -15.733	  -28.8572	
  -15.5867	-0.00114352	  -15.6593	-0.00115267	  -15.6164	-0.00117343	  -15.6208	-0.00115654	  -15.6208	  -28.9135	
  -15.4735	-0.00114576	  -15.5469	-0.00115494	  -15.5052	-0.0011756	  -15.5085	-0.00115877	  -15.5085	  -28.9692	
  -15.3588	-0.00114801	  -15.4339	-0.00115714	  -15.3924	-0.00117775	   -15.395	-0.00116097	   -15.395	  -29.0242	
  -15.2437	-0.00115027	    -15.32	-0.00115924	  -15.2786	-0.00117986	  -15.2808	-0.00116312	  -15.2808	   -29.078	
   -15.128	-0.00115252	  -15.2048	-0.00116121	  -15.1641	-0.0011819	  -15.1656	-0.00116521	  -15.1656	  -29.1302	
  -15.0112	-0.00115476	  -15.0896	-0.00116309	   -15.048	-0.00118385	  -15.0496	-0.00116723	  -15.0496	  -29.1808	
  -14.8942	-0.00115697	  -14.9731	-0.00116489	  -14.9307	-0.00118571	  -14.9326	-0.00116919	  -14.9326	  -29.2298	
  -14.7755	-0.00115913	  -14.8558	-0.00116664	   -14.812	-0.00118745	  -14.8144	-0.00117107	  -14.8144	  -29.2768	
  -14.6557	-0.00116123	  -14.7376	-0.00116834	  -14.6938	-0.00118908	  -14.6957	-0.00117288	  -14.6957	  -29.3221	
   -14.536	-0.00116324	  -14.6194	-0.00117004	  -14.5756	-0.00119064	   -14.577	-0.00117464	   -14.577	   -29.366	
  -14.4152	-0.00116517	  -14.5009	-0.00117174	  -14.4565	-0.00119215	  -14.4576	-0.00117635	  -14.4576	  -29.4088	
  -14.2948	-0.00116701	  -14.3817	-0.00117344	  -14.3372	-0.00119363	  -14.3379	-0.00117803	  -14.3379	  -29.4506	
  -14.1735	-0.00116877	  -14.2617	-0.00117516	  -14.2178	-0.0011951	  -14.2176	-0.00117968	  -14.2176	   -29.492	
  -14.0513	-0.00117047	  -14.1422	-0.00117689	  -14.0979	-0.0011966	  -14.0972	-0.00118132	  -14.0972	   -29.533	
  -13.9291	-0.00117212	   -14.022	-0.0011786	   -13.978	-0.00119813	  -13.9764	-0.00118295	  -13.9764	  -29.5737	
   -13.806	-0.00117374	  -13.9016	-0.0011803	  -13.8566	-0.00119969	  -13.8547	-0.00118458	  -13.8547	  -29.6145	
  -13.6815	-0.00117536	  -13.7813	-0.00118199	  -13.7352	-0.00120127	  -13.7326	-0.00118621	  -13.7326	  -29.6552	
   -13.556	-0.00117698	  -13.6601	-0.00118364	   -13.614	-0.00120284	  -13.6101	-0.00118782	  -13.6101	  -29.6955	
  -13.4301	-0.00117862	   -13.539	-0.00118523	  -13.4908	-0.00120437	  -13.4867	-0.00118941	  -13.4867	  -29.7352	
  -13.3032	-0.00118027	  -13.4165	-0.00118676	  -13.3664	-0.00120584	   -13.362	-0.00119096	   -13.362	  -29.7739	
  -13.1752	-0.00118192	  -13.2935	-0.00118823	  -13.2408	-0.00120723	  -13.2365	-0.00119246	  -13.2365	  -29.8114	
  -13.0474	-0.00118356	  -13.1704	-0.00118963	  -13.1161	-0.00120852	  -13.1113	-0.0011939	  -13.1113	  -29.8476	
  -12.9194	-0.00118519	  -13.0471	-0.00119098	   -12.991	-0.00120973	  -12.9858	-0.0011953	  -12.9858	  -29.8824	
  -12.7909	-0.00118677	  -12.9231	-0.00119228	  -12.8645	-0.00121084	  -12.8595	-0.00119663	  -12.8595	  -29.9158	
  -12.6636	-0.00118831	  -12.7982	-0.00119353	  -12.7375	-0.00121188	  -12.7331	-0.00119791	  -12.7331	  -29.9476	
  -12.5358	-0.00118977	  -12.6728	-0.00119475	  -12.6101	-0.00121283	  -12.6062	-0.00119912	  -12.6062	   -29.978	
  -12.4074	-0.00119116	   -12.547	-0.00119595	  -12.4825	-0.00121372	   -12.479	-0.00120028	   -12.479	   -30.007	
  -12.2808	-0.00119247	  -12.4193	-0.00119713	  -12.3561	-0.00121455	  -12.3521	-0.00120139	  -12.3521	  -30.0346	
  -12.1549	-0.0011937	  -12.2912	-0.0011983	  -12.2297	-0.00121533	  -12.2253	-0.00120244	  -12.2253	   -30.061	
  -12.0285	-0.00119483	  -12.1628	-0.00119945	  -12.1024	-0.00121606	  -12.0979	-0.00120345	  -12.0979	  -30.0862	
  -11.9021	-0.00119588	  -12.0335	-0.00120058	  -11.9744	-0.00121676	    -11.97	-0.00120441	    -11.97	  -30.1102	
  -11.7745	-0.00119686	  -11.9048	-0.00120166	  -11.8456	-0.00121743	  -11.8416	-0.00120532	  -11.8416	  -30.1329	
  -11.6478	-0.00119778	  -11.7742	-0.00120268	  -11.7171	-0.00121809	   -11.713	-0.00120618	   -11.713	  -30.1546	
  -11.5197	-0.00119866	  -11.6435	-0.00120362	   -11.587	-0.00121875	  -11.5834	-0.00120701	  -11.5834	  -30.1752	
  -11.3912	-0.00119951	  -11.5111	-0.00120448	  -11.4544	-0.0012194	  -11.4522	-0.0012078	  -11.4522	   -30.195	
  -11.2618	-0.00120037	  -11.3781	-0.00120528	  -11.3208	-0.00122002	  -11.3202	-0.00120856	  -11.3202	   -30.214	
  -11.1327	-0.00120124	  -11.2452	-0.00120604	  -11.1881	-0.00122061	  -11.1887	-0.0012093	  -11.1887	  -30.2324	
  -11.0032	-0.00120212	  -11.1115	-0.00120678	  -11.0552	-0.00122118	  -11.0566	-0.00121002	  -11.0566	  -30.2506	
   -10.872	-0.00120305	  -10.9773	-0.00120751	  -10.9217	-0.00122173	  -10.9237	-0.00121076	  -10.9237	  -30.2691	
  -10.7383	 -0.001204	  -10.8428	-0.00120828	  -10.7874	-0.00122224	  -10.7895	-0.00121151	  -10.7895	  -30.2877	
  -10.6055	-0.00120495	  -10.7073	-0.00120908	   -10.652	-0.00122272	  -10.6549	-0.00121225	  -10.6549	  -30.3063	
  -10.4713	-0.0012059	  -10.5714	-0.00120991	  -10.5154	-0.00122317	  -10.5194	-0.00121299	  -10.5194	  -30.3248	
  -10.3358	-0.00120684	  -10.4354	-0.00121075	  -10.3781	-0.00122359	  -10.3831	-0.00121372	  -10.3831	  -30.3431	
  -10.1983	-0.00120772	  -10.2996	-0.00121157	  -10.2411	-0.00122397	  -10.2464	-0.00121442	  -10.2464	  -30.3605	
  -10.0614	-0.00120854	  -10.1634	-0.00121235	  -10.1029	-0.00122431	  -10.1092	-0.00121507	  -10.1092	  -30.3767	
  -9.92403	-0.00120929	  -10.0254	-0.00121309	  -9.96381	-0.00122464	  -9.97108	-0.00121567	  -9.97108	  -30.3917	
  -9.78573	-0.00120997	  -9.88745	-0.00121375	  -9.82489	-0.00122492	  -9.83269	-0.00121621	  -9.83269	  -30.4053	
  -9.64796	-0.00121056	    -9.748	-0.00121431	  -9.68751	-0.00122516	  -9.69449	-0.00121668	  -9.69449	  -30.4169	
  -9.51155	-0.0012111	  -9.60858	-0.00121474	  -9.54956	-0.00122536	  -9.55656	-0.00121707	  -9.55656	  -30.4267	
  -9.37419	-0.00121161	  -9.46936	-0.00121508	  -9.40958	-0.00122549	  -9.41771	-0.00121739	  -9.41771	  -30.4348	
  -9.23564	-0.00121207	  -9.32955	-0.00121532	  -9.27056	-0.00122555	  -9.27858	-0.00121765	  -9.27858	  -30.4412	
  -9.09714	-0.0012125	  -9.18867	-0.00121547	  -9.13406	-0.00122554	  -9.13995	-0.00121784	  -9.13995	  -30.4459	
  -8.95886	-0.00121291	  -9.04819	-0.00121554	   -8.9962	-0.00122546	  -9.00108	-0.00121797	  -9.00108	  -30.4494	
  -8.82075	-0.00121331	  -8.90682	-0.00121558	  -8.85727	-0.00122534	  -8.86161	-0.00121808	  -8.86161	  -30.4519	
  -8.68103	-0.00121368	  -8.76579	-0.00121559	  -8.71707	-0.00122517	   -8.7213	-0.00121815	   -8.7213	  -30.4537	
  -8.54147	-0.00121405	  -8.62358	-0.00121557	  -8.57852	-0.00122497	  -8.58119	-0.0012182	  -8.58119	  -30.4549	
    -8.402	-0.00121443	   -8.4812	-0.00121556	  -8.43808	-0.00122475	  -8.44043	-0.00121825	  -8.44043	  -30.4561	
  -8.26111	-0.00121479	   -8.3391	-0.00121555	  -8.29583	-0.0012245	  -8.29868	-0.00121828	  -8.29868	   -30.457	
  -8.11983	-0.00121511	  -8.19696	-0.00121554	    -8.155	-0.00122423	  -8.15726	-0.00121829	  -8.15726	  -30.4574	
  -7.97862	-0.00121539	  -8.05498	-0.00121555	  -8.01566	-0.00122394	  -8.01642	-0.00121829	  -8.01642	  -30.4574	
  -7.83647	-0.00121562	  -7.91311	-0.00121555	  -7.87477	-0.00122363	  -7.87478	-0.00121826	  -7.87478	  -30.4566	
  -7.69388	-0.00121576	  -7.77129	-0.00121554	  -7.73239	-0.00122328	  -7.73252	-0.00121819	  -7.73252	  -30.4549	
  -7.54915	-0.00121581	   -7.6297	-0.00121548	  -7.59028	-0.0012229	  -7.58971	-0.00121806	  -7.58971	  -30.4516	
  -7.40459	-0.00121576	  -7.48709	-0.00121536	  -7.44812	-0.00122246	   -7.4466	-0.00121786	   -7.4466	  -30.4465	
  -7.25965	-0.0012156	  -7.34419	-0.00121518	  -7.30492	-0.00122196	  -7.30292	-0.00121758	  -7.30292	  -30.4395	
  -7.11482	-0.00121535	  -7.20149	-0.00121491	   -7.1612	-0.00122139	  -7.15917	-0.00121722	  -7.15917	  -30.4304	
  -6.96955	-0.00121503	   -7.0577	-0.00121455	   -7.0179	-0.00122076	  -7.01505	-0.00121678	  -7.01505	  -30.4195	
  -6.82313	-0.00121464	   -6.9136	-0.00121411	  -6.87424	-0.00122006	  -6.87033	-0.00121627	  -6.87033	  -30.4067	
  -6.67778	-0.00121421	  -6.76845	-0.00121358	  -6.72997	-0.0012193	   -6.7254	-0.0012157	   -6.7254	  -30.3924	
  -6.53146	-0.00121378	  -6.62326	-0.00121297	  -6.58485	-0.0012185	  -6.57986	-0.00121508	  -6.57986	   -30.377	
  -6.38421	-0.00121336	  -6.47799	-0.00121229	  -6.43914	-0.00121766	  -6.43378	-0.00121444	  -6.43378	  -30.3609	
  -6.23774	-0.00121296	  -6.33141	-0.00121158	  -6.29431	-0.00121679	  -6.28782	-0.00121377	  -6.28782	  -30.3443	
  -6.09077	-0.00121258	   -6.1848	-0.00121084	  -6.14832	-0.00121591	   -6.1413	-0.00121311	   -6.1413	  -30.3278	
  -5.94331	-0.00121222	   -6.0386	-0.00121009	  -6.00194	-0.00121504	  -5.99462	-0.00121245	  -5.99462	  -30.3113	
  -5.79631	-0.00121187	  -5.89179	-0.00120935	  -5.85639	-0.00121416	  -5.84816	-0.00121179	  -5.84816	  -30.2948	
  -5.64828	-0.0012115	  -5.74486	-0.00120861	  -5.71132	-0.00121327	  -5.70149	-0.00121113	  -5.70149	  -30.2781	
  -5.50047	-0.00121109	  -5.59755	-0.00120786	  -5.56568	-0.00121238	  -5.55457	-0.00121044	  -5.55457	  -30.2611	
  -5.35211	-0.00121061	   -5.4501	-0.00120711	  -5.41877	-0.00121144	  -5.40699	-0.00120972	  -5.40699	  -30.2431	
  -5.20418	-0.00121004	  -5.30176	-0.00120632	  -5.27235	-0.00121043	  -5.25943	-0.00120893	  -5.25943	  -30.2233	
  -5.05661	-0.00120936	   -5.1533	-0.00120548	  -5.12656	-0.00120932	  -5.11216	-0.00120805	  -5.11216	  -30.2014	
  -4.90814	-0.00120856	  -5.00639	-0.00120457	  -4.97918	-0.00120812	  -4.96457	-0.00120708	  -4.96457	  -30.1771	
  -4.76003	-0.00120765	  -4.85871	-0.00120356	  -4.83197	-0.0012068	  -4.81691	 -0.001206	  -4.81691	  -30.1501	
  -4.61126	-0.00120663	  -4.71125	-0.00120245	   -4.6849	-0.00120536	  -4.66914	-0.00120482	  -4.66914	  -30.1204	
  -4.46184	-0.0012054	  -4.56445	-0.00120122	  -4.53743	-0.00120389	  -4.52124	-0.0012035	  -4.52124	  -30.0876	
  -4.31421	-0.00120411	  -4.41726	-0.0011999	  -4.38958	-0.00120235	  -4.37368	-0.00120212	  -4.37368	   -30.053	
  -4.16627	-0.00120282	  -4.27017	-0.00119849	  -4.24086	-0.00120078	  -4.22577	-0.0012007	  -4.22577	  -30.0175	
  -4.01875	-0.00120155	  -4.12288	-0.00119702	  -4.09275	-0.00119923	  -4.07813	-0.00119926	  -4.07813	  -29.9816	
  -3.87134	-0.00120029	  -3.97516	-0.0011955	   -3.9447	-0.0011977	   -3.9304	-0.00119783	   -3.9304	  -29.9457	
