# User: ACHyster
# File name: C:/ACHYSTER/ACHyster SENS/SHAMS/CoFe2O4-1gl-water-32 Glycerol-Sens-07-03-2023/CoFe2O4-1gl-water-32 Glycerol- 10_100F- 24 kAm -Sens-07-03-20230002#1.txt
# Saved at: ma. mar. 7 16:19:39 2023
# Hyster Loop (3 iterations). Intensity: 24.0 kA/m; Tuned frequency: 29.5 kHz
# Units x axis: (kA/m)
# Units y axis: "Repeats y" & "Average y" (10^(-3)Am^2); "Mass avg y" (Am^2/kg)
# Magnetic mass: 4e-05 g
# Parameter      	Repeat   1	Repeat   2	Repeat   3	Average   	Sigma     
# H_C (kA/m)     	      19.7	      19.6	      19.4	      19.5	       0.1
# M_R (Am^2/kg)  	      58.4	      58.1	      58.3	      58.3	       0.1
# M_max (Am^2/kg)	      44.1	      43.6	      45.1	      44.3	       0.6
# Area (mJ/kg)   	    5406.0	    5359.5	    5351.4	    5372.3	      24.1
# SAR (W/g)      	     159.5	     158.1	     157.9	     158.5	       0.7
#Repeat 1 x	Repeat 1 y	Repeat 2 x	Repeat 2 y	Repeat 3 x	Repeat 3 y	Average x 	Average y 	Mass avg x 	Mass avg y 
  -3.56509	-0.00246627	  -3.56437	-0.00246624	  -3.55156	-0.00248105	  -3.56034	-0.00247119	  -3.56034	  -61.7797	
  -3.41694	-0.00246109	   -3.4166	-0.00246098	  -3.40381	-0.00247533	  -3.41245	-0.0024658	  -3.41245	  -61.6451	
  -3.26849	-0.00245584	  -3.26923	-0.00245556	  -3.25568	-0.00246956	  -3.26447	-0.00246032	  -3.26447	   -61.508	
  -3.11986	-0.00245043	  -3.12152	-0.00245011	  -3.10787	-0.00246374	  -3.11641	-0.00245476	  -3.11641	   -61.369	
  -2.97097	-0.00244488	  -2.97338	-0.00244469	  -2.96008	-0.00245781	  -2.96814	-0.00244912	  -2.96814	  -61.2281	
  -2.82188	-0.0024393	  -2.82471	-0.00243915	  -2.81233	-0.00245172	  -2.81964	-0.00244339	  -2.81964	  -61.0847	
  -2.67278	-0.0024337	   -2.6755	-0.0024334	   -2.6644	-0.00244556	  -2.67089	-0.00243755	  -2.67089	  -60.9388	
  -2.52326	-0.00242801	  -2.52579	-0.00242754	  -2.51644	-0.00243935	  -2.52183	-0.00243163	  -2.52183	  -60.7908	
  -2.37357	-0.00242216	  -2.37603	-0.00242168	  -2.36854	-0.00243307	  -2.37271	-0.00242564	  -2.37271	  -60.6409	
  -2.22399	-0.0024162	  -2.22595	-0.0024158	  -2.22071	-0.00242667	  -2.22355	-0.00241955	  -2.22355	  -60.4889	
  -2.07446	-0.00241021	  -2.07606	-0.00240978	  -2.07271	-0.00242011	  -2.07441	-0.00241337	  -2.07441	  -60.3341	
  -1.92516	-0.00240415	  -1.92635	-0.00240357	  -1.92474	-0.00241348	  -1.92541	-0.00240707	  -1.92541	  -60.1767	
  -1.77609	-0.00239797	  -1.77722	-0.00239726	  -1.77641	-0.00240682	  -1.77657	-0.00240068	  -1.77657	   -60.017	
  -1.62697	-0.00239166	  -1.62796	-0.00239093	  -1.62788	-0.00240008	   -1.6276	-0.00239422	   -1.6276	  -59.8556	
  -1.47788	-0.0023853	  -1.47865	-0.00238457	  -1.47904	-0.0023932	  -1.47852	-0.00238769	  -1.47852	  -59.6922	
  -1.32849	-0.00237889	  -1.32953	-0.00237804	  -1.33016	-0.0023862	   -1.3294	-0.00238105	   -1.3294	  -59.5261	
  -1.17896	-0.00237239	  -1.18035	-0.00237133	  -1.18081	-0.00237913	  -1.18004	-0.00237428	  -1.18004	  -59.3571	
   -1.0292	-0.00236575	  -1.03103	-0.00236457	  -1.03133	 -0.002372	  -1.03052	-0.00236744	  -1.03052	   -59.186	
  -0.87984	-0.00235902	 -0.881803	-0.00235788	 -0.882132	-0.00236476	 -0.881258	-0.00236055	 -0.881258	  -59.0139	
 -0.730448	-0.00235225	 -0.733054	-0.00235115	 -0.733214	-0.0023574	 -0.732238	-0.0023536	 -0.732238	    -58.84	
 -0.580821	-0.00234544	 -0.584302	-0.00234415	  -0.58429	-0.00234993	 -0.583138	-0.00234651	 -0.583138	  -58.6627	
 -0.430999	-0.00233849	 -0.435382	-0.00233692	 -0.435425	-0.0023424	 -0.433935	-0.00233927	 -0.433935	  -58.4818	
 -0.281285	-0.00233135	 -0.286407	-0.00232967	 -0.286491	-0.00233479	 -0.284727	-0.00233194	 -0.284727	  -58.2984	
  -0.13119	-0.00232415	 -0.137286	-0.00232251	 -0.138031	-0.00232706	 -0.135502	-0.00232457	 -0.135502	  -58.1143	
 0.0186497	-0.00231698	 0.0115705	-0.00231526	 0.0107751	-0.00231921	 0.0136651	-0.00231715	 0.0136651	  -57.9289	
  0.168437	-0.00230974	  0.160578	-0.00230774	  0.159318	-0.00231129	  0.162778	-0.00230959	  0.162778	  -57.7398	
  0.318231	-0.00230228	   0.30975	-0.00230003	  0.308084	-0.00230329	  0.312022	-0.00230187	  0.312022	  -57.5466	
  0.468371	-0.00229464	  0.459035	-0.00229235	   0.45679	-0.0022952	  0.461399	-0.00229406	  0.461399	  -57.3516	
  0.618357	-0.00228697	  0.608341	-0.00228474	  0.605583	 -0.002287	   0.61076	-0.00228624	   0.61076	  -57.1559	
  0.768459	-0.00227932	  0.757743	-0.00227696	  0.754715	-0.0022787	  0.760306	-0.00227833	  0.760306	  -56.9582	
  0.918828	-0.00227156	  0.906675	-0.00226888	  0.903963	-0.00227032	  0.909822	-0.00227026	  0.909822	  -56.7564	
   1.06865	-0.00226359	   1.05572	-0.00226067	    1.0531	-0.00226188	   1.05916	-0.00226205	   1.05916	  -56.5512	
   1.21865	-0.0022555	   1.20475	-0.00225255	   1.20223	-0.00225333	   1.20854	-0.00225379	   1.20854	  -56.3448	
   1.36872	-0.00224742	   1.35367	-0.00224445	   1.35145	-0.00224467	   1.35795	-0.00224551	   1.35795	  -56.1378	
   1.51881	-0.00223932	   1.50264	-0.0022361	   1.50017	-0.00223591	   1.50721	-0.00223711	   1.50721	  -55.9278	
   1.66835	-0.00223107	   1.65171	-0.00222745	   1.64901	-0.00222707	   1.65636	-0.00222853	   1.65636	  -55.7132	
   1.81789	-0.0022226	   1.80077	-0.00221873	   1.79807	-0.00221815	   1.80558	-0.00221983	   1.80558	  -55.4957	
   1.96793	-0.00221404	    1.9496	-0.0022101	   1.94673	-0.00220911	   1.95475	-0.00221109	   1.95475	  -55.2772	
   2.11772	-0.00220549	   2.09843	-0.00220141	   2.09539	-0.00219996	   2.10385	-0.00220229	   2.10385	  -55.0572	
   2.26714	-0.00219688	   2.24729	-0.00219243	   2.24377	-0.0021907	   2.25273	-0.00219334	   2.25273	  -54.8334	
   2.41655	-0.00218807	   2.39633	-0.00218322	   2.39238	-0.00218136	   2.40175	-0.00218421	   2.40175	  -54.6054	
   2.56604	-0.00217908	   2.54546	-0.00217401	   2.54113	-0.00217191	   2.55088	 -0.002175	   2.55088	   -54.375	
    2.7151	-0.00217003	   2.69475	-0.00216483	   2.69008	-0.00216235	   2.69997	-0.00216573	   2.69997	  -54.1434	
   2.86397	-0.00216093	   2.84415	-0.00215549	   2.83883	-0.00215265	   2.84898	-0.00215636	   2.84898	  -53.9089	
   3.01266	-0.00215167	   2.99328	-0.00214587	   2.98737	-0.00214285	   2.99777	-0.0021468	   2.99777	  -53.6699	
   3.16143	-0.00214223	   3.14259	-0.00213608	   3.13581	-0.00213296	   3.14661	-0.00213709	   3.14661	  -53.4273	
   3.31002	-0.0021327	   3.29142	-0.00212631	   3.28407	-0.00212295	   3.29517	-0.00212732	   3.29517	   -53.183	
   3.45876	-0.0021231	   3.44034	-0.00211652	   3.43196	-0.00211281	   3.44368	-0.00211748	   3.44368	   -52.937	
   3.60752	-0.00211342	    3.5888	-0.00210652	    3.5797	-0.00210257	   3.59201	-0.0021075	   3.59201	  -52.6876	
   3.75576	-0.00210355	   3.73691	-0.00209625	   3.72754	-0.00209225	   3.74007	-0.00209735	   3.74007	  -52.4338	
   3.90385	-0.0020935	   3.88463	-0.00208588	   3.87504	-0.0020818	   3.88784	-0.00208706	   3.88784	  -52.1765	
   4.05209	-0.00208335	   4.03266	-0.00207553	   4.02237	-0.0020712	   4.03571	-0.00207669	   4.03571	  -51.9174	
   4.19977	-0.00207316	   4.18092	-0.0020651	   4.16961	-0.00206045	   4.18343	-0.00206624	   4.18343	  -51.6559	
    4.3477	-0.00206283	   4.32897	-0.00205442	   4.31659	-0.0020496	   4.33109	-0.00205562	   4.33109	  -51.3904	
   4.49591	-0.00205231	   4.47643	-0.00204353	   4.46351	-0.00203865	   4.47862	-0.00204483	   4.47862	  -51.1208	
   4.64385	-0.00204163	   4.62382	-0.0020326	   4.61028	-0.00202763	   4.62598	-0.00203395	   4.62598	  -50.8488	
   4.79186	-0.00203085	    4.7713	-0.00202166	   4.75681	-0.00201651	   4.77332	-0.00202301	   4.77332	  -50.5752	
   4.93985	-0.00202001	   4.91833	-0.00201058	   4.90283	-0.00200524	   4.92034	-0.00201194	   4.92034	  -50.2986	
   5.08768	-0.00200905	    5.0649	-0.00199928	   5.04816	-0.00199379	   5.06691	-0.00200071	   5.06691	  -50.0178	
   5.23529	-0.00199793	   5.21112	-0.00198786	   5.19329	-0.00198221	   5.21323	-0.00198933	   5.21323	  -49.7333	
   5.38267	-0.00198661	   5.35701	-0.00197638	    5.3388	-0.00197058	    5.3595	-0.00197786	    5.3595	  -49.4464	
   5.53008	-0.00197516	   5.50283	-0.00196483	   5.48513	-0.00195888	   5.50601	-0.00196629	   5.50601	  -49.1573	
   5.67753	-0.00196361	   5.64862	-0.00195312	    5.6311	-0.00194706	   5.65242	-0.0019546	   5.65242	  -48.8649	
   5.82419	-0.00195193	   5.79415	-0.00194124	   5.77706	-0.00193507	   5.79847	-0.00194275	   5.79847	  -48.5687	
   5.97085	-0.00194008	   5.93976	-0.00192924	   5.92276	-0.00192295	   5.94446	-0.00193076	   5.94446	  -48.2689	
    6.1172	-0.0019281	   6.08535	-0.00191716	   6.06829	-0.00191076	   6.09028	-0.00191868	   6.09028	  -47.9669	
   6.26382	-0.00191601	    6.2311	-0.00190498	   6.21368	-0.00189851	    6.2362	-0.0019065	    6.2362	  -47.6625	
   6.41015	-0.00190379	   6.37663	-0.00189268	   6.35914	-0.00188611	   6.38197	-0.00189419	   6.38197	  -47.3549	
   6.55593	-0.00189144	   6.52204	-0.00188027	   6.50419	-0.00187353	   6.52739	-0.00188174	   6.52739	  -47.0436	
    6.7015	-0.00187899	   6.66727	-0.00186775	   6.64915	-0.00186086	   6.67264	-0.0018692	   6.67264	    -46.73	
   6.84722	-0.00186645	   6.81232	-0.00185514	   6.79384	-0.00184818	   6.81779	-0.00185659	   6.81779	  -46.4147	
   6.99274	-0.00185375	   6.95725	-0.00184242	   6.93768	-0.00183538	   6.96255	-0.00184385	   6.96255	  -46.0962	
   7.13795	-0.00184089	   7.10156	-0.00182956	   7.08125	-0.00182231	   7.10692	-0.00183092	   7.10692	  -45.7729	
   7.28263	-0.00182792	   7.24564	-0.0018166	    7.2245	-0.00180905	   7.25092	-0.00181786	   7.25092	  -45.4465	
   7.42715	-0.00181493	   7.38907	-0.00180358	   7.36745	-0.00179582	   7.39456	-0.00180477	   7.39456	  -45.1193	
   7.57101	-0.00180183	   7.53257	-0.00179041	   7.50995	-0.00178266	   7.53784	-0.00179163	   7.53784	  -44.7908	
   7.71438	-0.00178859	   7.67543	-0.00177707	   7.65216	-0.00176932	   7.68066	-0.00177833	   7.68066	  -44.4582	
   7.85749	-0.00177515	   7.81809	-0.00176366	   7.79396	-0.00175567	   7.82318	-0.00176482	   7.82318	  -44.1206	
         8	-0.00176156	   7.96041	-0.00175022	   7.93536	-0.00174187	   7.96526	-0.00175122	   7.96526	  -43.7805	
   8.14206	-0.00174792	   8.10233	-0.00173666	   8.07671	-0.00172817	   8.10703	-0.00173758	   8.10703	  -43.4396	
   8.28344	-0.00173421	   8.24401	-0.0017229	   8.21815	-0.00171451	   8.24853	-0.00172388	   8.24853	  -43.0969	
    8.4244	-0.00172039	   8.38508	-0.00170903	   8.35911	-0.00170069	   8.38953	-0.00171003	   8.38953	  -42.7509	
   8.56523	-0.00170638	   8.52604	-0.00169513	   8.49963	-0.00168657	    8.5303	-0.00169603	    8.5303	  -42.4006	
   8.70543	-0.00169224	   8.66656	-0.00168117	   8.63985	-0.00167228	   8.67061	-0.0016819	   8.67061	  -42.0475	
   8.84561	-0.00167804	   8.80646	-0.00166705	   8.77996	-0.00165805	   8.81068	-0.00166771	   8.81068	  -41.6928	
   8.98534	-0.00166377	   8.94631	-0.00165274	    8.9192	-0.00164384	   8.95028	-0.00165345	   8.95028	  -41.3362	
   9.12494	-0.00164935	   9.08585	-0.00163833	   9.05785	-0.00162945	   9.08955	-0.00163904	   9.08955	  -40.9761	
   9.26427	-0.00163474	   9.22478	-0.00162395	    9.1959	-0.00161478	   9.22831	-0.00162449	   9.22831	  -40.6123	
   9.40335	-0.00162001	   9.36333	-0.0016095	   9.33372	-0.00159998	    9.3668	-0.00160983	    9.3668	  -40.2457	
   9.54197	-0.00160523	   9.50148	-0.00159487	   9.47095	-0.00158518	    9.5048	-0.00159509	    9.5048	  -39.8773	
   9.67965	-0.0015904	   9.63917	-0.00158005	    9.6079	-0.00157034	   9.64224	-0.00158026	   9.64224	  -39.5066	
   9.81747	-0.00157538	   9.77649	-0.00156519	   9.74466	-0.00155529	   9.77954	-0.00156528	   9.77954	  -39.1321	
   9.95491	-0.00156012	   9.91329	-0.00155029	   9.88145	-0.00154003	   9.91655	-0.00155015	   9.91655	  -38.7537	
   10.0917	-0.00154476	   10.0501	-0.00153526	   10.0184	-0.0015247	   10.0534	-0.00153491	   10.0534	  -38.3726	
   10.2281	-0.00152939	   10.1866	-0.00152003	   10.1552	-0.00150937	     10.19	-0.0015196	     10.19	  -37.9899	
   10.3641	-0.00151398	   10.3228	-0.00150469	   10.2925	-0.00149394	   10.3264	-0.0015042	   10.3264	   -37.605	
   10.4992	-0.00149838	   10.4585	-0.00148931	   10.4294	-0.0014783	   10.4624	-0.00148866	   10.4624	  -37.2166	
   10.6337	-0.00148259	   10.5942	-0.00147385	   10.5655	-0.00146251	   10.5978	-0.00147299	   10.5978	  -36.8246	
   10.7678	-0.00146673	   10.7298	-0.00145823	    10.701	-0.00144667	   10.7329	-0.00145721	   10.7329	  -36.4303	
   10.9018	-0.00145087	   10.8651	-0.00144244	    10.836	-0.00143079	   10.8676	-0.00144137	   10.8676	  -36.0341	
   11.0357	-0.00143492	   10.9997	-0.00142655	   10.9705	-0.00141477	    11.002	-0.00142541	    11.002	  -35.6353	
   11.1695	-0.00141878	   11.1341	-0.00141063	   11.1043	-0.00139855	   11.1359	-0.00140932	   11.1359	   -35.233	
    11.303	-0.00140251	   11.2682	-0.00139461	   11.2375	-0.0013822	   11.2696	-0.00139311	   11.2696	  -34.8277	
   11.4364	-0.00138624	   11.4017	-0.00137843	   11.3706	-0.00136582	   11.4029	-0.00137683	   11.4029	  -34.4207	
   11.5694	-0.00136994	    11.535	-0.00136212	   11.5033	-0.00134937	   11.5359	-0.00136048	   11.5359	  -34.0119	
   11.7015	-0.00135348	   11.6679	-0.00134578	   11.6357	-0.00133274	   11.6684	 -0.001344	   11.6684	     -33.6	
   11.8332	-0.00133679	   11.8004	-0.00132941	   11.7673	-0.00131594	   11.8003	-0.00132738	   11.8003	  -33.1845	
   11.9649	-0.00131999	   11.9326	-0.00131291	   11.8985	-0.00129905	    11.932	-0.00131065	    11.932	  -32.7662	
   12.0965	-0.00130327	    12.064	-0.00129622	   12.0297	-0.00128213	   12.0634	-0.00129387	   12.0634	  -32.3468	
    12.228	-0.00128658	   12.1948	-0.00127943	   12.1602	-0.00126512	   12.1943	-0.00127705	   12.1943	  -31.9261	
   12.3594	-0.0012697	   12.3252	-0.00126262	   12.2905	-0.00124795	    12.325	-0.00126009	    12.325	  -31.5023	
   12.4906	-0.00125256	    12.455	-0.00124575	   12.4201	-0.00123064	   12.4552	-0.00124298	   12.4552	  -31.0746	
   12.6211	-0.00123534	   12.5841	-0.00122874	   12.5491	-0.00121327	   12.5848	-0.00122578	   12.5848	  -30.6446	
   12.7515	-0.0012182	   12.7124	-0.00121156	   12.6781	-0.00119587	    12.714	-0.00120854	    12.714	  -30.2136	
   12.8813	-0.00120104	   12.8402	-0.0011943	   12.8065	-0.00117835	   12.8427	-0.00119123	   12.8427	  -29.7808	
   13.0104	-0.00118366	   12.9675	-0.00117702	    12.934	-0.00116066	   12.9706	-0.00117378	   12.9706	  -29.3445	
   13.1394	-0.00116608	   13.0945	-0.00115963	   13.0611	-0.00114287	   13.0983	-0.00115619	   13.0983	  -28.9048	
   13.2681	-0.00114848	   13.2212	-0.0011421	   13.1874	-0.00112503	   13.2256	-0.00113854	   13.2256	  -28.4635	
   13.3965	-0.00113095	   13.3484	-0.00112458	    13.313	-0.00110714	   13.3526	-0.00112089	   13.3526	  -28.0222	
   13.5242	-0.00111333	   13.4755	-0.00110709	   13.4378	-0.00108912	   13.4792	-0.00110318	   13.4792	  -27.5795	
   13.6517	-0.00109548	   13.6024	-0.0010895	   13.5622	-0.00107095	   13.6054	-0.00108531	   13.6054	  -27.1327	
   13.7784	-0.00107749	   13.7279	-0.00107157	   13.6859	-0.00105271	   13.7307	-0.00106726	   13.7307	  -26.6814	
   13.9043	-0.00105953	   13.8511	-0.00105344	   13.8089	-0.00103442	   13.8548	-0.00104913	   13.8548	  -26.2283	
    14.029	-0.0010416	   13.9746	-0.00103543	   13.9317	-0.00101607	   13.9785	-0.00103104	   13.9785	  -25.7759	
   14.1532	-0.00102354	   14.0981	-0.00101759	    14.054	-0.000997573	   14.1018	-0.0010129	   14.1018	  -25.3225	
   14.2765	-0.00100524	   14.2205	-0.000999519	   14.1757	-0.00097896	   14.2242	-0.000994574	   14.2242	  -24.8643	
   14.3995	-0.000986889	   14.3416	-0.00098104	   14.2966	-0.000960296	   14.3459	-0.000976075	   14.3459	  -24.4019	
   14.5217	-0.000968647	   14.4609	-0.000962432	   14.4171	-0.000941592	   14.4666	-0.000957557	   14.4666	  -23.9389	
   14.6432	-0.000950384	   14.5797	-0.000944033	   14.5371	-0.000922787	   14.5867	-0.000939068	   14.5867	  -23.4767	
   14.7637	-0.000931877	   14.6986	-0.000925735	   14.6566	-0.000903848	   14.7063	-0.000920486	   14.7063	  -23.0122	
   14.8833	-0.000913156	   14.8177	-0.000907166	   14.7755	-0.000884826	   14.8255	-0.000901716	   14.8255	  -22.5429	
   15.0022	-0.000894459	   14.9364	-0.000888249	   14.8935	-0.000865778	   14.9441	-0.000882829	   14.9441	  -22.0707	
   15.1206	-0.000875862	   15.0543	-0.000869303	   15.0111	-0.000846682	    15.062	-0.000863949	    15.062	  -21.5987	
   15.2382	-0.000857181	   15.1713	-0.000850579	   15.1282	-0.000827471	   15.1792	-0.000845077	   15.1792	  -21.1269	
   15.3555	-0.000838256	   15.2878	-0.000831875	   15.2442	-0.000808142	   15.2958	-0.000826091	   15.2958	  -20.6523	
    15.472	-0.000819191	   15.4037	-0.000812844	   15.3598	-0.000788759	   15.4119	-0.000806931	   15.4119	  -20.1733	
   15.5883	-0.00080018	   15.5193	-0.00079356	   15.4752	-0.000769356	   15.5276	-0.000787699	   15.5276	  -19.6925	
   15.7039	-0.000781226	   15.6341	-0.000774383	   15.5903	-0.000749887	   15.6428	-0.000768499	   15.6428	  -19.2125	
   15.8188	-0.000762144	   15.7479	-0.000755412	   15.7049	-0.000730306	   15.7572	-0.000749287	   15.7572	  -18.7322	
   15.9331	-0.000742848	   15.8605	-0.000736307	   15.8192	-0.000710634	    15.871	-0.00072993	    15.871	  -18.2482	
   16.0466	-0.000723478	   15.9725	-0.000716848	   15.9327	-0.000690934	   15.9839	-0.00071042	   15.9839	  -17.7605	
   16.1599	-0.000704185	   16.0834	-0.000697269	   16.0456	-0.000671209	   16.0963	-0.000690888	   16.0963	  -17.2722	
   16.2726	-0.000684894	   16.1936	-0.000677875	   16.1579	-0.000651409	    16.208	-0.000671393	    16.208	  -16.7848	
   16.3847	-0.000665433	   16.3034	-0.000658579	   16.2691	-0.000631518	   16.3191	-0.000651843	   16.3191	  -16.2961	
   16.4961	-0.000645793	   16.4128	-0.000639064	   16.3798	-0.000611501	   16.4296	-0.00063212	   16.4296	   -15.803	
   16.6072	-0.00062613	   16.5214	-0.000619276	   16.4898	-0.000591476	   16.5394	-0.000612294	   16.5394	  -15.3074	
   16.7177	-0.000606544	   16.6293	-0.000599467	   16.6013	-0.000571501	   16.6494	-0.000592504	   16.6494	  -14.8126	
   16.8276	-0.000586946	   16.7367	-0.000579838	    16.712	-0.000551493	   16.7588	-0.000572759	   16.7588	   -14.319	
   16.9365	-0.000567192	   16.8431	-0.00056024	   16.8201	-0.000531325	   16.8665	-0.000552919	   16.8665	   -13.823	
   17.0449	-0.000547284	   16.9489	-0.000540414	   16.9257	-0.000511034	   16.9732	-0.000532911	   16.9732	  -13.3228	
   17.1531	-0.000527366	   17.0546	-0.000520393	   17.0305	-0.000490749	   17.0794	-0.000512836	   17.0794	  -12.8209	
   17.2606	-0.000507494	   17.1598	-0.000500422	   17.1356	-0.000470492	   17.1854	-0.000492803	   17.1854	  -12.3201	
   17.3675	-0.00048755	   17.2648	-0.000480563	   17.2402	-0.000450203	   17.2908	-0.000472772	   17.2908	  -11.8193	
   17.4734	-0.000467472	   17.3689	-0.000460653	   17.3445	-0.000429809	   17.3956	-0.000452645	   17.3956	  -11.3161	
   17.5784	-0.000447343	   17.4727	-0.000440561	   17.4481	-0.000409341	   17.4997	-0.000432415	   17.4997	  -10.8104	
   17.6825	-0.000427237	    17.576	-0.000420369	   17.5502	-0.000388875	   17.6029	-0.00041216	   17.6029	   -10.304	
   17.7859	-0.000407117	   17.6787	-0.000400267	   17.6516	-0.000368433	   17.7054	-0.000391939	   17.7054	  -9.79847	
   17.8881	-0.0003869	   17.7807	-0.000380237	   17.7528	-0.000347906	   17.8072	-0.000371681	   17.8072	  -9.29203	
   17.9898	-0.000366589	   17.8825	-0.000360116	   17.8536	-0.000327238	   17.9086	-0.000351314	   17.9086	  -8.78286	
   18.0905	-0.000346279	    17.983	-0.000339846	   17.9539	-0.000306527	   18.0091	-0.000330884	   18.0091	   -8.2721	
   18.1902	-0.00032603	   18.0832	-0.000319564	   18.0533	-0.00028588	   18.1089	-0.000310491	   18.1089	  -7.76229	
   18.2893	-0.000305765	   18.1828	-0.000299379	   18.1522	-0.00026524	   18.2081	-0.000290128	   18.2081	   -7.2532	
   18.3875	-0.000285397	   18.2815	-0.000279225	   18.2509	-0.000244501	   18.3066	-0.000269708	   18.3066	  -6.74269	
   18.4851	-0.000264958	     18.38	-0.000258965	   18.3488	-0.000223698	   18.4046	-0.000249207	   18.4046	  -6.23017	
   18.5819	-0.000244556	    18.478	-0.000238603	   18.4463	-0.000202926	   18.5021	-0.000228695	   18.5021	  -5.71737	
   18.6776	-0.000224212	   18.5752	-0.000218279	   18.5429	-0.000182202	   18.5986	-0.000208231	   18.5986	  -5.20577	
   18.7722	-0.000203841	   18.6716	-0.000198048	   18.6386	-0.000161422	   18.6942	-0.00018777	   18.6942	  -4.69426	
   18.8659	-0.000183369	   18.7673	-0.000177802	   18.7333	-0.000140538	   18.7888	-0.000167236	   18.7888	  -4.18091	
   18.9588	-0.000162839	   18.8623	-0.000157443	   18.8273	-0.000119643	   18.8828	-0.000146642	   18.8828	  -3.66604	
    19.051	-0.000142346	   18.9564	-0.000137031	   18.9204	-9.8835e-05	   18.9759	-0.00012607	   18.9759	  -3.15176	
   19.1427	-0.000121912	   19.0499	-0.000116688	   19.0129	-7.80791e-05	   19.0685	-0.00010556	   19.0685	  -2.63899	
   19.2337	-0.000101462	   19.1426	-9.64037e-05	   19.1043	-5.72635e-05	   19.1602	-8.50432e-05	   19.1602	  -2.12608	
   19.3241	-8.09555e-05	   19.2347	-7.60583e-05	   19.1947	-3.63655e-05	   19.2512	-6.44598e-05	   19.2512	  -1.61149	
   19.4138	-6.04326e-05	   19.3264	-5.56097e-05	   19.2846	-1.54856e-05	   19.3416	-4.38426e-05	   19.3416	  -1.09607	
   19.5026	-3.99397e-05	   19.4174	-3.51495e-05	   19.3735	5.2996e-06	   19.4312	-2.32632e-05	   19.4312	  -0.58158	
   19.5904	-1.946e-05	   19.5075	-1.47633e-05	   19.4614	2.60528e-05	   19.5198	-2.72348e-06	   19.5198	-0.0680871	
   19.6773	1.05184e-06	    19.597	5.59621e-06	   19.5486	4.68664e-05	   19.6076	1.78382e-05	   19.6076	  0.445954	
   19.7638	2.15995e-05	   19.6858	2.60335e-05	   19.6349	6.76994e-05	   19.6948	3.84441e-05	   19.6948	  0.961104	
   19.8497	4.21432e-05	   19.7741	4.65363e-05	   19.7203	8.84576e-05	   19.7813	5.90457e-05	   19.7813	   1.47614	
   19.9349	6.26595e-05	   19.8616	6.69904e-05	   19.8049	0.000109163	   19.8671	7.96044e-05	   19.8671	   1.99011	
   20.0192	8.31705e-05	   19.9481	8.73324e-05	    19.889	0.000129909	   19.9521	0.000100137	   19.9521	   2.50344	
   20.1028	0.000103707	   20.0333	0.000107651	   19.9722	0.000150686	   20.0361	0.000120681	   20.0361	   3.01703	
   20.1854	0.000124252	   20.1174	0.000128063	   20.0544	0.000171393	   20.1191	0.000141236	   20.1191	    3.5309	
   20.2673	0.000144757	   20.2008	0.000148573	   20.1358	0.000191997	   20.2013	0.000161776	   20.2013	   4.04439	
   20.3479	0.000165216	   20.2833	0.000169036	   20.2167	0.000212553	   20.2826	0.000182268	   20.2826	   4.55671	
   20.4278	0.000185675	    20.365	0.00018938	   20.2966	0.000233192	   20.3631	0.000202749	   20.3631	   5.06872	
   20.5066	0.00020616	   20.4463	0.00020972	   20.3761	0.000253914	    20.443	0.000223265	    20.443	   5.58161	
    20.585	0.000226545	   20.5268	0.000230184	   20.4548	0.000274566	   20.5222	0.000243765	   20.5222	   6.09413	
   20.6627	0.000246906	   20.6062	0.000250714	   20.5323	0.000295068	   20.6004	0.00026423	   20.6004	   6.60574	
   20.7401	0.000267377	   20.6845	0.000271155	   20.6092	0.000315519	   20.6779	0.000284684	   20.6779	   7.11709	
   20.8165	0.000287875	   20.7617	0.000291493	   20.6853	0.000336036	   20.7545	0.000305135	   20.7545	   7.62837	
   20.8921	0.000308215	   20.8382	0.000311855	    20.761	0.000356597	   20.8304	0.000325555	   20.8304	   8.13889	
   20.9671	0.000328384	   20.9134	0.000332315	   20.8361	0.000377077	   20.9055	0.000345925	   20.9055	   8.64813	
   21.0411	0.000348556	   20.9879	0.00035274	   20.9104	0.000397435	   20.9798	0.000366244	   20.9798	   9.15609	
   21.1141	0.000368845	   21.0616	0.000373045	   20.9839	0.000417762	   21.0532	0.000386551	   21.0532	   9.66376	
   21.1862	0.000389139	   21.1338	0.000393349	   21.0568	0.000438134	   21.1256	0.000406874	   21.1256	   10.1718	
   21.2575	0.000409267	   21.2044	0.000413733	   21.1289	0.000458496	   21.1969	0.000427165	   21.1969	   10.6791	
   21.3284	0.000429266	   21.2745	0.000434134	      21.2	0.000478753	   21.2676	0.000447385	   21.2676	   11.1846	
   21.3983	0.000449295	   21.3434	0.000454418	   21.2702	0.000498912	   21.3373	0.000467542	   21.3373	   11.6885	
   21.4677	0.000469398	   21.4117	0.000474602	   21.3399	0.000519066	   21.4064	0.000487689	   21.4064	   12.1922	
   21.5361	0.000489443	   21.4791	0.000494801	   21.4084	0.000539259	   21.4745	0.000507834	   21.4745	   12.6959	
   21.6034	0.000509331	   21.5458	0.000515043	   21.4762	0.000559417	   21.5418	0.00052793	   21.5418	   13.1983	
   21.6697	0.000529122	    21.612	0.00053522	   21.5433	0.000579466	   21.6083	0.000547936	   21.6083	   13.6984	
   21.7348	0.000548957	   21.6777	0.000555257	   21.6094	0.000599443	    21.674	0.000567886	    21.674	   14.1971	
    21.799	0.000568831	   21.7429	0.000575195	   21.6746	0.00061943	   21.7388	0.000587818	   21.7388	   14.6955	
   21.8623	0.000588599	   21.8068	0.00059517	   21.7387	0.000639422	   21.8026	0.00060773	   21.8026	   15.1933	
   21.9248	0.000608178	   21.8691	0.000615181	   21.8017	0.000659339	   21.8652	0.000627566	   21.8652	   15.6891	
   21.9862	0.000627708	   21.9309	0.000635087	   21.8639	0.000679139	    21.927	0.000647311	    21.927	   16.1828	
   22.0474	0.000647329	   21.9923	0.000654823	   21.9252	0.000698883	   21.9883	0.000667012	   21.9883	   16.6753	
   22.1079	0.000666948	   22.0524	0.000674505	   21.9857	0.000718635	   22.0487	0.000686696	   22.0487	   17.1674	
   22.1671	0.000686405	   22.1116	0.000694214	   22.0452	0.000738345	    22.108	0.000706322	    22.108	    17.658	
   22.2251	0.000705683	   22.1703	0.000713902	   22.1039	0.000757931	   22.1664	0.000725839	   22.1664	    18.146	
   22.2824	0.000724929	   22.2281	0.000733476	    22.162	0.000777398	   22.2242	0.000745268	   22.2242	   18.6317	
   22.3388	0.000744226	   22.2854	0.000752911	   22.2186	0.000796827	   22.2809	0.000764654	   22.2809	   19.1164	
   22.3945	0.000763495	   22.3423	0.000772295	   22.2742	0.000816249	    22.337	0.000784013	    22.337	   19.6003	
   22.4491	0.000782592	   22.3981	0.000791668	    22.329	0.000835586	   22.3921	0.000803282	   22.3921	   20.0821	
    22.503	0.00080155	    22.453	0.000810986	   22.3825	0.000854786	   22.4462	0.000822441	   22.4462	    20.561	
   22.5562	0.000820484	   22.5069	0.000830193	   22.4352	0.000873885	   22.4994	0.000841521	   22.4994	    21.038	
   22.6082	0.000839412	   22.5599	0.000849285	   22.4876	0.000892957	   22.5519	0.000860551	   22.5519	   21.5138	
   22.6598	0.000858219	   22.6122	0.00086832	    22.539	0.000911993	   22.6036	0.000879511	   22.6036	   21.9878	
   22.7105	0.000876907	   22.6636	0.000887315	   22.5894	0.000930906	   22.6545	0.000898376	   22.6545	   22.4594	
   22.7605	0.000895558	   22.7145	0.000906238	   22.6384	0.000949638	   22.7044	0.000917145	   22.7044	   22.9286	
   22.8094	0.000914193	   22.7642	0.000925068	   22.6863	0.000968297	   22.7533	0.000935853	   22.7533	   23.3963	
    22.857	0.000932739	   22.8131	0.000943818	   22.7322	0.000986999	   22.8008	0.000954518	   22.8008	    23.863	
   22.9036	0.000951139	    22.861	0.000962493	   22.7772	0.00100569	   22.8472	0.000973106	   22.8472	   24.3276	
   22.9491	0.000969485	   22.9078	0.000981087	   22.8222	0.00102417	    22.893	0.00099158	    22.893	   24.7895	
    22.994	0.000987799	   22.9534	0.000999594	    22.867	0.00104242	   22.9382	0.00100994	   22.9382	   25.2485	
   23.0385	0.00100596	   22.9977	0.00101802	    22.911	0.00106059	   22.9824	0.00102819	   22.9824	   25.7047	
   23.0817	0.00102397	   23.0408	0.00103636	   22.9544	0.00107878	   23.0256	0.00104637	   23.0256	   26.1592	
   23.1241	0.00104201	   23.0831	 0.0010546	   22.9968	 0.0010969	    23.068	0.00106451	    23.068	   26.6126	
   23.1657	 0.0010601	   23.1245	0.00107276	   23.0378	0.00111484	   23.1093	0.00108256	   23.1093	   27.0641	
   23.2061	0.00107809	   23.1646	0.00109084	   23.0782	0.00113264	   23.1496	0.00110052	   23.1496	   27.5131	
   23.2454	0.00109586	    23.204	0.00110882	   23.1177	0.00115044	    23.189	0.00111838	    23.189	   27.9594	
   23.2834	0.00111349	   23.2427	0.00112672	   23.1556	 0.0011682	   23.2272	0.00113614	   23.2272	   28.4034	
   23.3206	0.00113113	   23.2803	0.00114452	   23.1916	0.00118582	   23.2642	0.00115382	   23.2642	   28.8456	
   23.3568	 0.0011488	   23.3174	0.00116223	   23.2271	0.00120326	   23.3004	0.00117143	   23.3004	   29.2857	
   23.3922	0.00116636	   23.3535	0.00117984	   23.2621	0.00122062	   23.3359	0.00118894	   23.3359	   29.7235	
   23.4267	0.00118376	   23.3887	0.00119735	   23.2958	0.00123797	   23.3704	0.00120636	   23.3704	    30.159	
   23.4602	0.00120102	   23.4235	0.00121477	    23.329	0.00125523	   23.4042	0.00122368	   23.4042	   30.5919	
   23.4927	0.00121823	   23.4574	0.00123208	   23.3618	0.00127231	   23.4373	0.00124088	   23.4373	   31.0219	
   23.5248	0.00123543	     23.49	 0.0012493	   23.3934	0.00128922	   23.4694	0.00125798	   23.4694	   31.4496	
   23.5559	0.00125254	   23.5215	0.00126642	    23.424	0.00130608	   23.5005	0.00127501	   23.5005	   31.8753	
    23.586	 0.0012695	    23.552	0.00128344	   23.4538	 0.0013229	   23.5306	0.00129195	   23.5306	   32.2987	
   23.6154	0.00128635	   23.5812	0.00130036	   23.4831	0.00133961	   23.5599	0.00130877	   23.5599	   32.7193	
    23.644	0.00130315	   23.6089	0.00131718	   23.5115	0.00135613	   23.5881	0.00132549	   23.5881	   33.1371	
   23.6718	0.00131989	    23.636	0.00133389	   23.5399	0.00137253	   23.6159	 0.0013421	   23.6159	   33.5526	
   23.6991	0.00133653	   23.6625	0.00135049	    23.567	0.00138889	   23.6429	0.00135864	   23.6429	   33.9659	
   23.7255	0.00135303	   23.6881	  0.001367	   23.5929	0.00140519	   23.6688	0.00137507	   23.6688	   34.3767	
   23.7508	0.00136943	    23.713	0.00138339	   23.6181	0.00142134	   23.6939	0.00139139	   23.6939	   34.7847	
    23.775	0.00138577	   23.7371	0.00139967	   23.6425	0.00143733	   23.7182	0.00140759	   23.7182	   35.1898	
   23.7981	0.00140204	   23.7602	0.00141584	   23.6659	0.00145324	   23.7414	0.00142371	   23.7414	   35.5926	
   23.8204	0.00141819	   23.7822	0.00143191	   23.6882	0.00146909	   23.7636	0.00143973	   23.7636	   35.9932	
   23.8421	0.00143423	   23.8029	0.00144788	   23.7099	0.00148486	    23.785	0.00145565	    23.785	   36.3914	
   23.8627	0.00145025	   23.8229	0.00146373	   23.7307	0.00150048	   23.8054	0.00147149	   23.8054	   36.7872	
   23.8825	0.00146616	    23.842	0.00147947	   23.7501	0.00151597	   23.8248	 0.0014872	   23.8248	     37.18	
   23.9038	0.00148183	     23.86	0.00149511	   23.7686	0.00153138	   23.8441	0.00150278	   23.8441	   37.5694	
   23.9246	0.00149736	   23.8775	0.00151068	   23.7862	0.00154674	   23.8627	0.00151826	   23.8627	   37.9565	
    23.942	0.00151298	   23.8937	0.00152613	   23.8031	0.00156199	   23.8796	 0.0015337	   23.8796	   38.3424	
   23.9567	0.00152861	   23.9086	 0.0015414	   23.8187	0.00157708	   23.8947	0.00154903	   23.8947	   38.7258	
   23.9704	0.00154403	    23.923	0.00155654	   23.8331	0.00159204	   23.9088	 0.0015642	   23.9088	   39.1051	
   23.9841	0.00155916	    23.936	0.00157163	   23.8465	0.00160691	   23.9222	0.00157924	   23.9222	   39.4809	
   23.9971	0.00157421	   23.9477	0.00158663	   23.8593	0.00162174	   23.9347	 0.0015942	   23.9347	   39.8549	
   24.0099	0.00158932	   23.9585	0.00160143	   23.8713	0.00163648	   23.9465	0.00160908	   23.9465	   40.2269	
   24.0221	0.00160439	   23.9681	  0.001616	   23.8821	0.00165108	   23.9574	0.00162382	   23.9574	   40.5956	
   24.0328	0.00161918	   23.9769	0.00163047	   23.8919	0.00166557	   23.9672	 0.0016384	   23.9672	   40.9601	
   24.0423	 0.0016337	   23.9846	0.00164493	   23.9004	0.00167997	   23.9758	0.00165287	   23.9758	   41.3217	
   24.0507	 0.0016482	   23.9916	0.00165932	   23.9081	0.00169424	   23.9835	0.00166725	   23.9835	   41.6814	
   24.0578	 0.0016628	   23.9979	0.00167348	    23.915	0.00170838	   23.9902	0.00168155	   23.9902	   42.0388	
   24.0637	0.00167731	   24.0027	0.00168742	   23.9213	 0.0017224	   23.9959	0.00169571	   23.9959	   42.3928	
   24.0687	0.00169155	   24.0066	0.00170128	   23.9268	0.00173633	   24.0007	0.00170972	   24.0007	    42.743	
   24.0724	0.00170555	   24.0091	0.00171513	   23.9314	0.00175016	   24.0043	0.00172361	   24.0043	   43.0903	
   24.0752	0.00171951	   24.0107	0.00172886	   23.9349	0.00176387	   24.0069	0.00173742	   24.0069	   43.4354	
   24.0773	 0.0017335	   24.0113	0.00174239	   23.9376	0.00177743	   24.0088	0.00175111	   24.0088	   43.7776	
   24.0789	0.00174733	   24.0107	0.00175575	   23.9395	0.00179087	   24.0097	0.00176465	   24.0097	   44.1162	
   24.0796	 0.0017609	   24.0092	0.00176905	   23.9404	0.00180422	   24.0098	0.00177805	   24.0098	   44.4513	
   24.0796	0.00177428	    24.007	0.00178231	   23.9405	0.00181746	    24.009	0.00179135	    24.009	   44.7838	
   24.0786	0.00178763	   24.0037	0.00179545	   23.9399	0.00183057	   24.0074	0.00180455	   24.0074	   45.1137	
    24.077	0.00180095	   23.9996	0.00180839	   23.9383	0.00184352	    24.005	0.00181762	    24.005	   45.4404	
   24.0744	0.00181409	   23.9949	0.00182122	   23.9355	0.00185636	   24.0016	0.00183056	   24.0016	   45.7639	
   24.0706	0.00182699	   23.9897	0.00183404	   23.9318	0.00186911	   23.9974	0.00184338	   23.9974	   46.0845	
   24.0656	0.00183976	   23.9835	0.00184677	   23.9271	0.00188175	   23.9921	 0.0018561	   23.9921	   46.4024	
   24.0597	0.00185253	    23.976	 0.0018593	   23.9211	0.00189424	   23.9856	0.00186869	   23.9856	   46.7172	
   24.0528	0.00186526	   23.9675	 0.0018717	   23.9144	0.00190659	   23.9782	0.00188118	   23.9782	   47.0296	
   24.0449	0.00187782	   23.9583	0.00188408	   23.9065	0.00191885	   23.9699	0.00189358	   23.9699	   47.3396	
   24.0375	0.00189011	   23.9479	0.00189644	   23.8977	0.00193105	    23.961	0.00190586	    23.961	   47.6466	
   24.0299	0.00190224	   23.9366	0.00190861	    23.888	0.00194312	   23.9515	0.00191799	   23.9515	   47.9497	
   24.0204	0.00191442	   23.9245	0.00192058	   23.8771	0.00195496	   23.9407	0.00192998	   23.9407	   48.2496	
   24.0083	0.00192663	   23.9113	0.00193245	   23.8652	0.00196661	   23.9282	 0.0019419	   23.9282	   48.5475	
    23.995	0.00193866	   23.8973	0.00194434	   23.8521	0.00197832	   23.9148	0.00195377	   23.9148	   48.8444	
   23.9814	0.00195039	   23.8824	0.00195612	   23.8383	 0.0019901	   23.9007	0.00196554	   23.9007	   49.1385	
   23.9671	0.00196196	   23.8664	0.00196765	   23.8233	0.00200171	   23.8856	0.00197711	   23.8856	   49.4276	
   23.9522	0.00197357	   23.8494	  0.001979	   23.8074	0.00201296	   23.8697	0.00198851	   23.8697	   49.7128	
   23.9364	0.00198519	   23.8318	0.00199038	   23.7904	0.00202406	   23.8528	0.00199987	   23.8528	   49.9968	
    23.919	0.00199662	   23.8134	0.00200178	   23.7726	0.00203524	    23.835	0.00201121	    23.835	   50.2802	
   23.9007	0.00200779	   23.7939	  0.002013	   23.7541	0.00204644	   23.8162	0.00202241	   23.8162	   50.5603	
   23.8814	0.00201887	   23.7735	0.00202395	   23.7346	0.00205743	   23.7965	0.00203342	   23.7965	   50.8355	
   23.8613	0.00202999	   23.7523	 0.0020348	   23.7139	0.00206813	   23.7759	0.00204431	   23.7759	   51.1077	
     23.84	0.00204107	   23.7299	0.00204568	   23.6923	0.00207875	   23.7541	0.00205516	   23.7541	   51.3791	
   23.8173	 0.0020519	   23.7069	0.00205653	     23.67	0.00208947	   23.7314	0.00206597	   23.7314	   51.6491	
   23.7934	 0.0020625	   23.6831	0.00206717	    23.647	0.00210016	   23.7079	0.00207661	   23.7079	   51.9152	
   23.7685	0.00207305	   23.6587	0.00207759	    23.623	0.00211053	   23.6834	0.00208706	   23.6834	   52.1765	
   23.7426	0.00208362	   23.6331	0.00208795	   23.5981	0.00212067	   23.6579	0.00209741	   23.6579	   52.4354	
    23.716	0.00209412	   23.6067	0.00209832	    23.572	0.00213087	   23.6316	0.00210777	   23.6316	   52.6942	
   23.6883	0.00210439	   23.5795	0.00210859	   23.5448	0.00214117	   23.6042	0.00211805	   23.6042	   52.9513	
   23.6602	0.00211445	   23.5514	0.00211865	   23.5165	0.00215132	    23.576	0.00212814	    23.576	   53.2035	
   23.6315	0.00212447	   23.5224	0.00212854	   23.4876	0.00216116	   23.5472	0.00213805	   23.5472	   53.4514	
   23.6018	0.00213447	   23.4927	0.00213841	   23.4581	0.00217076	   23.5175	0.00214788	   23.5175	    53.697	
   23.5712	0.00214435	   23.4621	0.00214829	   23.4277	0.00218045	    23.487	0.00215769	    23.487	   53.9424	
   23.5392	0.00215407	    23.431	0.00215812	   23.3965	0.00219028	   23.4556	0.00216749	   23.4556	   54.1872	
   23.5058	0.00216368	   23.3983	0.00216781	   23.3638	0.00219991	   23.4226	0.00217714	   23.4226	   54.4284	
   23.4714	0.00217327	   23.3645	0.00217728	   23.3299	0.00220911	   23.3886	0.00218655	   23.3886	   54.6638	
   23.4363	 0.0021828	   23.3294	0.00218658	   23.2951	0.00221808	   23.3536	0.00219582	   23.3536	   54.8954	
   23.4001	0.00219216	   23.2931	0.00219585	   23.2592	0.00222718	   23.3174	0.00220506	   23.3174	   55.1266	
    23.363	0.00220138	   23.2562	0.00220512	   23.2222	0.00223637	   23.2805	0.00221429	   23.2805	   55.3572	
   23.3247	0.00221051	    23.218	0.00221425	   23.1843	0.00224532	   23.2423	0.00222336	   23.2423	   55.5841	
   23.2854	0.00221959	   23.1787	0.00222317	   23.1455	0.00225394	   23.2032	0.00223223	   23.2032	   55.8058	
   23.2452	0.00222858	   23.1387	0.00223193	    23.106	0.00226248	   23.1633	  0.002241	   23.1633	   56.0249	
   23.2042	0.00223741	   23.0982	0.00224066	   23.0656	0.00227108	   23.1226	0.00224972	   23.1226	    56.243	
   23.1621	0.00224611	    23.057	0.00224935	   23.0244	0.00227962	   23.0812	0.00225836	   23.0812	   56.4589	
   23.1191	0.00225473	   23.0149	0.00225788	   22.9823	0.00228793	   23.0388	0.00226685	   23.0388	   56.6711	
   23.0751	0.00226329	   22.9722	0.00226622	   22.9392	0.00229605	   22.9955	0.00227519	   22.9955	   56.8797	
   23.0298	0.00227174	   22.9286	0.00227444	   22.8949	0.00230414	   22.9511	0.00228344	   22.9511	    57.086	
   22.9835	0.00228002	   22.8842	0.00228263	   22.8499	0.00231218	   22.9059	0.00229161	   22.9059	   57.2903	
   22.9364	0.00228822	   22.8388	0.00229076	   22.8044	0.00232004	   22.8599	0.00229967	   22.8599	   57.4918	
   22.8881	0.00229636	   22.7925	0.00229871	   22.7575	0.00232771	   22.8127	0.00230759	   22.8127	   57.6898	
   22.8388	0.00230441	   22.7449	 0.0023065	   22.7097	 0.0023353	   22.7645	 0.0023154	   22.7645	   57.8851	
    22.789	0.00231232	   22.6965	 0.0023142	   22.6606	0.00234295	   22.7154	0.00232316	   22.7154	   58.0789	
   22.7387	0.00232012	   22.6466	0.00232187	   22.6106	0.00235052	   22.6653	0.00233084	   22.6653	   58.2709	
    22.688	0.00232784	   22.5954	0.00232944	   22.5599	0.00235785	   22.6144	0.00233838	   22.6144	   58.4594	
   22.6364	0.00233551	   22.5431	0.00233684	    22.508	  0.002365	   22.5625	0.00234578	   22.5625	   58.6445	
   22.5839	0.00234307	   22.4901	 0.0023441	   22.4555	0.00237216	   22.5098	0.00235311	   22.5098	   58.8277	
   22.5306	 0.0023505	   22.4362	0.00235128	   22.4016	0.00237936	   22.4562	0.00236038	   22.4562	   59.0095	
   22.4764	0.00235782	   22.3818	0.00235839	   22.3465	0.00238645	   22.4016	0.00236755	   22.4016	   59.1888	
    22.421	0.00236502	   22.3258	0.00236538	   22.2901	0.00239331	   22.3456	0.00237457	   22.3456	   59.3642	
   22.3645	0.00237215	    22.269	0.00237221	   22.2327	0.00240005	   22.2887	0.00238147	   22.2887	   59.5368	
   22.3063	0.00237925	   22.2111	0.00237891	   22.1748	0.00240681	   22.2307	0.00238832	   22.2307	   59.7081	
   22.2464	0.00238627	   22.1523	 0.0023855	   22.1165	0.00241358	   22.1717	0.00239512	   22.1717	   59.8779	
   22.1866	0.00239316	   22.0925	 0.0023921	   22.0568	 0.0024202	   22.1119	0.00240182	   22.1119	   60.0455	
   22.1267	0.00239991	   22.0315	0.00239877	   21.9962	0.00242662	   22.0515	0.00240843	   22.0515	   60.2107	
    22.067	0.00240656	   21.9696	0.00240529	   21.9346	0.00243295	   21.9904	0.00241493	   21.9904	   60.3734	
   22.0073	0.00241317	   21.9066	0.00241149	   21.8723	0.00243931	   21.9287	0.00242133	   21.9287	   60.5331	
    21.946	0.00241976	   21.8431	0.00241751	   21.8093	0.00244563	   21.8661	0.00242763	   21.8661	   60.6909	
   21.8833	0.00242623	   21.7785	0.00242362	   21.7459	0.00245177	   21.8026	0.00243387	   21.8026	   60.8469	
   21.8194	0.00243254	   21.7129	0.00242981	   21.6817	0.00245774	    21.738	0.00244003	    21.738	   61.0008	
   21.7546	0.00243875	   21.6464	0.00243583	   21.6167	0.00246368	   21.6726	0.00244608	   21.6726	   61.1521	
   21.6891	0.00244487	   21.5792	0.00244159	   21.5506	0.00246963	   21.6063	0.00245203	   21.6063	   61.3007	
   21.6222	0.00245095	   21.5114	0.00244726	   21.4835	 0.0024755	    21.539	 0.0024579	    21.539	   61.4476	
   21.5541	0.00245698	   21.4428	0.00245296	   21.4153	0.00248119	   21.4707	0.00246371	   21.4707	   61.5927	
    21.485	0.00246292	   21.3731	 0.0024586	   21.3465	0.00248674	   21.4015	0.00246942	   21.4015	   61.7355	
   21.4149	0.00246874	   21.3021	0.00246411	   21.2769	0.00249229	   21.3313	0.00247505	   21.3313	   61.8761	
   21.3439	0.00247443	   21.2305	0.00246946	   21.2065	0.00249784	   21.2603	0.00248058	   21.2603	   62.0144	
   21.2721	0.00248003	    21.158	0.00247475	   21.1353	0.00250325	   21.1884	0.00248601	   21.1884	   62.1503	
   21.1996	0.00248562	   21.0847	   0.00248	   21.0633	0.00250848	   21.1159	0.00249136	   21.1159	   62.2841	
   21.1257	0.00249119	   21.0103	0.00248516	   20.9905	0.00251361	   21.0421	0.00249665	   21.0421	   62.4163	
   21.0514	0.00249664	    20.935	0.00249015	   20.9172	0.00251876	   20.9679	0.00250185	   20.9679	   62.5463	
   20.9766	0.00250192	   20.8589	0.00249503	   20.8426	0.00252385	   20.8927	0.00250693	   20.8927	   62.6734	
   20.9008	0.00250708	   20.7815	 0.0024999	   20.7675	0.00252878	   20.8166	0.00251192	   20.8166	   62.7981	
   20.8238	0.00251222	   20.7032	0.00250475	   20.6914	0.00253355	   20.7395	0.00251684	   20.7395	   62.9209	
   20.7463	0.00251734	   20.6245	0.00250943	   20.6145	0.00253825	   20.6618	0.00252167	   20.6618	   63.0418	
   20.6684	0.00252236	   20.5447	0.00251394	    20.537	0.00254294	   20.5834	0.00252641	   20.5834	   63.1603	
   20.5891	0.00252722	   20.4641	 0.0025184	   20.4586	0.00254754	   20.5039	0.00253105	   20.5039	   63.2763	
   20.5091	0.00253198	   20.3825	0.00252286	   20.3789	0.00255195	   20.4235	0.00253559	   20.4235	   63.3899	
   20.4279	0.00253669	   20.2997	0.00252724	   20.2986	0.00255625	   20.3421	0.00254006	   20.3421	   63.5015	
   20.3454	0.00254143	   20.2163	0.00253146	   20.2175	0.00256055	   20.2597	0.00254448	   20.2597	    63.612	
   20.2613	0.00254609	   20.1325	0.00253557	   20.1357	0.00256481	   20.1765	0.00254882	   20.1765	   63.7206	
   20.1762	0.00255056	   20.0482	 0.0025397	   20.0531	0.00256892	   20.0925	0.00255306	   20.0925	   63.8265	
   20.0905	0.00255489	   19.9629	0.00254382	   19.9699	0.00257284	   20.0078	0.00255718	   20.0078	   63.9296	
    20.005	 0.0025592	    19.877	0.00254785	   19.8858	0.00257666	   19.9226	0.00256124	   19.9226	    64.031	
   19.9191	0.00256352	   19.7903	0.00255173	   19.8011	0.00258046	   19.8368	0.00256524	   19.8368	   64.1309	
    19.832	0.00256771	   19.7025	0.00255553	   19.7154	 0.0025842	     19.75	0.00256915	     19.75	   64.2287	
   19.7443	0.00257178	   19.6141	0.00255934	   19.6292	 0.0025878	   19.6625	0.00257298	   19.6625	   64.3244	
    19.656	0.00257578	   19.5252	0.00256316	   19.5418	0.00259127	   19.5743	0.00257674	   19.5743	   64.4185	
   19.5666	0.00257975	   19.4363	0.00256688	   19.4533	0.00259469	   19.4854	0.00258044	   19.4854	    64.511	
   19.4761	0.00258361	   19.3465	0.00257046	   19.3638	0.00259808	   19.3954	0.00258405	   19.3954	   64.6012	
   19.3852	0.00258733	   19.2562	0.00257398	   19.2734	0.00260135	   19.3049	0.00258756	   19.3049	   64.6889	
   19.2931	0.00259098	   19.1649	0.00257752	   19.1824	0.00260448	   19.2135	0.00259099	   19.2135	   64.7748	
   19.2006	0.00259456	   19.0729	0.00258101	   19.0907	0.00260753	   19.1214	0.00259437	   19.1214	   64.8592	
   19.1072	 0.0025981	   18.9803	0.00258438	   18.9979	0.00261056	   19.0284	0.00259768	   19.0284	   64.9419	
    19.013	0.00260157	   18.8865	0.00258763	   18.9043	0.00261351	   18.9346	 0.0026009	   18.9346	   65.0226	
    18.918	0.00260495	   18.7921	0.00259086	   18.8097	0.00261632	     18.84	0.00260404	     18.84	    65.101	
   18.8221	0.00260823	   18.6969	0.00259409	   18.7145	0.00261899	   18.7445	0.00260711	   18.7445	   65.1777	
   18.7252	0.00261142	   18.6005	0.00259725	   18.6191	0.00262164	   18.6483	 0.0026101	   18.6483	   65.2525	
   18.6275	0.00261452	   18.5034	0.00260028	    18.523	 0.0026243	   18.5513	0.00261303	   18.5513	   65.3258	
    18.529	0.00261758	   18.4054	0.00260323	   18.4261	0.00262688	   18.4535	 0.0026159	   18.4535	   65.3974	
   18.4297	0.00262058	   18.3064	0.00260616	   18.3283	0.00262931	   18.3548	0.00261868	   18.3548	   65.4671	
   18.3295	0.00262348	   18.2067	0.00260901	   18.2297	0.00263168	   18.2553	0.00262139	   18.2553	   65.5348	
   18.2287	 0.0026263	   18.1065	0.00261175	     18.13	0.00263403	   18.1551	0.00262403	   18.1551	   65.6007	
   18.1267	0.00262906	   18.0053	0.00261444	   18.0292	0.00263629	   18.0537	0.00262659	   18.0537	   65.6649	
   18.0241	0.00263175	   17.9033	0.00261714	   17.9276	0.00263843	   17.9517	0.00262911	   17.9517	   65.7277	
   17.9209	0.00263439	   17.8004	0.00261981	   17.8249	0.00264049	   17.8487	0.00263156	   17.8487	   65.7891	
   17.8169	0.00263694	   17.6969	0.00262241	   17.7215	0.00264255	   17.7451	0.00263397	   17.7451	   65.8492	
   17.7122	0.00263942	   17.5926	0.00262488	   17.6173	0.00264462	   17.6407	 0.0026363	   17.6407	   65.9075	
   17.6067	0.00264182	   17.4874	0.00262728	   17.5126	0.00264656	   17.5355	0.00263856	   17.5355	   65.9639	
   17.5007	0.00264417	   17.3811	0.00262971	   17.4069	0.00264834	   17.4295	0.00264074	   17.4295	   66.0184	
   17.3938	0.00264645	   17.2745	0.00263211	   17.3006	0.00265004	    17.323	0.00264287	    17.323	   66.0717	
   17.2867	0.00264864	   17.1675	 0.0026344	   17.1932	0.00265181	   17.2158	0.00264495	   17.2158	   66.1237	
   17.1788	0.00265076	   17.0595	0.00263654	   17.0855	0.00265358	   17.1079	0.00264696	   17.1079	    66.174	
   17.0705	0.00265283	   16.9512	0.00263864	   16.9784	0.00265513	        17	0.00264887	        17	   66.2217	
   16.9613	0.00265484	   16.8422	0.00264074	   16.8711	0.00265648	   16.8915	0.00265069	   16.8915	   66.2672	
   16.8514	0.00265678	   16.7327	0.00264278	   16.7622	0.00265791	   16.7821	0.00265249	   16.7821	   66.3123	
    16.741	0.00265865	   16.6224	0.00264469	   16.6505	0.00265948	   16.6713	0.00265427	   16.6713	   66.3568	
   16.6302	0.00266045	   16.5113	0.00264645	    16.538	0.00266089	   16.5598	0.00265593	   16.5598	   66.3983	
   16.5189	0.00266219	   16.3999	0.00264818	   16.4259	0.00266198	   16.4482	0.00265745	   16.4482	   66.4363	
   16.4065	0.00266388	   16.2881	0.00264995	   16.3139	0.00266296	   16.3361	0.00265893	   16.3361	   66.4732	
   16.2938	0.00266545	   16.1753	0.00265163	   16.2017	 0.0026641	   16.2236	0.00266039	   16.2236	   66.5099	
   16.1803	0.00266689	   16.0618	0.00265309	   16.0887	0.00266532	   16.1103	0.00266177	   16.1103	   66.5442	
   16.0661	0.00266831	   15.9481	0.00265439	   15.9748	0.00266631	   15.9963	  0.002663	   15.9963	   66.5751	
   15.9515	0.00266976	   15.8337	0.00265572	   15.8599	0.00266701	   15.8817	0.00266416	   15.8817	    66.604	
   15.8363	0.00267113	   15.7192	 0.0026571	   15.7442	0.00266769	   15.7665	 0.0026653	   15.7665	   66.6326	
   15.7202	0.00267232	   15.6043	0.00265834	   15.6284	0.00266856	    15.651	0.00266641	    15.651	   66.6602	
   15.6032	0.00267338	   15.4888	0.00265932	    15.512	0.00266948	   15.5347	0.00266739	   15.5347	   66.6848	
   15.4859	0.00267445	   15.3727	0.00266021	   15.3948	0.00267014	   15.4178	0.00266827	   15.4178	   66.7067	
   15.3679	0.00267553	   15.2562	 0.0026612	    15.277	0.00267059	   15.3004	0.00266911	   15.3004	   66.7277	
   15.2494	 0.0026765	   15.1395	 0.0026622	   15.1588	0.00267112	   15.1825	0.00266994	   15.1825	   66.7486	
   15.1302	 0.0026773	   15.0227	  0.002663	   15.0401	0.00267181	   15.0643	 0.0026707	   15.0643	   66.7676	
   15.0103	0.00267796	   14.9054	0.00266359	    14.921	 0.0026724	   14.9455	0.00267131	   14.9455	   66.7829	
   14.8903	0.00267861	   14.7873	0.00266417	    14.801	0.00267269	   14.8262	0.00267183	   14.8262	   66.7956	
   14.7695	0.00267932	   14.6686	0.00266482	   14.6802	 0.0026729	   14.7061	0.00267235	   14.7061	   66.8087	
   14.6487	0.00267997	    14.549	0.00266543	   14.5591	0.00267327	   14.5856	0.00267289	   14.5856	   66.8222	
   14.5273	0.00268039	   14.4284	0.00266586	   14.4377	0.00267366	   14.4645	 0.0026733	   14.4645	   66.8325	
   14.4054	0.00268062	   14.3074	 0.0026661	   14.3163	0.00267383	    14.343	0.00267352	    14.343	   66.8379	
   14.2831	0.00268088	   14.1856	 0.0026663	   14.1938	0.00267382	   14.2209	0.00267367	   14.2209	   66.8416	
   14.1597	 0.0026812	    14.063	0.00266655	   14.0712	0.00267387	    14.098	0.00267388	    14.098	   66.8469	
   14.0359	0.00268143	   13.9399	0.00266678	   13.9481	0.00267399	   13.9746	0.00267407	   13.9746	   66.8517	
   13.9114	0.00268144	   13.8163	0.00266687	   13.8243	0.00267402	   13.8507	0.00267411	   13.8507	   66.8528	
   13.7864	0.00268135	   13.6924	0.00266686	   13.6999	0.00267383	   13.7262	0.00267401	   13.7262	   66.8503	
   13.6608	0.00268134	   13.5681	0.00266683	   13.5747	0.00267359	   13.6012	0.00267392	   13.6012	    66.848	
   13.5346	0.00268137	   13.4432	0.00266677	    13.449	0.00267346	   13.4756	0.00267387	   13.4756	   66.8467	
   13.4077	0.00268125	   13.3177	0.00266664	   13.3228	0.00267333	   13.3494	0.00267374	   13.3494	   66.8435	
   13.2803	0.00268095	   13.1918	0.00266639	   13.1959	0.00267304	   13.2227	0.00267346	   13.2227	   66.8366	
   13.1527	0.00268061	   13.0657	0.00266608	   13.0689	0.00267265	   13.0958	0.00267311	   13.0958	   66.8279	
   13.0247	0.00268033	   12.9392	0.00266573	   12.9414	0.00267232	   12.9684	0.00267279	   12.9684	   66.8199	
   12.8961	0.00268001	   12.8121	0.00266533	   12.8133	0.00267205	   12.8405	0.00267247	   12.8405	   66.8116	
    12.767	0.00267951	   12.6848	0.00266484	   12.6849	0.00267171	   12.7122	0.00267202	   12.7122	   66.8004	
   12.6374	0.00267886	    12.557	0.00266425	   12.5559	0.00267118	   12.5835	0.00267143	   12.5835	   66.7858	
   12.5069	0.00267822	   12.4286	0.00266363	   12.4265	0.00267059	    12.454	0.00267081	    12.454	   66.7703	
   12.3762	0.00267765	   12.2999	0.00266297	   12.2968	0.00267006	   12.3243	0.00267023	   12.3243	   66.7557	
    12.245	0.00267697	   12.1702	0.00266224	   12.1665	0.00266955	   12.1939	0.00266959	   12.1939	   66.7396	
   12.1136	0.00267609	   12.0399	0.00266135	    12.036	 0.0026689	   12.0632	0.00266878	   12.0632	   66.7195	
   11.9818	0.00267511	   11.9095	0.00266037	    11.905	 0.0026681	   11.9321	0.00266786	   11.9321	   66.6965	
   11.8495	0.00267419	   11.7788	0.00265941	   11.7734	0.00266726	   11.8005	0.00266695	   11.8005	   66.6738	
   11.7171	0.00267326	   11.6475	0.00265846	   11.6414	0.00266649	   11.6687	0.00266607	   11.6687	   66.6518	
   11.5845	0.00267218	   11.5157	0.00265738	   11.5091	 0.0026657	   11.5364	0.00266509	   11.5364	   66.6272	
   11.4518	0.00267094	   11.3836	0.00265612	   11.3763	0.00266473	   11.4039	0.00266393	   11.4039	   66.5982	
   11.3182	0.00266962	   11.2514	0.00265479	   11.2434	0.00266362	    11.271	0.00266268	    11.271	    66.567	
   11.1848	0.00266835	   11.1182	 0.0026535	     11.11	0.00266252	   11.1377	0.00266146	   11.1377	   66.5364	
   11.0513	0.00266709	   10.9848	0.00265218	   10.9765	0.00266145	   11.0042	0.00266024	   11.0042	    66.506	
   10.9177	0.00266565	   10.8513	0.00265072	   10.8427	0.00266031	   10.8705	0.00265889	   10.8705	   66.4723	
   10.7841	0.00266401	   10.7173	0.00264911	   10.7081	0.00265901	   10.7365	0.00265738	   10.7365	   66.4345	
   10.6497	0.00266232	    10.583	0.00264748	   10.5735	0.00265762	   10.6021	0.00265581	   10.6021	   66.3952	
   10.5146	0.00266067	   10.4484	0.00264586	   10.4383	0.00265624	   10.4671	0.00265425	   10.4671	   66.3564	
   10.3793	0.00265898	   10.3134	0.00264417	   10.3026	0.00265485	   10.3318	0.00265266	   10.3318	   66.3166	
   10.2439	0.00265713	   10.1777	0.00264233	   10.1667	0.00265335	   10.1961	0.00265094	   10.1961	   66.2735	
   10.1087	0.00265511	    10.042	0.00264039	   10.0304	0.00265171	   10.0603	0.00264907	   10.0603	   66.2268	
    9.9724	0.00265303	   9.90563	0.00263846	   9.89375	0.00265002	   9.92393	0.00264717	   9.92393	   66.1793	
   9.83533	0.00265095	   9.76926	0.00263657	   9.75651	0.00264834	   9.78704	0.00264529	   9.78704	   66.1322	
    9.6975	0.00264886	   9.63202	0.00263459	   9.61907	 0.0026466	   9.64953	0.00264335	   9.64953	   66.0838	
   9.55956	0.00264665	   9.49412	0.00263242	   9.48102	0.00264473	   9.51157	0.00264127	   9.51157	   66.0316	
   9.42115	0.00264431	   9.35623	0.00263012	   9.34251	0.00264275	    9.3733	0.00263906	    9.3733	   65.9764	
   9.28201	0.00264192	   9.21766	0.00262784	   9.20342	0.00264073	   9.23436	0.00263683	   9.23436	   65.9207	
   9.14255	0.00263954	   9.07885	0.00262559	   9.06418	0.00263869	   9.09519	 0.0026346	   9.09519	   65.8651	
   9.00258	0.00263711	   8.93958	0.00262324	   8.92477	0.00263655	   8.95564	 0.0026323	   8.95564	   65.8076	
   8.86189	0.00263458	   8.79981	 0.0026207	   8.78529	0.00263428	   8.81566	0.00262985	   8.81566	   65.7462	
   8.72094	0.00263194	   8.66001	0.00261802	   8.64519	 0.0026319	   8.67538	0.00262729	   8.67538	   65.6823	
   8.57976	0.00262929	   8.51963	0.00261539	   8.50514	0.00262949	   8.53484	0.00262472	   8.53484	    65.618	
   8.43833	0.00262661	   8.37861	0.00261281	   8.36466	0.00262704	   8.39386	0.00262215	   8.39386	   65.5538	
   8.29695	0.00262387	   8.23752	0.00261012	   8.22414	0.00262446	   8.25287	0.00261948	   8.25287	   65.4871	
   8.15549	0.00262103	   8.09561	0.00260718	    8.0836	0.00262176	   8.11157	0.00261666	   8.11157	   65.4164	
   8.01363	 0.0026181	   7.95343	0.00260413	   7.94253	0.00261897	   7.96986	0.00261374	   7.96986	   65.3434	
   7.87126	0.00261516	   7.81107	0.00260116	   7.80061	0.00261612	   7.82765	0.00261081	   7.82765	   65.2703	
   7.72833	0.00261224	   7.66843	 0.0025982	   7.65801	0.00261322	   7.68492	0.00260789	   7.68492	   65.1971	
   7.58531	0.00260923	   7.52542	0.00259509	   7.51453	0.00261024	   7.54175	0.00260485	   7.54175	   65.1213	
   7.44234	0.00260604	   7.38236	0.00259179	   7.37065	0.00260717	   7.39845	0.00260167	   7.39845	   65.0417	
   7.29938	0.00260278	   7.23921	0.00258844	   7.22736	  0.002604	   7.25531	0.00259841	   7.25531	   64.9602	
   7.15663	0.00259959	   7.09578	0.00258514	   7.08545	0.00260073	   7.11262	0.00259515	   7.11262	   64.8788	
   7.01339	0.00259644	   6.95184	 0.0025818	   6.94367	0.00259737	   6.96964	0.00259187	   6.96964	   64.7968	
   6.87016	0.00259315	   6.80726	 0.0025783	    6.8017	0.00259394	   6.82637	0.00258847	   6.82637	   64.7116	
   6.72674	0.00258969	    6.6627	0.00257466	   6.65867	0.00259045	    6.6827	0.00258493	    6.6827	   64.6232	
   6.58311	0.00258616	   6.51792	  0.002571	   6.51549	0.00258687	   6.53884	0.00258134	   6.53884	   64.5336	
   6.43922	0.00258267	   6.37239	0.00256738	   6.37235	0.00258318	   6.39465	0.00257775	   6.39465	   64.4436	
   6.29493	0.00257916	    6.2269	0.00256368	   6.22905	 0.0025794	   6.25029	0.00257408	   6.25029	   64.3519	
   6.14981	 0.0025755	   6.08135	 0.0025598	    6.0855	0.00257556	   6.10555	0.00257028	   6.10555	   64.2571	
   6.00436	0.00257167	   5.93623	0.00255581	   5.94159	0.00257166	   5.96073	0.00256638	   5.96073	   64.1595	
   5.85881	 0.0025678	   5.79058	0.00255183	    5.7974	0.00256767	    5.8156	0.00256243	    5.8156	   64.0608	
   5.71316	0.00256397	   5.64413	0.00254782	   5.65287	0.00256357	   5.67005	0.00255846	   5.67005	   63.9614	
   5.56697	 0.0025601	   5.49771	 0.0025437	   5.50818	 0.0025594	   5.52429	 0.0025544	   5.52429	     63.86	
   5.42092	0.00255604	   5.35075	0.00253947	   5.36278	0.00255519	   5.37815	0.00255023	   5.37815	   63.7558	
   5.27411	0.00255184	   5.20379	0.00253515	   5.21685	0.00255092	   5.23158	0.00254597	   5.23158	   63.6492	
   5.12727	0.00254763	   5.05633	 0.0025308	   5.07068	0.00254651	   5.08476	0.00254165	   5.08476	   63.5411	
   4.98009	0.00254346	   4.90872	0.00252637	     4.924	0.00254195	    4.9376	0.00253726	    4.9376	   63.4314	
   4.83269	 0.0025392	   4.76104	0.00252182	   4.77696	0.00253736	   4.79023	0.00253279	   4.79023	   63.3198	
   4.68458	0.00253477	   4.61323	0.00251718	   4.62966	0.00253279	   4.64249	0.00252825	   4.64249	   63.2062	
   4.53661	0.00253022	   4.46549	 0.0025125	   4.48198	0.00252813	   4.49469	0.00252362	   4.49469	   63.0905	
   4.38839	0.00252568	   4.31741	0.00250771	    4.3341	0.00252329	   4.34663	 0.0025189	   4.34663	   62.9724	
    4.2399	0.00252115	   4.16917	0.00250279	   4.18564	0.00251832	   4.19823	0.00251409	   4.19823	   62.8522	
    4.0914	0.00251649	   4.02104	0.00249779	   4.03745	0.00251335	   4.04996	0.00250921	   4.04996	   62.7303	
   3.94241	0.00251159	   3.87323	0.00249278	   3.88917	0.00250838	    3.9016	0.00250425	    3.9016	   62.6062	
   3.79325	0.00250658	    3.7253	 0.0024877	   3.74074	0.00250326	    3.7531	0.00249918	    3.7531	   62.4795	
   3.64395	0.00250164	   3.57723	0.00248247	   3.59201	0.00249796	    3.6044	0.00249402	    3.6044	   62.3505	
   3.49453	 0.0024967	   3.42886	0.00247708	   3.44296	0.00249258	   3.45545	0.00248879	   3.45545	   62.2198	
   3.34529	0.00249155	   3.28035	0.00247167	   3.29397	0.00248719	   3.30653	0.00248347	   3.30653	   62.0868	
   3.19594	0.00248618	   3.13137	0.00246627	    3.1451	0.00248174	   3.15747	0.00247806	   3.15747	   61.9516	
   3.04598	 0.0024808	   2.98259	0.00246077	   2.99548	0.00247613	   3.00802	0.00247257	   3.00802	   61.8142	
   2.89619	0.00247551	   2.83399	 0.0024551	   2.84585	0.00247036	   2.85867	0.00246699	   2.85867	   61.6747	
   2.74596	0.00247017	   2.68495	 0.0024493	   2.69619	0.00246456	   2.70903	0.00246134	   2.70903	   61.5336	
   2.59533	0.00246459	   2.53571	0.00244348	   2.54674	0.00245875	   2.55926	0.00245561	   2.55926	   61.3902	
   2.44463	0.00245876	   2.38621	0.00243763	   2.39702	0.00245282	   2.40928	0.00244974	   2.40928	   61.2435	
   2.29358	0.00245289	   2.23675	0.00243167	   2.24751	0.00244668	   2.25928	0.00244375	   2.25928	   61.0937	
   2.14233	0.00244708	   2.08724	0.00242556	   2.09791	 0.0024404	   2.10916	0.00243768	   2.10916	    60.942	
   1.99081	0.00244121	   1.93758	0.00241935	   1.94814	0.00243411	   1.95884	0.00243156	   1.95884	   60.7889	
   1.83915	0.00243507	   1.78809	 0.0024131	   1.79791	 0.0024278	   1.80838	0.00242532	   1.80838	   60.6331	
   1.68739	0.00242871	   1.63859	0.00240679	   1.64752	0.00242135	   1.65783	0.00241895	   1.65783	   60.4738	
   1.53554	0.00242234	   1.48905	0.00240037	   1.49733	0.00241471	   1.50731	0.00241247	   1.50731	   60.3118	
   1.38374	  0.002416	   1.33926	0.00239383	   1.34675	0.00240797	   1.35658	0.00240594	   1.35658	   60.1484	
   1.23188	0.00240952	   1.18928	0.00238723	     1.196	0.00240122	   1.20572	0.00239932	   1.20572	   59.9831	
   1.07986	 0.0024028	   1.03956	0.00238057	    1.0452	 0.0023944	   1.05487	0.00239259	   1.05487	   59.8147	
  0.927605	0.00239591	  0.889652	0.00237381	  0.894278	0.00238742	  0.903845	0.00238571	  0.903845	   59.6428	
  0.775191	0.00238901	  0.739589	0.00236693	    0.7431	0.00238024	  0.752626	0.00237873	  0.752626	   59.4682	
  0.622816	0.00238209	  0.589382	0.00235996	  0.591841	0.00237298	  0.601346	0.00237168	  0.601346	    59.292	
  0.470253	0.00237498	  0.438989	0.00235293	  0.440668	0.00236573	   0.44997	0.00236455	   0.44997	   59.1137	
  0.317568	0.00236764	  0.288694	0.00234582	  0.289237	0.00235843	    0.2985	0.00235729	    0.2985	   58.9324	
  0.165048	 0.0023602	  0.138355	0.00233858	   0.13768	 0.0023509	  0.147028	0.00234989	  0.147028	   58.7473	
 0.0128366	0.00235277	-0.0122801	0.00233122	-0.0138772	0.00234314	-0.00444024	0.00234237	-0.00444024	   58.5594	
 -0.138931	0.00234527	 -0.162266	0.00232378	 -0.165592	0.00233531	 -0.155596	0.00233478	 -0.155596	   58.3696	
 -0.290421	0.00233757	 -0.312557	0.00231628	 -0.317474	 0.0023275	 -0.306817	0.00232711	 -0.306817	   58.1779	
  -0.44211	0.00232967	 -0.462822	0.00230867	 -0.468988	0.00231962	 -0.457974	0.00231932	 -0.457974	    57.983	
 -0.593709	0.00232168	 -0.612951	0.00230093	 -0.620657	0.00231152	 -0.609106	0.00231138	 -0.609106	   57.7845	
 -0.745355	0.00231362	 -0.763117	0.00229306	 -0.772016	0.00230324	 -0.760163	0.00230331	 -0.760163	   57.5827	
 -0.897093	0.00230543	 -0.913548	0.00228508	 -0.923318	0.00229487	  -0.91132	0.00229513	  -0.91132	   57.3782	
    -1.049	0.00229711	  -1.06391	0.00227704	  -1.07425	0.00228652	  -1.06239	0.00228689	  -1.06239	   57.1722	
  -1.20082	 0.0022887	  -1.21454	0.00226892	  -1.22518	0.00227811	  -1.21351	0.00227858	  -1.21351	   56.9645	
  -1.35277	0.00228021	  -1.36506	0.00226068	  -1.37596	0.00226951	   -1.3646	0.00227013	   -1.3646	   56.7533	
  -1.50467	0.00227158	  -1.51554	0.00225231	  -1.52643	0.00226069	  -1.51555	0.00226152	  -1.51555	   56.5381	
  -1.65647	 0.0022628	   -1.6657	0.00224381	  -1.67677	0.00225178	  -1.66631	 0.0022528	  -1.66631	   56.3199	
  -1.80844	0.00225393	  -1.81571	0.00223524	  -1.82671	0.00224285	  -1.81696	0.00224401	  -1.81696	   56.1002	
  -1.96009	0.00224499	  -1.96624	 0.0022266	  -1.97655	0.00223384	  -1.96762	0.00223515	  -1.96762	   55.8786	
  -2.11214	0.00223594	  -2.11701	0.00221786	  -2.12626	0.00222466	  -2.11847	0.00222615	  -2.11847	   55.6538	
  -2.26383	0.00222676	   -2.2668	0.00220896	  -2.27567	0.00221531	  -2.26876	0.00221701	  -2.26876	   55.4253	
  -2.41506	0.00221745	  -2.41639	0.00219993	  -2.42505	0.00220589	  -2.41883	0.00220776	  -2.41883	   55.1939	
  -2.56597	0.00220806	   -2.5657	0.00219083	  -2.57435	0.00219642	  -2.56868	0.00219844	  -2.56868	   54.9609	
   -2.7169	 0.0021986	  -2.71492	0.00218164	   -2.7237	0.00218684	   -2.7185	0.00218903	   -2.7185	   54.7257	
   -2.8673	0.00218904	  -2.86427	0.00217233	  -2.87295	 0.0021771	  -2.86818	0.00217949	  -2.86818	   54.4872	
  -3.01781	0.00217938	  -3.01359	0.00216289	  -3.02213	0.00216721	  -3.01784	0.00216983	  -3.01784	   54.2457	
  -3.16782	0.00216965	  -3.16283	0.00215333	  -3.17122	0.00215727	  -3.16729	0.00216008	  -3.16729	   54.0021	
  -3.31766	0.00215981	  -3.31191	0.00214374	  -3.32013	0.00214725	  -3.31657	0.00215027	  -3.31657	   53.7567	
  -3.46704	0.00214981	  -3.46072	0.00213409	  -3.46918	 0.0021371	  -3.46565	0.00214033	  -3.46565	   53.5083	
  -3.61619	0.00213972	  -3.60821	0.00212431	  -3.61792	0.00212679	   -3.6141	0.00213027	   -3.6141	   53.2568	
  -3.76532	0.00212958	  -3.75475	 0.0021143	  -3.76701	0.00211638	  -3.76236	0.00212009	  -3.76236	   53.0022	
  -3.91435	0.00211938	  -3.90011	0.00210413	   -3.9159	0.00210591	  -3.91012	 0.0021098	  -3.91012	   52.7451	
  -4.06343	0.00210903	  -4.04691	0.00209398	  -4.06423	0.00209533	  -4.05819	0.00209945	  -4.05819	   52.4862	
   -4.2122	0.00209854	  -4.19658	0.00208391	  -4.21202	0.00208459	  -4.20693	0.00208901	  -4.20693	   52.2253	
  -4.36074	0.00208794	  -4.34703	0.00207369	  -4.35959	0.00207373	  -4.35579	0.00207845	  -4.35579	   51.9613	
  -4.50921	0.00207729	   -4.4966	0.00206318	  -4.50709	0.00206278	   -4.5043	0.00206775	   -4.5043	   51.6937	
  -4.65755	0.00206658	  -4.64556	0.00205251	  -4.65446	0.00205176	  -4.65252	0.00205695	  -4.65252	   51.4237	
  -4.80563	0.00205573	  -4.79476	0.00204188	  -4.80199	0.00204061	  -4.80079	0.00204607	  -4.80079	   51.1518	
  -4.95349	 0.0020447	  -4.94381	0.00203122	   -4.9491	0.00202931	   -4.9488	0.00203508	   -4.9488	   50.8769	
  -5.10133	0.00203355	  -5.09247	0.00202033	  -5.09598	 0.0020179	  -5.09659	0.00202393	  -5.09659	   50.5981	
  -5.24923	0.00202234	  -5.24126	0.00200921	  -5.24275	 0.0020064	  -5.24441	0.00201265	  -5.24441	   50.3162	
   -5.3967	0.00201105	  -5.38969	0.00199802	  -5.38954	0.00199482	  -5.39197	 0.0020013	  -5.39197	   50.0324	
  -5.54342	0.00199965	  -5.53707	0.00198689	  -5.53612	 0.0019831	  -5.53887	0.00198988	  -5.53887	    49.747	
  -5.68961	0.00198811	   -5.6842	0.00197562	  -5.68273	0.00197123	  -5.68552	0.00197832	  -5.68552	    49.458	
  -5.83561	0.00197644	  -5.83154	0.00196404	  -5.82924	0.00195926	  -5.83213	0.00196658	  -5.83213	   49.1645	
  -5.98155	0.00196469	  -5.97844	0.00195226	  -5.97498	0.00194722	  -5.97833	0.00195472	  -5.97833	   48.8681	
  -6.12721	0.00195286	  -6.12492	0.00194048	  -6.12077	0.00193509	   -6.1243	0.00194281	   -6.1243	   48.5702	
  -6.27287	 0.0019409	  -6.27185	0.00192873	  -6.26607	0.00192284	  -6.27026	0.00193082	  -6.27026	   48.2706	
  -6.41854	 0.0019288	  -6.41808	0.00191682	  -6.41099	0.00191044	  -6.41587	0.00191869	  -6.41587	   47.9672	
  -6.56421	 0.0019166	  -6.56377	0.00190459	  -6.55572	0.00189793	  -6.56123	0.00190637	  -6.56123	   47.6593	
  -6.70979	0.00190431	  -6.70969	0.00189219	  -6.69997	0.00188533	  -6.70649	0.00189395	  -6.70649	   47.3487	
  -6.85534	0.00189193	  -6.85529	0.00187981	  -6.84389	0.00187267	  -6.85151	0.00188147	  -6.85151	   47.0367	
  -7.00042	 0.0018794	  -7.00074	0.00186741	  -6.98683	0.00185989	  -6.99599	 0.0018689	  -6.99599	   46.7225	
   -7.1454	0.00186674	  -7.14545	0.00185478	  -7.12982	0.00184694	  -7.14022	0.00185616	  -7.14022	   46.4039	
  -7.28999	0.00185399	  -7.28948	0.00184187	  -7.27233	0.00183385	  -7.28394	0.00184324	  -7.28394	   46.0809	
  -7.43426	0.00184115	  -7.43317	0.00182887	  -7.41468	0.00182075	  -7.42737	0.00183026	  -7.42737	   45.7564	
   -7.5782	0.00182822	  -7.57651	0.00181591	  -7.55644	0.00180762	  -7.57038	0.00181725	  -7.57038	   45.4313	
  -7.72143	0.00181514	  -7.71893	 0.0018029	  -7.69784	0.00179429	  -7.71274	0.00180411	  -7.71274	   45.1027	
  -7.86467	0.00180186	  -7.86053	0.00178964	  -7.83919	0.00178084	   -7.8548	0.00179078	   -7.8548	   44.7694	
  -8.00716	0.00178848	  -8.00182	0.00177616	  -7.97997	0.00176733	  -7.99632	0.00177732	  -7.99632	   44.4331	
  -8.14976	 0.0017751	  -8.14263	0.00176264	  -8.11816	0.00175371	  -8.13685	0.00176382	  -8.13685	   44.0954	
  -8.29232	0.00176163	  -8.28315	0.00174915	  -8.25597	0.00173999	  -8.27714	0.00175026	  -8.27714	   43.7564	
   -8.4348	0.00174798	  -8.42288	0.00173554	  -8.39577	0.00172622	  -8.41782	0.00173658	  -8.41782	   43.4145	
  -8.57682	0.00173411	  -8.56198	 0.0017217	  -8.53628	0.00171241	  -8.55836	0.00172274	  -8.55836	   43.0685	
  -8.71783	0.00172015	  -8.70049	 0.0017077	  -8.67678	 0.0016985	  -8.69837	0.00170878	  -8.69837	   42.7196	
  -8.85861	 0.0017062	  -8.83859	 0.0016937	  -8.81661	0.00168442	  -8.83794	0.00169477	  -8.83794	   42.3693	
  -8.99915	0.00169216	  -8.97666	0.00167967	  -8.95512	 0.0016702	  -8.97697	0.00168068	  -8.97697	    42.017	
  -9.13925	0.00167792	  -9.11467	0.00166549	  -9.09288	0.00165592	   -9.1156	0.00166644	   -9.1156	   41.6611	
  -9.27901	 0.0016635	  -9.25231	0.00165109	  -9.23058	0.00164156	  -9.25397	0.00165205	  -9.25397	   41.3013	
  -9.41816	0.00164902	  -9.38972	0.00163658	  -9.36847	0.00162709	  -9.39211	0.00163757	  -9.39211	   40.9392	
  -9.55691	0.00163452	  -9.52687	0.00162209	  -9.50654	0.00161246	  -9.53011	0.00162302	  -9.53011	   40.5756	
  -9.69501	0.00161991	  -9.66351	0.00160756	  -9.64392	0.00159767	  -9.66748	0.00160838	  -9.66748	   40.2095	
  -9.83265	 0.0016051	  -9.79987	0.00159284	  -9.78045	0.00158278	  -9.80432	0.00159358	  -9.80432	   39.8394	
  -9.97042	0.00159013	  -9.93586	0.00157791	  -9.91588	0.00156783	  -9.94072	0.00157862	  -9.94072	   39.4656	
  -10.1075	0.00157512	  -10.0716	0.00156291	  -10.0511	0.00155275	  -10.0768	0.00156359	  -10.0768	   39.0899	
  -10.2447	0.00156006	  -10.2069	0.00154791	  -10.1859	0.00153752	  -10.2125	 0.0015485	  -10.2125	   38.7125	
   -10.381	0.00154486	  -10.3419	0.00153284	  -10.3205	0.00152215	  -10.3478	0.00153328	  -10.3478	   38.3321	
  -10.5167	0.00152947	  -10.4767	0.00151756	  -10.4549	0.00150671	  -10.4828	0.00151792	  -10.4828	   37.9479	
  -10.6519	0.00151398	  -10.6114	0.00150212	  -10.5892	 0.0014912	  -10.6175	0.00150243	  -10.6175	   37.5608	
  -10.7864	0.00149844	  -10.7454	0.00148663	  -10.7233	0.00147556	  -10.7517	0.00148688	  -10.7517	   37.1719	
  -10.9208	0.00148282	   -10.879	0.00147113	  -10.8563	0.00145979	  -10.8854	0.00147125	  -10.8854	   36.7812	
  -11.0545	0.00146706	  -11.0116	0.00145551	  -10.9885	 0.0014439	  -11.0182	0.00145549	  -11.0182	   36.3873	
  -11.1876	0.00145114	  -11.1436	0.00143972	  -11.1202	0.00142791	  -11.1504	0.00143959	  -11.1504	   35.9897	
  -11.3204	0.00143513	   -11.275	0.00142382	  -11.2514	 0.0014118	  -11.2823	0.00142358	  -11.2823	   35.5895	
  -11.4528	0.00141907	   -11.406	0.00140792	  -11.3822	0.00139561	  -11.4137	0.00140754	  -11.4137	   35.1884	
  -11.5849	0.00140293	  -11.5363	0.00139197	  -11.5124	0.00137934	  -11.5445	0.00139141	  -11.5445	   34.7853	
  -11.7167	0.00138663	  -11.6661	0.00137579	  -11.6429	0.00136296	  -11.6752	0.00137512	  -11.6752	   34.3781	
  -11.8479	0.00137018	  -11.7955	 0.0013594	  -11.7734	0.00134646	  -11.8056	0.00135868	  -11.8056	    33.967	
  -11.9791	0.00135367	  -11.9247	0.00134299	  -11.9031	0.00132984	  -11.9356	0.00134217	  -11.9356	   33.5543	
  -12.1096	0.00133715	  -12.0532	0.00132663	  -12.0323	0.00131311	  -12.0651	0.00132563	  -12.0651	   33.1407	
  -12.2392	0.00132045	  -12.1812	0.00131014	  -12.1606	0.00129629	  -12.1937	0.00130896	  -12.1937	   32.7241	
   -12.368	 0.0013036	  -12.3086	 0.0012934	  -12.2889	0.00127939	  -12.3218	0.00129213	  -12.3218	   32.3032	
  -12.4957	0.00128673	  -12.4355	0.00127649	  -12.4162	0.00126235	  -12.4491	0.00127519	  -12.4491	   31.8797	
  -12.6232	0.00126984	  -12.5618	0.00125962	  -12.5438	0.00124517	  -12.5763	0.00125821	  -12.5763	   31.4552	
    -12.75	0.00125273	  -12.6875	0.00124278	  -12.6704	 0.0012279	  -12.7027	0.00124113	  -12.7027	   31.0283	
   -12.876	0.00123538	  -12.8128	0.00122582	  -12.7967	0.00121058	  -12.8285	0.00122393	  -12.8285	   30.5982	
  -13.0014	0.00121797	  -12.9375	0.00120861	  -12.9225	0.00119319	  -12.9538	0.00120659	  -12.9538	   30.1647	
  -13.1267	 0.0012006	  -13.0617	0.00119126	  -13.0472	0.00117566	  -13.0785	0.00118917	  -13.0785	   29.7293	
  -13.2514	0.00118318	  -13.1855	0.00117396	  -13.1718	0.00115802	  -13.2029	0.00117172	  -13.2029	   29.2929	
  -13.3754	0.00116556	  -13.3089	 0.0011567	  -13.2959	0.00114029	  -13.3267	0.00115418	  -13.3267	   28.8545	
   -13.499	0.00114777	  -13.4318	0.00113929	  -13.4194	 0.0011225	  -13.4501	0.00113652	  -13.4501	   28.4131	
  -13.6222	0.00112994	  -13.5541	 0.0011217	   -13.542	0.00110463	  -13.5728	0.00111876	  -13.5728	   27.9689	
   -13.745	0.00111213	  -13.6757	  0.001104	  -13.6645	0.00108663	   -13.695	0.00110092	   -13.695	    27.523	
   -13.868	0.00109422	   -13.797	 0.0010863	  -13.7864	0.00106852	  -13.8171	0.00108301	  -13.8171	   27.0753	
  -13.9908	0.00107611	  -13.9188	0.00106862	  -13.9081	0.00105034	  -13.9392	0.00106502	  -13.9392	   26.6255	
  -14.1133	0.00105785	  -14.0406	0.00105081	  -14.0288	0.00103209	  -14.0609	0.00104692	  -14.0609	   26.1729	
  -14.2349	0.00103962	  -14.1615	0.00103278	  -14.1493	0.00101376	  -14.1819	0.00102872	  -14.1819	    25.718	
  -14.3558	0.00102142	  -14.2815	0.00101468	  -14.2692	0.000995349	  -14.3022	0.00101048	  -14.3022	   25.2621	
  -14.4762	0.00100311	  -14.4014	0.000996643	  -14.3886	0.000976904	   -14.422	0.000992219	   -14.422	   24.8055	
   -14.596	0.000984606	   -14.521	0.000978567	  -14.5069	0.000958406	  -14.5413	0.00097386	  -14.5413	   24.3465	
  -14.7154	0.000966009	  -14.6396	0.000960285	  -14.6247	0.000939772	  -14.6599	0.000955355	  -14.6599	   23.8839	
  -14.8339	0.000947427	  -14.7575	0.000941804	  -14.7421	0.000920991	  -14.7778	0.000936741	  -14.7778	   23.4185	
  -14.9521	0.00092883	  -14.8743	0.000923266	  -14.8588	0.000902164	  -14.8951	0.000918087	  -14.8951	   22.9522	
  -15.0702	0.000910101	  -14.9897	0.000904742	  -14.9746	0.000883344	  -15.0115	0.000899396	  -15.0115	   22.4849	
  -15.1875	0.000891209	   -15.104	0.000886167	  -15.0894	0.000864458	   -15.127	0.000880611	   -15.127	   22.0153	
  -15.3044	0.000872259	  -15.2181	0.000867422	  -15.2035	0.000845415	   -15.242	0.000861699	   -15.242	   21.5425	
  -15.4205	0.000853319	   -15.331	0.000848531	  -15.3171	0.000826198	  -15.3562	0.000842683	  -15.3562	   21.0671	
  -15.5358	0.000834323	  -15.4437	 0.0008296	  -15.4302	0.000806964	  -15.4699	0.000823629	  -15.4699	   20.5907	
  -15.6508	0.000815176	  -15.5556	0.00081066	  -15.5424	0.000787793	  -15.5829	0.000804543	  -15.5829	   20.1136	
   -15.765	0.000795908	  -15.6673	0.000791659	  -15.6539	0.000768557	  -15.6954	0.000785375	  -15.6954	   19.6344	
  -15.8787	0.000776621	  -15.7784	0.000772539	  -15.7648	0.000749128	  -15.8073	0.000766096	  -15.8073	   19.1524	
  -15.9919	0.000757334	  -15.8884	0.00075331	  -15.8749	0.000729543	  -15.9184	0.000746729	  -15.9184	   18.6682	
  -16.1043	0.000737956	  -15.9977	0.000734046	  -15.9843	0.00070996	  -16.0288	0.000727321	  -16.0288	    18.183	
  -16.2159	0.000718437	  -16.1063	0.000714759	  -16.0935	0.00069043	  -16.1386	0.000707875	  -16.1386	   17.6969	
   -16.327	0.000698837	  -16.2145	0.000695376	   -16.202	0.000670822	  -16.2478	0.000688345	  -16.2478	   17.2086	
  -16.4375	0.000679232	  -16.3222	0.000675868	  -16.3101	0.000651029	  -16.3566	0.000668709	  -16.3566	   16.7177	
  -16.5475	0.000659602	   -16.429	0.000656309	  -16.4176	0.000631138	  -16.4647	0.000649017	  -16.4647	   16.2254	
  -16.6564	0.000639871	  -16.5354	0.000636743	  -16.5246	0.000611308	  -16.5721	0.000629307	  -16.5721	   15.7327	
  -16.7647	0.000620019	   -16.641	0.000617125	  -16.6311	0.000591513	  -16.6789	0.000609552	  -16.6789	   15.2388	
  -16.8718	0.000600118	  -16.7457	0.000597406	   -16.737	0.00057158	  -16.7848	0.000589701	  -16.7848	   14.7425	
  -16.9783	0.000580219	  -16.8499	0.000577606	  -16.8422	0.000551487	  -16.8901	0.000569771	  -16.8901	   14.2443	
  -17.0839	0.00056028	  -16.9538	0.000557786	  -16.9469	0.000531364	  -16.9949	0.00054981	  -16.9949	   13.7452	
  -17.1885	0.000540234	  -17.0571	0.000537954	  -17.0509	0.000511279	  -17.0988	0.000529823	  -17.0988	   13.2456	
  -17.2924	0.000520096	  -17.1593	0.000518055	  -17.1547	0.000491186	  -17.2021	0.000509779	  -17.2021	   12.7445	
  -17.3956	0.000499932	  -17.2604	0.000498066	  -17.2581	0.000470976	  -17.3047	0.000489658	  -17.3047	   12.2414	
  -17.4981	0.000479792	  -17.3613	0.000478031	  -17.3607	0.000450653	  -17.4067	0.000469492	  -17.4067	   11.7373	
  -17.5998	0.000459632	  -17.4617	0.000457995	  -17.4629	0.000430366	  -17.5081	0.000449331	  -17.5081	   11.2333	
  -17.7008	0.000439335	  -17.5613	0.000437936	  -17.5653	0.000410159	  -17.6092	0.000429143	  -17.6092	   10.7286	
   -17.801	0.000418941	  -17.6602	0.000417808	  -17.6675	0.000389885	  -17.7095	0.000408878	  -17.7095	   10.2219	
  -17.9003	0.000398569	  -17.7588	0.000397611	  -17.7684	0.000369464	  -17.8092	0.000388548	  -17.8092	    9.7137	
  -17.9989	0.000378238	  -17.8568	0.000377389	  -17.8678	0.000348978	  -17.9078	0.000368202	  -17.9078	   9.20504	
  -18.0965	0.000357856	  -17.9542	0.000357167	   -17.966	0.000328517	  -18.0055	0.000347847	  -18.0055	   8.69617	
  -18.1933	0.000337333	   -18.051	0.000336917	  -18.0626	0.000308092	  -18.1023	0.000327447	  -18.1023	   8.18619	
  -18.2896	0.000316735	  -18.1472	0.000316602	  -18.1593	0.000287635	  -18.1987	0.000306991	  -18.1987	   7.67477	
   -18.385	0.000296201	  -18.2424	0.000296234	  -18.2554	0.000267096	  -18.2942	0.00028651	  -18.2942	   7.16276	
  -18.4796	0.000275732	   -18.337	0.000275868	  -18.3503	0.000246519	   -18.389	0.00026604	   -18.389	   6.65099	
  -18.5736	0.00025518	  -18.4314	0.000255509	  -18.4448	0.000225962	  -18.4833	0.00024555	  -18.4833	   6.13876	
  -18.6673	0.000234489	   -18.525	0.000235114	  -18.5379	0.000205429	  -18.5768	0.00022501	  -18.5768	   5.62526	
  -18.7598	0.000213781	  -18.6181	0.000214656	  -18.6303	0.00018488	  -18.6694	0.000204439	  -18.6694	   5.11097	
  -18.8511	0.000193164	  -18.7104	0.000194162	  -18.7215	0.000164284	   -18.761	0.00018387	   -18.761	   4.59675	
  -18.9417	0.000172564	  -18.8014	0.000173679	   -18.812	0.000143672	  -18.8517	0.000163305	  -18.8517	   4.08263	
  -19.0316	0.000151841	  -18.8913	0.000153203	  -18.9017	0.000123089	  -18.9415	0.000142711	  -18.9415	   3.56778	
   -19.121	0.000131002	  -18.9807	0.000132687	  -18.9906	0.00010252	  -19.0308	0.00012207	  -19.0308	   3.05174	
  -19.2097	0.000110235	  -19.0697	0.000112119	  -19.0786	8.19172e-05	  -19.1194	0.000101424	  -19.1194	    2.5356	
  -19.2975	8.96096e-05	  -19.1579	9.15402e-05	  -19.1661	6.12875e-05	  -19.2072	8.08124e-05	  -19.2072	   2.02031	
  -19.3842	6.89685e-05	  -19.2451	7.09755e-05	  -19.2533	4.06755e-05	  -19.2942	6.02065e-05	  -19.2942	   1.50516	
    -19.47	4.81484e-05	  -19.3313	5.04191e-05	  -19.3396	2.00907e-05	  -19.3803	3.95527e-05	  -19.3803	  0.988818	
  -19.5555	2.72528e-05	  -19.4167	2.98571e-05	  -19.4248	-5.02039e-07	  -19.4657	1.88693e-05	  -19.4657	  0.471732	
    -19.64	6.52341e-06	  -19.5012	9.28302e-06	   -19.509	-2.11261e-05	  -19.5501	-1.77322e-06	  -19.5501	-0.0443306	
  -19.7239	-1.40681e-05	  -19.5855	-1.13085e-05	  -19.5923	-4.17585e-05	  -19.6339	-2.23783e-05	  -19.6339	 -0.559458	
  -19.8068	-3.4789e-05	  -19.6689	-3.18967e-05	  -19.6749	-6.23638e-05	  -19.7169	-4.30165e-05	  -19.7169	  -1.07541	
   -19.889	-5.57105e-05	  -19.7516	-5.24788e-05	  -19.7569	-8.29514e-05	  -19.7992	-6.37136e-05	  -19.7992	  -1.59284	
  -19.9702	-7.66055e-05	  -19.8334	-7.30497e-05	  -19.8381	-0.000103556	  -19.8806	-8.44039e-05	  -19.8806	   -2.1101	
  -20.0504	-9.72697e-05	  -19.9144	-9.36073e-05	   -19.918	-0.000124192	  -19.9609	-0.000105023	  -19.9609	  -2.62558	
  -20.1298	-0.000117847	  -19.9945	-0.000114159	   -19.997	-0.000144823	  -20.0404	-0.000125609	  -20.0404	  -3.14024	
  -20.2086	-0.000138583	  -20.0738	-0.000134734	  -20.0751	-0.000165413	  -20.1192	-0.000146244	  -20.1192	  -3.65609	
  -20.2867	-0.000159456	   -20.152	-0.000155308	  -20.1523	-0.000185985	   -20.197	-0.000166916	   -20.197	  -4.17291	
   -20.364	-0.00018027	  -20.2289	-0.000175837	  -20.2288	-0.000206577	  -20.2739	-0.000187561	  -20.2739	  -4.68903	
  -20.4407	-0.000200924	  -20.3051	-0.000196292	  -20.3048	-0.000227178	  -20.3502	-0.000208131	  -20.3502	  -5.20328	
  -20.5163	-0.000221543	  -20.3807	-0.000216706	  -20.3796	-0.000247751	  -20.4255	-0.000228667	  -20.4255	  -5.71667	
  -20.5911	-0.000242239	  -20.4555	-0.000237131	  -20.4534	-0.000268281	     -20.5	-0.000249217	     -20.5	  -6.23042	
  -20.6655	-0.000262939	  -20.5296	-0.000257528	  -20.5265	-0.000288794	  -20.5738	-0.000269754	  -20.5738	  -6.74384	
  -20.7389	-0.000283492	  -20.6031	-0.000277881	  -20.5987	-0.000309312	  -20.6469	-0.000290228	  -20.6469	  -7.25571	
  -20.8113	-0.00030394	  -20.6757	-0.000298233	  -20.6704	-0.00032982	  -20.7191	-0.000310664	  -20.7191	  -7.76661	
   -20.883	-0.000324428	  -20.7477	-0.000318575	  -20.7408	-0.000350291	  -20.7905	-0.000331098	  -20.7905	  -8.27745	
  -20.9536	-0.000344984	  -20.8186	-0.00033883	  -20.8102	-0.00037073	  -20.8608	-0.000351515	  -20.8608	  -8.78787	
  -21.0231	-0.000365477	  -20.8884	-0.000359005	  -20.8785	-0.000391153	    -20.93	-0.000371878	    -20.93	  -9.29696	
  -21.0917	-0.000385811	  -20.9575	-0.000379172	  -20.9459	-0.000411558	  -20.9984	-0.000392181	  -20.9984	  -9.80451	
  -21.1595	-0.000406087	  -21.0264	-0.000399371	  -21.0124	-0.000431933	  -21.0661	-0.000412464	  -21.0661	  -10.3116	
  -21.2265	-0.000426361	  -21.0946	-0.000419544	  -21.0779	-0.000452265	   -21.133	-0.000432723	   -21.133	  -10.8181	
  -21.2927	-0.000446682	  -21.1621	-0.000439648	  -21.1425	-0.000472563	  -21.1991	-0.000452964	  -21.1991	  -11.3241	
  -21.3561	-0.000467034	  -21.2284	-0.000459699	  -21.2064	-0.000492839	  -21.2636	-0.000473191	  -21.2636	  -11.8298	
  -21.4188	-0.000487287	  -21.2934	-0.000479715	  -21.2697	-0.000513082	  -21.3273	-0.000493361	  -21.3273	   -12.334	
  -21.4828	-0.000507334	  -21.3574	-0.000499712	  -21.3324	-0.00053328	  -21.3908	-0.000513442	  -21.3908	  -12.8361	
  -21.5471	-0.000527287	  -21.4206	-0.000519711	  -21.3943	-0.000553429	   -21.454	-0.000533476	   -21.454	  -13.3369	
  -21.6106	-0.000547304	   -21.483	-0.000539687	  -21.4555	-0.00057353	  -21.5164	-0.000553507	  -21.5164	  -13.8377	
  -21.6726	-0.000567374	  -21.5446	-0.000559568	  -21.5154	-0.000593589	  -21.5775	-0.00057351	  -21.5775	  -14.3378	
   -21.734	-0.000587356	  -21.6057	-0.00057936	  -21.5746	-0.00061362	  -21.6381	-0.000593445	  -21.6381	  -14.8361	
  -21.7941	-0.000607189	  -21.6663	-0.000599138	   -21.633	-0.000633624	  -21.6978	-0.000613317	  -21.6978	  -15.3329	
  -21.8536	-0.000626977	  -21.7257	-0.000618932	  -21.6904	-0.000653584	  -21.7566	-0.000633164	  -21.7566	  -15.8291	
  -21.9123	-0.000646795	  -21.7844	-0.000638687	   -21.747	-0.000673472	  -21.8146	-0.000652985	  -21.8146	  -16.3246	
  -21.9703	-0.000666588	  -21.8421	-0.000658356	  -21.8033	-0.000693294	  -21.8719	-0.000672746	  -21.8719	  -16.8187	
  -22.0274	-0.000686265	  -21.8992	-0.000677936	  -21.8583	-0.000713071	  -21.9283	-0.000692424	  -21.9283	  -17.3106	
  -22.0833	-0.00070583	  -21.9556	-0.000697487	  -21.9127	-0.000732813	  -21.9839	-0.000712043	  -21.9839	  -17.8011	
  -22.1379	-0.000725363	   -22.011	-0.000717006	  -21.9662	-0.000752505	  -22.0384	-0.000731624	  -22.0384	  -18.2906	
  -22.1915	-0.000744911	  -22.0654	-0.000736503	  -22.0188	-0.000772125	  -22.0919	-0.00075118	  -22.0919	  -18.7795	
  -22.2446	-0.000764412	  -22.1191	-0.00075596	  -22.0712	-0.000791641	   -22.145	-0.000770671	   -22.145	  -19.2668	
  -22.2965	-0.000783785	  -22.1717	-0.000775339	  -22.1227	-0.000811028	   -22.197	-0.000790051	   -22.197	  -19.7513	
  -22.3478	-0.000803058	  -22.2235	-0.0007946	  -22.1729	-0.00083041	  -22.2481	-0.000809356	  -22.2481	  -20.2339	
   -22.398	-0.000822312	  -22.2738	-0.000813788	  -22.2225	-0.000849832	  -22.2981	-0.000828644	  -22.2981	  -20.7161	
  -22.4472	-0.000841547	  -22.3231	-0.000832957	  -22.2708	-0.000869179	   -22.347	-0.000847894	   -22.347	  -21.1974	
  -22.4954	-0.000860692	  -22.3711	-0.0008521	  -22.3182	-0.00088831	  -22.3949	-0.000867034	  -22.3949	  -21.6759	
  -22.5426	-0.000879725	  -22.4184	-0.000871151	  -22.3647	-0.000907274	  -22.4419	-0.00088605	  -22.4419	  -22.1512	
  -22.5892	-0.000898698	  -22.4645	-0.000890089	    -22.41	-0.000926218	  -22.4879	-0.000905002	  -22.4879	   -22.625	
  -22.6353	-0.000917644	  -22.5094	-0.000908961	  -22.4548	-0.000945201	  -22.5332	-0.000923935	  -22.5332	  -23.0984	
  -22.6805	-0.000936517	  -22.5537	-0.000927796	   -22.499	-0.000964126	  -22.5777	-0.000942813	  -22.5777	  -23.5703	
  -22.7244	-0.000955292	   -22.597	-0.000946573	   -22.542	-0.000982924	  -22.6211	-0.000961596	  -22.6211	  -24.0399	
  -22.7676	-0.00097399	  -22.6393	-0.000965252	  -22.5844	-0.00100161	  -22.6638	-0.000980285	  -22.6638	  -24.5071	
  -22.8094	-0.000992681	  -22.6807	-0.000983825	  -22.6257	-0.00102026	  -22.7053	-0.000998921	  -22.7053	   -24.973	
  -22.8494	-0.00101143	  -22.7213	-0.00100232	  -22.6664	-0.00103885	  -22.7457	-0.00101754	  -22.7457	  -25.4384	
  -22.8876	-0.00103012	  -22.7609	-0.00102077	  -22.7061	-0.00105735	  -22.7849	-0.00103608	  -22.7849	   -25.902	
  -22.9257	-0.00104859	  -22.7998	-0.00103914	   -22.745	-0.00107574	  -22.8235	-0.00105449	  -22.8235	  -26.3623	
   -22.965	-0.00106689	  -22.8377	-0.0010574	  -22.7838	-0.00109409	  -22.8622	-0.00107279	  -22.8622	  -26.8198	
  -23.0037	-0.00108521	  -22.8749	-0.00107554	  -22.8218	-0.00111238	  -22.9001	-0.00109104	  -22.9001	   -27.276	
  -23.0411	-0.00110358	  -22.9111	-0.00109361	  -22.8588	-0.00113057	   -22.937	-0.00110925	   -22.937	  -27.7314	
   -23.077	-0.0011218	  -22.9468	-0.00111163	  -22.8948	-0.00114866	  -22.9729	-0.00112736	  -22.9729	  -28.1841	
  -23.1118	-0.00113976	  -22.9819	-0.00112961	  -22.9298	-0.0011666	  -23.0078	-0.00114532	  -23.0078	  -28.6331	
  -23.1458	-0.00115759	  -23.0158	-0.0011475	  -22.9644	-0.00118444	   -23.042	-0.00116318	   -23.042	  -29.0794	
  -23.1789	-0.00117551	  -23.0489	-0.00116524	  -22.9976	-0.00120224	  -23.0751	 -0.001181	  -23.0751	  -29.5249	
  -23.2113	-0.00119342	  -23.0811	-0.00118282	  -23.0296	-0.00122005	  -23.1073	-0.00119876	  -23.1073	   -29.969	
  -23.2429	-0.0012111	  -23.1121	-0.00120039	  -23.0602	-0.00123773	  -23.1384	-0.00121641	  -23.1384	  -30.4102	
  -23.2737	-0.00122851	  -23.1424	-0.00121802	    -23.09	-0.00125518	  -23.1687	-0.00123391	  -23.1687	  -30.8476	
  -23.3036	-0.00124586	  -23.1717	-0.00123555	  -23.1184	-0.00127251	  -23.1979	-0.00125131	  -23.1979	  -31.2827	
  -23.3328	-0.00126328	  -23.2006	-0.00125283	  -23.1461	-0.0012899	  -23.2265	-0.00126867	  -23.2265	  -31.7167	
  -23.3611	-0.00128062	  -23.2284	-0.00126992	   -23.173	-0.00130733	  -23.2542	-0.00128596	  -23.2542	  -32.1489	
  -23.3884	-0.0012977	   -23.255	 -0.001287	  -23.1988	-0.00132454	  -23.2807	-0.00130308	  -23.2807	   -32.577	
  -23.4149	-0.00131455	  -23.2805	-0.00130412	   -23.224	-0.00134145	  -23.3065	-0.00132004	  -23.3065	   -33.001	
  -23.4406	-0.00133136	  -23.3048	-0.00132111	  -23.2483	-0.00135826	  -23.3312	-0.00133691	  -23.3312	  -33.4227	
  -23.4654	-0.00134817	   -23.328	-0.00133785	  -23.2718	-0.00137516	  -23.3551	-0.00135373	  -23.3551	  -33.8433	
  -23.4889	-0.00136484	  -23.3506	-0.00135446	  -23.2944	-0.00139205	   -23.378	-0.00137045	   -23.378	  -34.2612	
  -23.5117	-0.00138127	  -23.3722	-0.00137106	  -23.3164	-0.00140867	  -23.4001	 -0.001387	  -23.4001	  -34.6749	
  -23.5334	-0.00139755	  -23.3932	-0.00138764	  -23.3373	-0.00142509	  -23.4213	-0.00140342	  -23.4213	  -35.0856	
  -23.5547	-0.00141381	  -23.4133	-0.00140404	  -23.3567	-0.00144146	  -23.4415	-0.00141977	  -23.4415	  -35.4943	
  -23.5747	-0.00143001	  -23.4323	-0.00142021	  -23.3756	-0.00145778	  -23.4609	 -0.001436	  -23.4609	     -35.9	
  -23.5941	 -0.001446	  -23.4501	-0.00143629	  -23.3939	-0.00147397	  -23.4794	-0.00145209	  -23.4794	  -36.3022	
  -23.6126	-0.00146175	  -23.4672	-0.00145236	  -23.4115	-0.00149008	  -23.4971	-0.00146807	  -23.4971	  -36.7017	
    -23.63	-0.00147742	  -23.4834	-0.00146836	   -23.428	-0.0015061	  -23.5138	-0.00148396	  -23.5138	   -37.099	
  -23.6463	-0.00149308	  -23.4989	-0.00148416	  -23.4434	-0.00152202	  -23.5295	-0.00149976	  -23.5295	  -37.4939	
  -23.6618	-0.00150865	  -23.5132	-0.00149977	   -23.458	-0.00153781	  -23.5443	-0.00151541	  -23.5443	  -37.8853	
  -23.6763	-0.00152399	  -23.5268	-0.00151533	  -23.4717	-0.00155345	  -23.5583	-0.00153092	  -23.5583	  -38.2731	
  -23.6898	-0.00153916	  -23.5398	-0.00153088	  -23.4842	-0.00156898	  -23.5713	-0.00154634	  -23.5713	  -38.6585	
  -23.7023	-0.00155427	  -23.5522	-0.00154631	   -23.496	-0.00158441	  -23.5835	-0.00156166	  -23.5835	  -39.0416	
  -23.7138	-0.00156932	  -23.5633	-0.00156151	   -23.507	-0.00159973	  -23.5947	-0.00157686	  -23.5947	  -39.4214	
  -23.7242	-0.00158422	  -23.5735	-0.00157653	  -23.5174	-0.00161493	   -23.605	-0.00159189	   -23.605	  -39.7973	
   -23.734	-0.00159895	  -23.5828	-0.00159153	   -23.527	-0.00162996	  -23.6146	-0.00160681	  -23.6146	  -40.1703	
  -23.7431	-0.00161359	  -23.5912	-0.00160654	   -23.536	-0.00164487	  -23.6234	-0.00162167	  -23.6234	  -40.5417	
  -23.7514	-0.0016282	   -23.599	-0.00162143	  -23.5445	-0.0016597	  -23.6316	-0.00163645	  -23.6316	  -40.9112	
  -23.7586	-0.00164272	  -23.6064	-0.00163611	  -23.5522	-0.00167441	  -23.6391	-0.00165108	  -23.6391	   -41.277	
  -23.7648	-0.00165705	  -23.6127	-0.00165064	  -23.5592	-0.00168895	  -23.6456	-0.00166555	  -23.6456	  -41.6387	
  -23.7699	-0.00167123	  -23.6183	-0.00166509	  -23.5655	-0.00170333	  -23.6512	-0.00167988	  -23.6512	   -41.997	
  -23.7743	-0.00168534	  -23.6229	-0.00167944	  -23.5714	-0.00171762	  -23.6562	-0.00169414	  -23.6562	  -42.3534	
  -23.7779	-0.00169936	  -23.6267	-0.00169365	  -23.5766	-0.00173183	  -23.6604	-0.00170828	  -23.6604	   -42.707	
  -23.7808	-0.00171318	  -23.6296	-0.00170772	  -23.5809	-0.0017459	  -23.6638	-0.00172227	  -23.6638	  -43.0567	
  -23.7826	-0.00172683	  -23.6319	-0.0017217	   -23.584	-0.00175985	  -23.6662	-0.00173613	  -23.6662	  -43.4032	
   -23.784	-0.00174045	  -23.6339	-0.00173559	  -23.5859	-0.00177371	  -23.6679	-0.00174992	  -23.6679	   -43.748	
   -23.785	-0.00175406	  -23.6344	-0.00174934	  -23.5869	-0.00178743	  -23.6688	-0.00176361	  -23.6688	  -44.0902	
   -23.785	-0.00176751	  -23.6341	-0.00176292	  -23.5867	-0.00180096	  -23.6686	-0.00177713	  -23.6686	  -44.4283	
  -23.7842	-0.00178075	  -23.6327	-0.00177639	   -23.585	-0.00181442	  -23.6673	-0.00179052	  -23.6673	   -44.763	
  -23.7821	-0.00179388	  -23.6301	-0.00178978	  -23.5825	-0.00182789	  -23.6649	-0.00180385	  -23.6649	  -45.0962	
   -23.779	-0.00180703	  -23.6264	-0.00180304	  -23.5791	-0.00184127	  -23.6615	-0.00181711	  -23.6615	  -45.4277	
   -23.775	-0.00182013	  -23.6214	-0.00181611	  -23.5747	-0.00185441	   -23.657	-0.00183022	   -23.657	  -45.7554	
  -23.7706	-0.00183298	  -23.6156	-0.00182907	  -23.5692	-0.00186734	  -23.6518	-0.00184313	  -23.6518	  -46.0782	
  -23.7656	-0.0018456	  -23.6088	-0.00184198	   -23.563	-0.0018802	  -23.6458	-0.00185593	  -23.6458	  -46.3982	
   -23.759	-0.00185816	  -23.6012	-0.00185483	   -23.556	-0.00189306	  -23.6387	-0.00186868	  -23.6387	   -46.717	
  -23.7511	-0.00187077	  -23.5927	-0.00186753	  -23.5483	-0.00190578	  -23.6307	-0.00188136	  -23.6307	   -47.034	
  -23.7412	-0.00188335	  -23.5837	-0.00188005	   -23.539	-0.00191826	  -23.6213	-0.00189388	  -23.6213	  -47.3471	
  -23.7301	-0.0018957	  -23.5739	-0.00189244	  -23.5284	-0.00193052	  -23.6108	-0.00190622	  -23.6108	  -47.6555	
  -23.7182	-0.00190787	  -23.5634	-0.00190478	  -23.5163	-0.00194272	  -23.5993	-0.00191846	  -23.5993	  -47.9614	
  -23.7057	-0.00192001	  -23.5521	-0.00191704	  -23.5034	-0.00195487	  -23.5871	-0.00193064	  -23.5871	   -48.266	
  -23.6925	-0.00193213	  -23.5398	-0.00192915	  -23.4901	-0.00196685	  -23.5742	-0.00194271	  -23.5742	  -48.5678	
   -23.678	-0.0019441	  -23.5264	-0.0019411	  -23.4757	-0.00197859	  -23.5601	-0.0019546	  -23.5601	  -48.8649	
  -23.6624	-0.00195587	   -23.512	-0.0019529	  -23.4603	-0.00199018	  -23.5449	-0.00196632	  -23.5449	  -49.1579	
   -23.646	-0.00196754	  -23.4972	-0.00196462	  -23.4444	-0.00200174	  -23.5292	-0.00197796	  -23.5292	  -49.4491	
  -23.6288	-0.00197921	  -23.4819	-0.00197625	  -23.4277	-0.00201322	  -23.5128	-0.00198956	  -23.5128	  -49.7391	
    -23.61	-0.00199081	  -23.4655	-0.00198776	  -23.4104	-0.00202453	  -23.4953	-0.00200104	  -23.4953	  -50.0259	
  -23.5902	-0.00200222	  -23.4486	-0.00199912	  -23.3919	-0.00203565	  -23.4769	-0.00201233	  -23.4769	  -50.3082	
  -23.5695	-0.00201343	   -23.431	-0.00201035	  -23.3728	-0.00204662	  -23.4578	-0.00202347	  -23.4578	  -50.5867	
  -23.5476	-0.00202457	  -23.4121	-0.0020215	  -23.3531	-0.00205754	  -23.4376	-0.00203454	  -23.4376	  -50.8634	
  -23.5248	-0.00203569	  -23.3922	-0.00203254	  -23.3325	-0.00206836	  -23.4165	-0.00204553	  -23.4165	  -51.1382	
  -23.5008	-0.00204668	  -23.3713	-0.00204345	  -23.3114	-0.00207903	  -23.3945	-0.00205639	  -23.3945	  -51.4097	
   -23.476	-0.00205747	  -23.3495	-0.00205425	  -23.2894	-0.00208957	  -23.3716	-0.0020671	  -23.3716	  -51.6775	
  -23.4502	-0.00206811	  -23.3268	-0.00206495	  -23.2666	-0.00210002	  -23.3479	-0.00207769	  -23.3479	  -51.9424	
  -23.4237	-0.00207871	   -23.304	-0.00207554	  -23.2427	-0.00211035	  -23.3234	-0.0020882	  -23.3234	   -52.205	
  -23.3964	-0.00208926	  -23.2803	-0.00208603	  -23.2179	-0.00212052	  -23.2982	-0.0020986	  -23.2982	  -52.4651	
  -23.3683	-0.00209966	  -23.2555	-0.00209649	  -23.1924	-0.00213055	  -23.2721	-0.0021089	  -23.2721	  -52.7225	
  -23.3397	-0.0021099	  -23.2298	-0.00210685	  -23.1668	-0.00214048	  -23.2454	-0.00211908	  -23.2454	  -52.9769	
  -23.3103	-0.00211996	  -23.2032	-0.00211695	  -23.1402	-0.00215034	  -23.2179	-0.00212908	  -23.2179	   -53.227	
  -23.2803	-0.00212991	  -23.1758	-0.00212686	  -23.1131	-0.00216007	  -23.1897	-0.00213895	  -23.1897	  -53.4737	
  -23.2496	-0.00213982	  -23.1472	-0.00213676	  -23.0852	-0.00216963	  -23.1607	-0.00214874	  -23.1607	  -53.7184	
  -23.2188	-0.00214961	  -23.1177	-0.0021467	  -23.0565	-0.00217906	   -23.131	-0.00215846	   -23.131	  -53.9614	
  -23.1878	-0.00215921	  -23.0873	-0.0021565	   -23.027	-0.00218836	  -23.1007	-0.00216802	  -23.1007	  -54.2006	
  -23.1551	-0.00216868	  -23.0558	-0.00216602	  -22.9966	-0.00219755	  -23.0692	-0.00217742	  -23.0692	  -54.4354	
  -23.1208	-0.0021781	  -23.0232	-0.00217536	  -22.9642	-0.00220667	  -23.0361	-0.00218671	  -23.0361	  -54.6678	
  -23.0851	-0.00218753	  -22.9898	-0.00218469	  -22.9306	-0.00221571	  -23.0018	-0.00219598	  -23.0018	  -54.8994	
  -23.0482	-0.00219688	  -22.9558	-0.00219403	  -22.8972	-0.0022246	  -22.9671	-0.00220517	  -22.9671	  -55.1292	
  -23.0106	-0.00220601	  -22.9209	-0.00220327	  -22.8639	-0.00223329	  -22.9318	-0.00221419	  -22.9318	  -55.3547	
  -22.9727	-0.00221491	  -22.8847	-0.0022123	  -22.8296	-0.00224187	  -22.8957	-0.00222303	  -22.8957	  -55.5756	
  -22.9345	-0.00222375	  -22.8474	-0.00222115	  -22.7944	-0.0022504	  -22.8588	-0.00223177	  -22.8588	  -55.7942	
  -22.8956	-0.0022326	  -22.8092	-0.00222995	  -22.7576	-0.00225887	  -22.8208	-0.00224047	  -22.8208	  -56.0119	
  -22.8553	-0.00224137	  -22.7703	-0.00223872	  -22.7191	-0.0022672	  -22.7815	-0.0022491	  -22.7815	  -56.2274	
  -22.8146	-0.00224989	    -22.73	-0.00224734	  -22.6803	-0.00227536	  -22.7417	-0.00225753	  -22.7417	  -56.4383	
   -22.773	-0.00225825	  -22.6887	-0.00225579	   -22.641	-0.00228346	  -22.7009	-0.00226583	  -22.7009	  -56.6458	
  -22.7306	-0.00226658	  -22.6463	-0.00226411	   -22.601	-0.00229159	  -22.6593	-0.00227409	  -22.6593	  -56.8523	
  -22.6869	-0.00227489	  -22.6034	-0.00227238	  -22.5596	-0.00229966	  -22.6166	-0.00228231	  -22.6166	  -57.0577	
   -22.642	-0.00228304	  -22.5594	-0.00228057	  -22.5174	-0.00230752	  -22.5729	-0.00229038	  -22.5729	  -57.2594	
  -22.5964	-0.00229097	  -22.5148	-0.00228861	  -22.4745	-0.00231521	  -22.5286	-0.00229827	  -22.5286	  -57.4566	
  -22.5504	-0.00229878	  -22.4695	-0.00229651	  -22.4304	-0.00232289	  -22.4834	-0.00230606	  -22.4834	  -57.6516	
  -22.5032	-0.00230659	  -22.4233	-0.00230432	  -22.3856	-0.00233059	  -22.4374	-0.00231384	  -22.4374	  -57.8459	
  -22.4555	-0.00231434	   -22.376	-0.00231207	  -22.3397	-0.00233819	  -22.3904	-0.00232153	  -22.3904	  -58.0383	
   -22.407	-0.00232192	  -22.3283	-0.00231971	  -22.2924	-0.00234558	  -22.3426	-0.00232907	  -22.3426	  -58.2267	
  -22.3576	-0.00232932	  -22.2795	-0.00232723	  -22.2444	-0.0023528	  -22.2938	-0.00233645	  -22.2938	  -58.4112	
  -22.3075	-0.00233665	  -22.2303	-0.00233464	  -22.1956	-0.00236004	  -22.2445	-0.00234378	  -22.2445	  -58.5944	
  -22.2567	-0.00234397	  -22.1806	-0.00234197	  -22.1459	-0.00236733	  -22.1944	-0.00235109	  -22.1944	  -58.7773	
  -22.2049	-0.00235119	  -22.1302	-0.00234922	  -22.0951	-0.00237449	  -22.1434	-0.0023583	  -22.1434	  -58.9575	
  -22.1527	-0.00235823	  -22.0784	-0.00235635	  -22.0434	-0.00238139	  -22.0915	-0.00236532	  -22.0915	  -59.1331	
  -22.0997	-0.00236515	  -22.0256	-0.00236336	  -21.9907	-0.00238813	  -22.0387	-0.00237221	  -22.0387	  -59.3054	
   -22.046	-0.00237204	  -21.9721	-0.00237026	  -21.9372	-0.00239489	  -21.9851	-0.00237906	  -21.9851	  -59.4766	
  -21.9914	-0.00237887	  -21.9175	-0.00237708	   -21.883	-0.00240164	  -21.9306	-0.00238587	  -21.9306	  -59.6466	
  -21.9357	-0.00238558	  -21.8621	-0.00238384	  -21.8277	-0.00240827	  -21.8752	-0.00239256	  -21.8752	  -59.8141	
  -21.8791	-0.00239212	  -21.8064	-0.00239056	  -21.7715	-0.00241469	   -21.819	-0.00239913	   -21.819	  -59.9781	
  -21.8217	-0.00239858	  -21.7503	-0.00239716	   -21.715	-0.00242101	  -21.7623	-0.00240558	  -21.7623	  -60.1396	
  -21.7632	-0.00240501	  -21.6931	-0.00240355	  -21.6573	-0.00242734	  -21.7045	-0.00241197	  -21.7045	  -60.2992	
  -21.7041	-0.00241136	  -21.6349	-0.00240982	  -21.5988	-0.00243365	   -21.646	-0.00241828	   -21.646	  -60.4569	
  -21.6445	-0.00241756	  -21.5765	-0.00241609	  -21.5394	-0.00243982	  -21.5868	-0.00242449	  -21.5868	  -60.6123	
  -21.5842	-0.00242361	  -21.5172	-0.00242237	  -21.4791	-0.0024458	  -21.5269	-0.00243059	  -21.5269	  -60.7648	
   -21.523	-0.00242957	  -21.4575	-0.00242851	  -21.4179	-0.0024517	  -21.4661	-0.00243659	  -21.4661	  -60.9148	
  -21.4611	-0.00243552	  -21.3972	-0.00243446	  -21.3553	-0.0024576	  -21.4045	-0.00244253	  -21.4045	  -61.0632	
  -21.3981	-0.00244147	  -21.3358	-0.00244032	  -21.2919	-0.00246343	  -21.3419	-0.00244841	  -21.3419	  -61.2101	
  -21.3341	-0.00244729	  -21.2735	-0.00244614	  -21.2276	-0.0024691	  -21.2784	-0.00245418	  -21.2784	  -61.3544	
  -21.2696	-0.00245291	  -21.2102	-0.00245193	  -21.1625	-0.00247462	  -21.2141	-0.00245982	  -21.2141	  -61.4955	
  -21.2042	-0.00245842	  -21.1462	-0.00245758	  -21.0965	-0.00248011	  -21.1489	-0.00246537	  -21.1489	  -61.6342	
  -21.1379	-0.00246393	  -21.0814	-0.00246307	  -21.0301	-0.00248558	  -21.0831	-0.00247086	  -21.0831	  -61.7715	
  -21.0709	-0.00246943	  -21.0156	-0.00246848	  -20.9629	-0.00249094	  -21.0165	-0.00247628	  -21.0165	  -61.9071	
  -21.0031	-0.0024748	  -20.9492	-0.00247388	   -20.895	-0.00249613	  -20.9491	-0.0024816	  -20.9491	  -62.0401	
  -20.9342	  -0.00248	  -20.8818	-0.00247921	  -20.8267	-0.00250121	  -20.8809	-0.0024868	  -20.8809	  -62.1701	
  -20.8643	-0.00248511	  -20.8133	-0.00248439	  -20.7575	-0.00250631	  -20.8117	-0.00249194	  -20.8117	  -62.2984	
  -20.7942	-0.00249023	  -20.7441	-0.00248941	  -20.6874	-0.00251142	  -20.7419	-0.00249702	  -20.7419	  -62.4255	
  -20.7237	-0.00249535	  -20.6744	-0.00249438	  -20.6163	-0.00251635	  -20.6714	-0.00250203	  -20.6714	  -62.5507	
  -20.6519	-0.00250037	  -20.6041	-0.00249934	  -20.5443	-0.00252106	  -20.6001	-0.00250692	  -20.6001	  -62.6731	
  -20.5793	-0.00250518	  -20.5327	-0.00250418	  -20.4716	-0.00252576	  -20.5279	-0.0025117	  -20.5279	  -62.7926	
  -20.5064	-0.00250986	  -20.4606	-0.00250884	  -20.3985	-0.00253054	  -20.4552	-0.00251642	  -20.4552	  -62.9104	
  -20.4324	-0.00251462	  -20.3873	-0.00251343	  -20.3248	-0.00253529	  -20.3815	-0.00252111	  -20.3815	  -63.0278	
  -20.3573	-0.00251948	   -20.313	-0.00251801	  -20.2505	-0.00253981	  -20.3069	-0.00252577	  -20.3069	  -63.1441	
  -20.2818	-0.00252422	  -20.2375	-0.00252252	  -20.1758	-0.00254414	  -20.2317	-0.00253029	  -20.2317	  -63.2573	
  -20.2055	-0.00252869	  -20.1613	-0.00252683	  -20.1001	-0.00254849	  -20.1556	-0.00253467	  -20.1556	  -63.3667	
  -20.1282	 -0.002533	  -20.0846	-0.00253099	  -20.0241	-0.00255291	   -20.079	-0.00253897	   -20.079	  -63.4742	
  -20.0504	-0.0025374	  -20.0069	-0.00253515	  -19.9474	-0.00255727	  -20.0016	-0.00254327	  -20.0016	  -63.5818	
  -19.9718	-0.00254188	  -19.9282	-0.00253934	  -19.8698	-0.00256139	  -19.9232	-0.00254754	  -19.9232	  -63.6885	
  -19.8925	-0.00254623	  -19.8483	-0.00254343	  -19.7919	-0.00256532	  -19.8442	-0.00255166	  -19.8442	  -63.7914	
  -19.8124	-0.00255034	  -19.7676	-0.0025473	  -19.7132	-0.00256927	  -19.7644	-0.00255564	  -19.7644	   -63.891	
  -19.7316	-0.00255436	  -19.6865	-0.00255107	  -19.6335	-0.00257333	  -19.6839	-0.00255959	  -19.6839	  -63.9896	
  -19.6501	-0.00255842	  -19.6043	-0.00255487	  -19.5529	-0.00257725	  -19.6024	-0.00256351	  -19.6024	  -64.0878	
  -19.5678	-0.0025625	  -19.5214	-0.00255867	  -19.4715	-0.00258088	  -19.5203	-0.00256735	  -19.5203	  -64.1838	
  -19.4849	-0.00256642	   -19.438	-0.00256229	  -19.3893	-0.0025844	  -19.4374	-0.00257104	  -19.4374	  -64.2759	
  -19.4014	-0.00257011	  -19.3539	-0.00256567	  -19.3065	-0.00258805	  -19.3539	-0.00257461	  -19.3539	  -64.3653	
  -19.3169	-0.00257376	  -19.2691	-0.00256901	  -19.2224	-0.00259172	  -19.2695	-0.00257816	  -19.2695	   -64.454	
   -19.232	-0.00257745	  -19.1836	-0.00257245	  -19.1378	-0.00259514	  -19.1845	-0.00258168	  -19.1845	  -64.5419	
  -19.1459	-0.00258109	   -19.097	-0.00257587	  -19.0531	-0.00259832	  -19.0987	-0.00258509	  -19.0987	  -64.6274	
  -19.0589	-0.00258455	  -19.0095	-0.00257907	  -18.9677	-0.0026015	   -19.012	-0.00258837	   -19.012	  -64.7092	
  -18.9712	-0.00258783	   -18.921	-0.00258204	  -18.8814	-0.00260478	  -18.9245	-0.00259155	  -18.9245	  -64.7888	
  -18.8828	-0.00259108	  -18.8319	-0.00258503	  -18.7942	 -0.002608	  -18.8363	-0.0025947	  -18.8363	  -64.8676	
  -18.7942	-0.00259434	  -18.7418	-0.0025881	  -18.7062	-0.00261098	  -18.7474	-0.0025978	  -18.7474	  -64.9451	
   -18.705	-0.00259757	   -18.651	-0.00259109	  -18.6172	-0.00261378	  -18.6577	-0.00260081	  -18.6577	  -65.0204	
  -18.6152	-0.00260065	  -18.5597	-0.00259386	  -18.5272	-0.00261665	  -18.5673	-0.00260372	  -18.5673	   -65.093	
  -18.5251	-0.00260358	  -18.4675	-0.00259643	  -18.4368	-0.00261958	  -18.4765	-0.00260653	  -18.4765	  -65.1632	
  -18.4349	-0.00260643	  -18.3746	 -0.002599	  -18.3457	-0.00262235	  -18.3851	-0.00260926	  -18.3851	  -65.2315	
  -18.3439	-0.00260927	  -18.2814	-0.00260168	  -18.2542	-0.00262485	  -18.2931	-0.00261193	  -18.2931	  -65.2983	
  -18.2522	-0.00261202	  -18.1876	-0.00260429	  -18.1616	-0.00262731	  -18.2005	-0.00261454	  -18.2005	  -65.3635	
  -18.1597	-0.00261463	  -18.0931	-0.00260663	   -18.068	-0.00262991	  -18.1069	-0.00261706	  -18.1069	  -65.4265	
  -18.0667	-0.00261715	  -17.9977	-0.00260886	  -17.9729	-0.00263254	  -18.0124	-0.00261952	  -18.0124	  -65.4879	
  -17.9725	-0.00261961	  -17.9016	-0.0026112	  -17.8768	-0.00263497	   -17.917	-0.00262193	   -17.917	  -65.5482	
  -17.8774	-0.00262202	   -17.805	-0.00261363	  -17.7803	-0.00263718	  -17.8209	-0.00262428	  -17.8209	  -65.6069	
  -17.7812	-0.00262436	  -17.7079	-0.00261587	  -17.6832	-0.00263937	  -17.7241	-0.00262653	  -17.7241	  -65.6633	
  -17.6843	-0.00262657	  -17.6103	-0.00261783	  -17.5851	-0.00264167	  -17.6266	-0.00262869	  -17.6266	  -65.7173	
  -17.5861	-0.00262867	  -17.5119	-0.00261973	   -17.486	-0.00264394	   -17.528	-0.00263078	   -17.528	  -65.7695	
   -17.487	-0.00263072	  -17.4136	-0.00262175	   -17.386	-0.00264599	  -17.4289	-0.00263282	  -17.4289	  -65.8205	
  -17.3868	-0.00263275	  -17.3145	-0.00262379	  -17.2858	-0.00264787	   -17.329	-0.0026348	   -17.329	  -65.8701	
  -17.2854	-0.00263474	  -17.2145	-0.00262562	   -17.185	-0.00264979	  -17.2283	-0.00263671	  -17.2283	  -65.9179	
  -17.1831	-0.00263664	  -17.1137	-0.00262721	   -17.083	-0.0026518	  -17.1266	-0.00263855	  -17.1266	  -65.9637	
  -17.0801	-0.00263843	  -17.0123	-0.00262879	  -16.9802	-0.0026537	  -17.0242	-0.00264031	  -17.0242	  -66.0077	
  -16.9765	-0.00264015	    -16.91	-0.00263049	  -16.8773	-0.00265538	  -16.9213	-0.00264201	  -16.9213	  -66.0502	
   -16.872	-0.00264183	  -16.8069	-0.00263215	  -16.7737	-0.00265696	  -16.8175	-0.00264365	  -16.8175	  -66.0912	
  -16.7674	-0.00264344	  -16.7034	-0.0026336	  -16.6694	-0.0026586	  -16.7134	-0.00264521	  -16.7134	  -66.1303	
  -16.6621	-0.00264495	  -16.5994	-0.0026349	  -16.5647	-0.00266026	  -16.6087	-0.0026467	  -16.6087	  -66.1676	
  -16.5558	-0.00264639	  -16.4947	-0.00263624	  -16.4591	-0.00266179	  -16.5032	-0.00264814	  -16.5032	  -66.2035	
   -16.449	-0.00264776	  -16.3896	-0.00263766	   -16.353	-0.00266313	  -16.3972	-0.00264951	  -16.3972	  -66.2379	
  -16.3416	-0.00264908	  -16.2839	-0.00263897	  -16.2461	-0.00266443	  -16.2905	-0.00265083	  -16.2905	  -66.2707	
  -16.2333	-0.00265033	  -16.1776	-0.00264009	  -16.1384	-0.00266575	  -16.1831	-0.00265206	  -16.1831	  -66.3014	
  -16.1241	-0.00265149	  -16.0708	-0.00264113	  -16.0301	-0.00266702	   -16.075	-0.00265321	   -16.075	  -66.3303	
  -16.0146	-0.00265257	  -15.9632	-0.00264222	  -15.9215	-0.00266815	  -15.9665	-0.00265431	  -15.9665	  -66.3578	
   -15.905	-0.00265359	  -15.8547	-0.00264331	  -15.8121	-0.0026692	  -15.8573	-0.00265537	  -15.8573	  -66.3842	
  -15.7951	-0.00265456	  -15.7455	-0.00264427	  -15.7023	-0.00267023	  -15.7477	-0.00265636	  -15.7477	  -66.4089	
   -15.684	-0.00265546	  -15.6362	-0.00264507	  -15.5921	-0.00267122	  -15.6374	-0.00265725	  -15.6374	  -66.4312	
  -15.5723	-0.00265627	  -15.5258	-0.00264586	  -15.4812	-0.00267207	  -15.5265	-0.00265807	  -15.5265	  -66.4516	
  -15.4605	-0.00265701	  -15.4146	-0.00264668	  -15.3695	-0.00267284	  -15.4149	-0.00265884	  -15.4149	   -66.471	
  -15.3475	-0.00265771	  -15.3026	-0.00264741	   -15.257	-0.0026736	  -15.3024	-0.00265957	  -15.3024	  -66.4894	
   -15.234	-0.00265834	  -15.1897	-0.00264799	  -15.1442	-0.00267437	  -15.1893	-0.00266023	  -15.1893	  -66.5058	
  -15.1196	-0.0026589	   -15.076	-0.00264847	  -15.0307	-0.00267505	  -15.0754	-0.00266081	  -15.0754	  -66.5202	
  -15.0045	-0.00265939	   -14.962	-0.00264898	  -14.9166	-0.00267558	   -14.961	-0.00266132	   -14.961	  -66.5329	
  -14.8889	-0.0026598	  -14.8475	-0.0026495	  -14.8021	-0.00267604	  -14.8462	-0.00266178	  -14.8462	  -66.5446	
  -14.7723	-0.00266011	  -14.7325	-0.00264985	   -14.687	-0.00267652	  -14.7306	-0.00266216	  -14.7306	   -66.554	
  -14.6555	-0.00266036	  -14.6166	-0.00265001	  -14.5712	-0.00267695	  -14.6144	-0.00266244	  -14.6144	   -66.561	
  -14.5384	-0.0026606	  -14.4997	-0.00265017	  -14.4549	-0.00267727	  -14.4977	-0.00266268	  -14.4977	   -66.567	
  -14.4204	-0.0026608	  -14.3825	-0.00265045	  -14.3382	-0.00267748	  -14.3804	-0.00266291	  -14.3804	  -66.5727	
  -14.3021	-0.00266089	  -14.2649	-0.00265068	   -14.221	-0.00267765	  -14.2627	-0.00266307	  -14.2627	  -66.5768	
  -14.1833	-0.00266085	  -14.1464	-0.00265071	  -14.1034	-0.00267782	  -14.1444	-0.00266313	  -14.1444	  -66.5782	
  -14.0639	-0.00266079	  -14.0275	-0.00265061	  -13.9853	-0.00267792	  -14.0256	-0.00266311	  -14.0256	  -66.5777	
  -13.9438	-0.00266073	  -13.9078	-0.00265057	   -13.867	-0.0026779	  -13.9062	-0.00266307	  -13.9062	  -66.5767	
  -13.8231	-0.00266057	  -13.7875	-0.00265061	  -13.7475	-0.0026778	   -13.786	-0.00266299	   -13.786	  -66.5748	
  -13.7018	-0.0026603	  -13.6668	-0.00265054	  -13.6275	-0.00267768	  -13.6654	-0.00266284	  -13.6654	   -66.571	
  -13.5801	-0.00265997	  -13.5453	-0.00265028	  -13.5067	-0.00267753	   -13.544	-0.00266259	   -13.544	  -66.5648	
  -13.4576	-0.00265966	  -13.4231	-0.00264995	   -13.385	-0.00267731	  -13.4219	-0.00266231	  -13.4219	  -66.5577	
  -13.3346	-0.00265931	  -13.3011	-0.0026497	   -13.263	 -0.002677	  -13.2995	 -0.002662	  -13.2995	  -66.5501	
  -13.2112	-0.00265882	  -13.1788	-0.00264948	  -13.1404	-0.00267664	  -13.1768	-0.00266165	  -13.1768	  -66.5412	
   -13.087	-0.00265822	  -13.0562	-0.00264914	  -13.0176	-0.0026763	  -13.0536	-0.00266122	  -13.0536	  -66.5305	
  -12.9623	-0.00265759	  -12.9331	-0.00264866	  -12.8942	-0.00267592	  -12.9299	-0.00266072	  -12.9299	   -66.518	
  -12.8371	-0.00265696	  -12.8095	-0.00264812	  -12.7707	-0.0026754	  -12.8058	-0.00266016	  -12.8058	   -66.504	
  -12.7115	-0.00265633	  -12.6852	-0.00264758	  -12.6461	-0.00267479	  -12.6809	-0.00265956	  -12.6809	  -66.4891	
  -12.5855	-0.00265563	  -12.5603	-0.00264701	  -12.5209	-0.00267417	  -12.5555	-0.00265894	  -12.5555	  -66.4734	
  -12.4589	-0.00265478	  -12.4344	-0.00264641	  -12.3947	-0.00267356	  -12.4294	-0.00265825	  -12.4294	  -66.4562	
  -12.3314	-0.00265381	  -12.3083	-0.00264575	  -12.2681	-0.00267288	  -12.3026	-0.00265748	  -12.3026	   -66.437	
  -12.2029	-0.00265282	  -12.1816	-0.00264506	  -12.1411	-0.00267208	  -12.1752	-0.00265665	  -12.1752	  -66.4163	
  -12.0736	-0.00265187	  -12.0541	-0.00264431	  -12.0136	-0.00267118	  -12.0471	-0.00265579	  -12.0471	  -66.3947	
  -11.9441	-0.00265089	   -11.926	-0.00264348	  -11.8864	-0.00267026	  -11.9188	-0.00265488	  -11.9188	   -66.372	
  -11.8146	-0.0026498	  -11.7974	-0.0026426	  -11.7588	-0.00266934	  -11.7903	-0.00265391	  -11.7903	  -66.3478	
  -11.6844	-0.0026486	  -11.6682	-0.00264169	  -11.6308	-0.00266832	  -11.6612	-0.00265287	  -11.6612	  -66.3218	
   -11.554	-0.00264736	  -11.5386	-0.00264075	  -11.5018	-0.00266721	  -11.5315	-0.00265177	  -11.5315	  -66.2943	
  -11.4234	-0.00264613	  -11.4088	-0.00263973	  -11.3721	-0.00266605	  -11.4014	-0.00265064	  -11.4014	  -66.2659	
  -11.2923	-0.00264487	  -11.2783	-0.00263861	  -11.2413	-0.00266488	  -11.2706	-0.00264945	  -11.2706	  -66.2363	
  -11.1612	-0.00264348	  -11.1474	-0.00263744	  -11.1102	-0.00266363	  -11.1396	-0.00264818	  -11.1396	  -66.2046	
  -11.0293	-0.00264197	  -11.0161	-0.00263625	  -10.9789	-0.00266225	  -11.0081	-0.00264682	  -11.0081	  -66.1706	
  -10.8973	-0.00264044	  -10.8844	 -0.002635	  -10.8468	-0.00266079	  -10.8762	-0.00264541	  -10.8762	  -66.1353	
  -10.7652	-0.00263891	  -10.7521	-0.00263365	  -10.7144	-0.00265932	  -10.7439	-0.00264396	  -10.7439	   -66.099	
  -10.6326	-0.00263731	  -10.6192	-0.00263222	  -10.5817	-0.00265782	  -10.6112	-0.00264245	  -10.6112	  -66.0612	
     -10.5	-0.00263559	  -10.4855	-0.00263074	  -10.4485	-0.00265619	   -10.478	-0.00264084	   -10.478	   -66.021	
  -10.3669	-0.00263377	  -10.3512	-0.00262922	  -10.3149	-0.00265444	  -10.3443	-0.00263914	  -10.3443	  -65.9786	
  -10.2331	-0.00263193	  -10.2163	-0.00262762	  -10.1811	-0.00265261	  -10.2102	-0.00263739	  -10.2102	  -65.9347	
  -10.0985	-0.00263006	  -10.0811	-0.00262591	  -10.0471	-0.00265076	  -10.0756	-0.00263558	  -10.0756	  -65.8895	
   -9.9636	-0.0026281	  -9.94528	-0.00262414	  -9.91289	-0.00264887	  -9.94059	-0.0026337	  -9.94059	  -65.8425	
  -9.82855	-0.00262602	  -9.80942	-0.00262231	  -9.77904	-0.00264686	  -9.80567	-0.00263173	  -9.80567	  -65.7933	
  -9.69354	-0.00262388	  -9.67275	-0.00262044	  -9.64485	-0.0026447	  -9.67038	-0.00262968	  -9.67038	  -65.7419	
  -9.55834	-0.00262171	  -9.53581	-0.00261847	  -9.51009	-0.0026425	  -9.53475	-0.00262756	  -9.53475	   -65.689	
  -9.42266	-0.00261949	  -9.39891	-0.00261635	   -9.3749	-0.00264028	  -9.39882	-0.00262537	  -9.39882	  -65.6343	
  -9.28697	-0.00261716	  -9.26148	-0.00261416	  -9.23912	-0.00263797	  -9.26253	-0.0026231	  -9.26253	  -65.5774	
  -9.15112	-0.00261474	  -9.12383	-0.00261194	  -9.10308	-0.00263554	  -9.12601	-0.00262074	  -9.12601	  -65.5184	
   -9.0148	-0.00261224	  -8.98607	-0.00260966	  -8.96686	-0.00263299	  -8.98924	-0.0026183	  -8.98924	  -65.4575	
  -8.87789	-0.00260971	  -8.84824	-0.00260726	  -8.82971	-0.00263042	  -8.85195	-0.0026158	  -8.85195	  -65.3949	
  -8.74063	-0.00260713	  -8.71018	-0.00260476	  -8.69195	-0.00262782	  -8.71426	-0.00261324	  -8.71426	   -65.331	
  -8.60279	-0.00260452	  -8.57181	-0.00260222	  -8.55374	-0.00262512	  -8.57611	-0.00261062	  -8.57611	  -65.2655	
  -8.46453	-0.0026018	  -8.43347	-0.00259964	  -8.41523	-0.00262229	  -8.43774	-0.00260791	  -8.43774	  -65.1977	
   -8.3255	-0.00259898	  -8.29478	-0.00259697	  -8.27646	-0.00261935	  -8.29891	-0.0026051	  -8.29891	  -65.1276	
  -8.18585	-0.00259607	  -8.15602	-0.00259418	  -8.13713	-0.00261635	  -8.15967	-0.0026022	  -8.15967	   -65.055	
  -8.04608	-0.00259314	  -8.01667	-0.00259128	  -7.99755	-0.00261328	   -8.0201	-0.00259923	   -8.0201	  -64.9808	
  -7.90599	-0.00259019	  -7.87574	-0.00258841	  -7.85735	-0.00261015	  -7.87969	-0.00259625	  -7.87969	  -64.9062	
  -7.76557	-0.00258715	  -7.73394	-0.00258558	  -7.71752	-0.00260696	  -7.73901	-0.00259323	  -7.73901	  -64.8307	
  -7.62476	-0.00258397	  -7.59298	-0.00258257	  -7.57716	-0.00260369	   -7.5983	-0.00259008	   -7.5983	  -64.7519	
  -7.48362	-0.0025807	  -7.45376	-0.00257929	  -7.43712	-0.00260033	  -7.45817	-0.00258677	  -7.45817	  -64.6693	
  -7.34221	-0.00257741	  -7.31451	-0.00257596	  -7.29699	-0.0025969	   -7.3179	-0.00258343	   -7.3179	  -64.5856	
  -7.20048	-0.00257406	  -7.17395	-0.00257275	  -7.15649	-0.00259342	  -7.17698	-0.00258008	  -7.17698	  -64.5019	
  -7.05861	-0.00257062	  -7.03244	-0.00256943	  -7.01564	-0.00258983	  -7.03556	-0.00257663	  -7.03556	  -64.4157	
  -6.91641	-0.00256709	  -6.89038	-0.0025659	  -6.87444	-0.00258614	  -6.89374	-0.00257305	  -6.89374	  -64.3261	
  -6.77345	-0.00256352	  -6.74684	-0.0025623	  -6.73318	-0.00258247	  -6.75116	-0.00256943	  -6.75116	  -64.2357	
  -6.63002	-0.00255988	  -6.60368	-0.00255876	  -6.59177	-0.00257878	  -6.60849	-0.00256581	  -6.60849	  -64.1452	
  -6.48664	-0.00255614	  -6.46116	-0.00255521	  -6.44969	-0.00257498	  -6.46583	-0.00256211	  -6.46583	  -64.0527	
  -6.34317	-0.00255232	   -6.3185	-0.00255146	  -6.30728	-0.00257101	  -6.32298	-0.00255826	  -6.32298	  -63.9566	
  -6.20014	-0.00254849	   -6.1762	-0.0025475	  -6.16444	-0.00256698	  -6.18026	-0.00255432	  -6.18026	   -63.858	
  -6.05707	-0.0025446	   -6.0331	-0.00254352	  -6.02105	-0.00256294	  -6.03707	-0.00255035	  -6.03707	  -63.7588	
  -5.91335	-0.0025406	  -5.88975	-0.00253966	  -5.87789	-0.00255889	  -5.89366	-0.00254639	  -5.89366	  -63.6597	
  -5.76936	-0.00253648	  -5.74558	-0.00253579	  -5.73429	-0.00255474	  -5.74974	-0.00254234	  -5.74974	  -63.5585	
  -5.62538	-0.00253229	  -5.60162	-0.0025317	   -5.5903	-0.0025504	  -5.60577	-0.00253813	  -5.60577	  -63.4533	
  -5.48089	-0.00252809	  -5.45716	-0.00252736	  -5.44619	-0.00254592	  -5.46142	-0.00253379	  -5.46142	  -63.3448	
  -5.33622	-0.00252383	  -5.31251	-0.00252301	  -5.30171	-0.00254144	  -5.31681	-0.00252943	  -5.31681	  -63.2357	
  -5.19118	-0.00251943	  -5.16732	-0.00251875	   -5.1567	-0.00253698	  -5.17173	-0.00252505	  -5.17173	  -63.1263	
  -5.04599	-0.00251493	  -5.02178	-0.00251442	  -5.01137	-0.0025324	  -5.02638	-0.00252058	  -5.02638	  -63.0146	
  -4.90093	-0.00251038	  -4.87587	-0.00250989	  -4.86586	-0.00252762	  -4.88088	-0.00251596	  -4.88088	  -62.8991	
  -4.75549	-0.00250581	  -4.73005	-0.00250524	  -4.72024	-0.00252272	  -4.73526	-0.00251126	  -4.73526	  -62.7814	
  -4.60994	-0.00250115	  -4.58399	-0.00250064	  -4.57421	-0.00251784	  -4.58938	-0.00250654	  -4.58938	  -62.6636	
  -4.46444	-0.00249635	   -4.4372	-0.00249609	  -4.42851	-0.00251295	  -4.44338	-0.0025018	  -4.44338	  -62.5449	
   -4.3182	-0.00249147	  -4.29071	-0.0024914	  -4.28232	-0.00250791	  -4.29708	-0.00249693	  -4.29708	  -62.4232	
  -4.17186	-0.00248657	  -4.14373	-0.00248649	  -4.13586	-0.00250267	  -4.15048	-0.00249191	  -4.15048	  -62.2977	
  -4.02495	-0.00248164	  -3.99663	-0.00248145	  -3.98906	-0.00249735	  -4.00354	-0.00248681	  -4.00354	  -62.1702	
  -3.87818	-0.00247664	  -3.84908	-0.00247635	  -3.84183	 -0.002492	  -3.85636	-0.00248166	  -3.85636	  -62.0416	
  -3.73152	-0.00247148	   -3.7012	-0.00247132	  -3.69425	-0.00248662	  -3.70899	-0.00247647	  -3.70899	  -61.9118	
