# User: ACHyster
# File name: C:/ACHYSTER/ACHyster SENS/SHAMS/CoFe2O4-1gl-water-32 Glycerol-Sens-07-03-2023/CoFe2O4-1gl-water-32 Glycerol- 10_100F- 12 kAm -Sens-07-03-20230006#1.txt
# Saved at: ma. mar. 7 16:09:10 2023
# Hyster Loop (3 iterations). Intensity: 12.0 kA/m; Tuned frequency: 79.9 kHz
# Units x axis: (kA/m)
# Units y axis: "Repeats y" & "Average y" (10^(-3)Am^2); "Mass avg y" (Am^2/kg)
# Magnetic mass: 4e-05 g
# Parameter      	Repeat   1	Repeat   2	Repeat   3	Average   	Sigma     
# H_C (kA/m)     	      10.6	      10.8	      10.7	      10.7	       0.1
# M_R (Am^2/kg)  	      16.3	      16.3	      16.5	      16.4	       0.1
# M_max (Am^2/kg)	       8.5	       7.9	       8.2	       8.2	       0.2
# Area (mJ/kg)   	     759.2	     759.3	     763.8	     760.8	       2.1
# SAR (W/g)      	      60.7	      60.7	      61.0	      60.8	       0.2
#Repeat 1 x	Repeat 1 y	Repeat 2 x	Repeat 2 y	Repeat 3 x	Repeat 3 y	Average x 	Average y 	Mass avg x 	Mass avg y 
   -1.7663	-0.000690992	  -1.76839	-0.000690405	  -1.76717	-0.000694482	  -1.76729	-0.00069196	  -1.76729	   -17.299	
  -1.69203	-0.000689642	  -1.69366	-0.000689132	  -1.69222	-0.000693229	  -1.69264	-0.000690668	  -1.69264	  -17.2667	
  -1.61776	-0.000688352	  -1.61898	-0.000687803	  -1.61733	-0.000691985	  -1.61802	-0.00068938	  -1.61802	  -17.2345	
  -1.54332	-0.000687089	  -1.54418	-0.000686422	  -1.54233	-0.000690749	  -1.54327	-0.000688087	  -1.54327	  -17.2022	
  -1.46876	-0.000685801	   -1.4693	-0.000684999	  -1.46726	-0.000689506	  -1.46844	-0.000686769	  -1.46844	  -17.1692	
  -1.39435	-0.000684423	  -1.39459	-0.000683548	  -1.39217	-0.000688243	   -1.3937	-0.000685405	   -1.3937	  -17.1351	
  -1.32031	-0.000682909	  -1.31984	-0.000682085	   -1.3169	-0.000686939	  -1.31902	-0.000683978	  -1.31902	  -17.0995	
  -1.24665	-0.000681246	  -1.24512	-0.000680621	  -1.24171	-0.000685579	  -1.24449	-0.000682482	  -1.24449	   -17.062	
  -1.17297	-0.000679441	  -1.17048	-0.000679157	  -1.16643	-0.000684158	  -1.16996	-0.000680919	  -1.16996	   -17.023	
  -1.09908	-0.000677541	  -1.09574	-0.000677693	   -1.0911	-0.000682673	  -1.09531	-0.000679302	  -1.09531	  -16.9826	
  -1.02526	-0.000675595	  -1.02116	-0.000676216	  -1.01577	-0.000681129	  -1.02073	-0.000677647	  -1.02073	  -16.9412	
 -0.950899	-0.000673671	 -0.946346	-0.000674717	 -0.940284	-0.000679538	 -0.945843	-0.000675976	 -0.945843	  -16.8994	
 -0.875881	-0.000671816	 -0.871359	-0.000673179	 -0.864893	-0.000677914	 -0.870711	-0.000674303	 -0.870711	  -16.8576	
 -0.800927	-0.000670054	 -0.796464	-0.000671591	 -0.789427	-0.000676271	 -0.795606	-0.000672639	 -0.795606	   -16.816	
  -0.72602	-0.000668382	 -0.721482	-0.000669952	 -0.713935	-0.000674617	 -0.720479	-0.000670984	 -0.720479	  -16.7746	
 -0.650618	-0.000666746	 -0.646671	-0.000668267	 -0.638669	-0.000672952	 -0.645319	-0.000669322	 -0.645319	   -16.733	
 -0.575435	-0.000665107	 -0.571637	-0.000666546	 -0.563233	-0.000671276	 -0.570102	-0.000667643	 -0.570102	  -16.6911	
 -0.500282	-0.000663419	  -0.49665	-0.000664819	 -0.487894	-0.00066958	 -0.494942	-0.000665939	 -0.494942	  -16.6485	
 -0.424778	-0.000661629	 -0.421537	-0.000663094	 -0.412687	-0.000667855	 -0.419667	-0.000664193	 -0.419667	  -16.6048	
 -0.349205	-0.000659711	 -0.346348	-0.000661373	 -0.337431	-0.00066609	 -0.344328	-0.000662391	 -0.344328	  -16.5598	
 -0.274031	-0.000657678	 -0.271342	-0.000659652	 -0.262173	-0.000664274	 -0.269182	-0.000660535	 -0.269182	  -16.5134	
 -0.198218	-0.000655547	 -0.196336	-0.000657922	 -0.186746	-0.000662407	 -0.193767	-0.000658625	 -0.193767	  -16.4656	
 -0.121862	-0.000653365	 -0.121371	-0.000656149	 -0.111572	-0.000660488	 -0.118269	-0.000656667	 -0.118269	  -16.4167	
-0.0463089	-0.000651194	-0.0460659	-0.000654316	-0.0360968	-0.000658523	-0.0428238	-0.000654678	-0.0428238	  -16.3669	
 0.0299311	-0.000649064	 0.0293015	-0.00065241	 0.0394044	-0.000656521	  0.032879	-0.000652665	  0.032879	  -16.3166	
  0.106965	-0.000647002	  0.104682	-0.000650428	  0.114885	-0.000654491	  0.108844	-0.00065064	  0.108844	   -16.266	
  0.182587	-0.000644991	  0.180245	-0.000648373	  0.190516	-0.000652438	  0.184449	-0.000648601	  0.184449	   -16.215	
  0.257915	-0.000643008	  0.255722	-0.000646264	  0.266032	-0.000650356	   0.25989	-0.000646542	   0.25989	  -16.1636	
  0.334606	-0.000641019	  0.331076	-0.000644128	  0.341399	-0.000648246	  0.335694	-0.000644464	  0.335694	  -16.1116	
    0.4102	-0.000638986	  0.406488	-0.000641999	  0.416799	-0.000646113	  0.411163	-0.000642366	  0.411163	  -16.0591	
  0.485111	-0.000636873	  0.481701	-0.000639902	  0.491977	-0.000643952	  0.486263	-0.000640242	  0.486263	  -16.0061	
   0.56129	-0.000634663	  0.557106	-0.000637852	  0.567327	-0.000641767	  0.561908	-0.000638094	  0.561908	  -15.9523	
  0.636496	-0.00063235	  0.632437	-0.000635847	  0.642583	-0.000639572	  0.637172	-0.000635923	  0.637172	  -15.8981	
  0.711393	-0.000629957	  0.707865	-0.000633875	   0.71771	-0.00063737	  0.712323	-0.000633734	  0.712323	  -15.8434	
   0.78806	-0.000627515	  0.783343	-0.000631907	  0.792888	-0.000635164	  0.788097	-0.000631529	  0.788097	  -15.7882	
  0.864212	-0.00062505	  0.858614	-0.000629909	  0.867863	-0.000632951	  0.863563	-0.000629303	  0.863563	  -15.7326	
  0.938801	-0.000622595	  0.934072	-0.000627844	   0.94282	-0.000630729	  0.938564	-0.000627056	  0.938564	  -15.6764	
   1.01432	-0.000620173	   1.00945	-0.000625688	   1.01772	-0.000628493	   1.01383	-0.000624785	   1.01383	  -15.6196	
    1.0895	-0.000617791	   1.08471	-0.00062343	   1.09232	-0.000626228	   1.08884	-0.000622483	   1.08884	  -15.5621	
   1.16371	-0.000615438	   1.16004	-0.000621074	   1.16702	-0.000623908	   1.16359	-0.00062014	   1.16359	  -15.5035	
   1.23864	-0.000613094	   1.23517	-0.000618634	   1.24156	-0.000621529	   1.23846	-0.000617753	   1.23846	  -15.4438	
    1.3138	-0.000610733	    1.3105	-0.000616122	   1.31592	-0.000619082	   1.31341	-0.000615312	   1.31341	  -15.3828	
   1.38786	-0.000608328	   1.38576	-0.00061358	   1.39029	-0.000616562	   1.38797	-0.000612823	   1.38797	  -15.3206	
   1.46233	-0.000605854	    1.4607	-0.000611053	    1.4644	-0.000613979	   1.46248	-0.000610295	   1.46248	  -15.2574	
   1.53758	-0.000603296	   1.53574	-0.000608567	   1.53868	-0.000611349	   1.53733	-0.000607738	   1.53733	  -15.1934	
   1.61217	-0.000600654	    1.6106	-0.000606133	   1.61284	-0.000608695	   1.61187	-0.000605161	   1.61187	   -15.129	
   1.68702	-0.000597947	   1.68548	-0.000603759	   1.68708	-0.000606033	   1.68653	-0.000602579	   1.68653	  -15.0645	
   1.76228	-0.0005952	   1.76034	-0.000601426	   1.76136	-0.000603375	   1.76132	   -0.0006	   1.76132	       -15	
   1.83681	-0.000592445	   1.83491	-0.000599104	   1.83541	-0.000600737	   1.83571	-0.000597429	   1.83571	  -14.9357	
   1.91128	-0.000589709	   1.90962	-0.000596754	   1.90964	-0.000598116	   1.91018	-0.00059486	   1.91018	  -14.8715	
   1.98627	-0.000587011	    1.9842	-0.000594341	   1.98379	-0.000595502	   1.98475	-0.000592285	   1.98475	  -14.8071	
   2.06087	-0.000584355	    2.0584	-0.000591834	   2.05783	-0.00059288	   2.05903	-0.000589689	   2.05903	  -14.7422	
   2.13485	-0.000581725	   2.13265	-0.000589204	   2.13193	-0.000590231	   2.13314	-0.000587053	   2.13314	  -14.6763	
   2.20912	-0.000579094	   2.20668	-0.000586451	   2.20585	-0.000587541	   2.20722	-0.000584362	   2.20722	  -14.6091	
   2.28314	-0.000576424	   2.28069	-0.000583593	   2.27976	-0.000584798	    2.2812	-0.000581605	    2.2812	  -14.5401	
   2.35691	-0.000573676	   2.35464	-0.000580659	   2.35364	-0.000581997	   2.35506	-0.000578778	   2.35506	  -14.4694	
   2.43102	-0.000570823	    2.4283	-0.00057769	   2.42724	-0.000579145	   2.42885	-0.000575886	   2.42885	  -14.3971	
   2.50521	-0.000567859	   2.50185	-0.000574733	   2.50075	-0.000576247	    2.5026	-0.000572946	    2.5026	  -14.3237	
    2.5788	-0.000564795	   2.57527	-0.000571834	   2.57416	-0.00057332	   2.57608	-0.000569983	   2.57608	  -14.2496	
   2.65223	-0.000561667	   2.64833	-0.000569019	   2.64742	-0.000570384	   2.64933	-0.000567023	   2.64933	  -14.1756	
   2.72568	-0.000558519	   2.72143	-0.000566291	   2.72052	-0.000567448	   2.72255	-0.000564086	   2.72255	  -14.1022	
   2.79891	-0.000555402	   2.79434	-0.000563637	   2.79344	-0.000564522	   2.79556	-0.000561187	   2.79556	  -14.0297	
    2.8721	-0.000552355	   2.86746	-0.000561019	   2.86636	-0.000561596	   2.86864	-0.000558323	   2.86864	  -13.9581	
   2.94523	-0.000549395	   2.94051	-0.000558382	   2.93926	-0.000558661	   2.94167	-0.00055548	   2.94167	   -13.887	
   3.01805	-0.000546515	   3.01327	-0.000555669	   3.01209	-0.000555706	   3.01447	-0.00055263	   3.01447	  -13.8157	
   3.09077	-0.000543686	   3.08614	-0.000552829	   3.08484	-0.000552715	   3.08725	-0.000549743	   3.08725	  -13.7436	
   3.16336	-0.000540857	   3.15887	-0.000549835	   3.15747	-0.00054968	    3.1599	-0.000546791	    3.1599	  -13.6698	
    3.2356	-0.000537978	   3.23123	-0.000546687	   3.22996	-0.000546593	   3.23226	-0.000543753	   3.23226	  -13.5938	
   3.30789	-0.000534999	   3.30343	-0.000543407	   3.30229	-0.000543453	   3.30454	-0.00054062	   3.30454	  -13.5155	
   3.38015	-0.000531895	   3.37545	-0.000540052	    3.3746	-0.000540274	   3.37673	-0.000537407	   3.37673	  -13.4352	
   3.45219	-0.000528659	   3.44747	-0.00053669	    3.4465	-0.000537066	   3.44872	-0.000534138	   3.44872	  -13.3535	
     3.524	-0.000525315	   3.51948	-0.000533376	    3.5184	-0.000533844	   3.52063	-0.000530845	   3.52063	  -13.2711	
   3.59578	-0.000521902	   3.59124	-0.000530154	   3.59007	-0.000530624	   3.59236	-0.00052756	   3.59236	   -13.189	
   3.66729	-0.000518474	   3.66272	-0.000527045	   3.66149	-0.000527418	   3.66383	-0.000524313	   3.66383	  -13.1078	
   3.73873	-0.00051508	   3.73414	-0.000524024	   3.73286	-0.000524231	   3.73524	-0.000521112	   3.73524	  -13.0278	
   3.81029	-0.000511759	   3.80526	-0.00052106	   3.80396	-0.000521052	    3.8065	-0.000517957	    3.8065	  -12.9489	
   3.88193	-0.00050852	   3.87649	-0.000518087	   3.87497	-0.000517862	    3.8778	-0.000514823	    3.8778	  -12.8706	
    3.9534	-0.000505351	    3.9476	-0.00051504	   3.94589	-0.000514642	   3.94896	-0.000511678	   3.94896	  -12.7919	
   4.02511	-0.000502218	   4.01856	-0.000511887	   4.01649	-0.000511364	   4.02005	-0.00050849	   4.02005	  -12.7122	
    4.0968	-0.000499079	   4.08935	-0.000508598	   4.08655	-0.000508007	    4.0909	-0.000505228	    4.0909	  -12.6307	
   4.16823	-0.000495884	   4.15997	-0.000505176	   4.15652	-0.000504565	   4.16157	-0.000501875	   4.16157	  -12.5469	
   4.23939	-0.000492596	    4.2304	-0.000501666	   4.22616	-0.000501043	   4.23198	-0.000498435	   4.23198	  -12.4609	
   4.31049	-0.000489197	   4.30084	-0.000498109	   4.29548	-0.000497458	   4.30227	-0.000494921	   4.30227	   -12.373	
    4.3813	-0.000485692	   4.37105	-0.000494558	   4.36471	-0.000493846	   4.37235	-0.000491365	   4.37235	  -12.2841	
   4.45191	-0.000482102	   4.44114	-0.000491054	   4.43391	-0.000490246	   4.44232	-0.000487801	   4.44232	   -12.195	
   4.52243	-0.000478465	    4.5112	-0.000487616	   4.50319	-0.000486692	   4.51227	-0.000484257	   4.51227	  -12.1064	
   4.59261	-0.000474822	   4.58098	-0.000484248	    4.5723	-0.000483198	   4.58197	-0.000480756	   4.58197	  -12.0189	
   4.66268	-0.000471213	    4.6505	-0.000480928	   4.64144	-0.000479773	   4.65154	-0.000477305	   4.65154	  -11.9326	
   4.73262	-0.000467663	   4.71995	-0.000477614	    4.7106	-0.000476371	   4.72106	-0.000473883	   4.72106	  -11.8471	
   4.80221	-0.000464186	   4.78912	-0.000474262	   4.78017	-0.000472957	    4.7905	-0.000470468	    4.7905	  -11.7617	
   4.87144	-0.00046077	   4.85801	-0.000470828	   4.84945	-0.000469508	   4.85963	-0.000467036	   4.85963	  -11.6759	
   4.94055	-0.000457405	   4.92682	-0.000467291	   4.91846	-0.000465961	   4.92861	-0.000463552	   4.92861	  -11.5888	
   5.00931	-0.000454045	   4.99533	-0.00046365	   4.98736	-0.000462307	   4.99733	  -0.00046	   4.99733	     -11.5	
   5.07772	-0.000450643	   5.06356	-0.000459916	   5.05576	-0.00045855	   5.06568	-0.00045637	   5.06568	  -11.4092	
   5.14602	-0.000447158	   5.13171	-0.000456129	    5.1239	-0.000454705	   5.13387	-0.000452664	   5.13387	  -11.3166	
   5.21397	-0.000443565	   5.19956	-0.00045233	    5.1924	-0.000450831	   5.20198	-0.000448909	   5.20198	  -11.2227	
   5.28159	-0.000439844	   5.26712	-0.000448564	    5.2606	-0.000446969	   5.26977	-0.000445125	   5.26977	  -11.1281	
    5.3491	-0.000436009	   5.33461	-0.000444854	   5.32828	-0.000443146	   5.33733	-0.000441337	   5.33733	  -11.0334	
   5.41628	-0.000432085	    5.4018	-0.000441195	   5.39653	-0.000439414	   5.40487	-0.000437565	   5.40487	  -10.9391	
   5.48336	-0.000428114	   5.46871	-0.000437567	   5.46422	-0.000435755	    5.4721	-0.000433812	    5.4721	  -10.8453	
   5.55032	-0.000424138	    5.5354	-0.000433932	    5.5315	-0.000432151	   5.53907	-0.000430074	   5.53907	  -10.7518	
   5.61696	-0.000420203	   5.60182	-0.000430242	   5.59953	-0.00042857	    5.6061	-0.000426338	    5.6061	  -10.6585	
   5.68349	-0.000416338	   5.66798	-0.000426466	   5.66656	-0.000424959	   5.67268	-0.000422588	   5.67268	  -10.5647	
   5.74992	-0.000412556	   5.73409	-0.000422589	   5.73286	-0.000421276	   5.73896	-0.000418807	   5.73896	  -10.4702	
   5.81603	-0.000408847	   5.79996	-0.000418619	   5.79954	-0.000417489	   5.80517	-0.000414985	   5.80517	  -10.3746	
   5.88183	-0.000405184	   5.86536	-0.000414588	   5.86549	-0.000413593	    5.8709	-0.000411122	    5.8709	   -10.278	
   5.94756	-0.000401527	   5.93076	-0.00041054	   5.93078	-0.000409611	   5.93637	-0.000407226	   5.93637	  -10.1807	
   6.01299	-0.000397831	   5.99594	-0.000406527	   5.99648	-0.000405576	    6.0018	-0.000403311	    6.0018	  -10.0828	
   6.07809	-0.000394055	   6.06069	-0.000402588	   6.06173	-0.000401539	   6.06684	-0.000399394	   6.06684	  -9.98486	
   6.14314	-0.00039018	   6.12525	-0.000398742	   6.12675	-0.000397548	   6.13171	-0.00039549	   6.13171	  -9.88725	
   6.20793	-0.000386203	   6.18963	-0.000394979	   6.19198	-0.000393629	   6.19651	-0.000391604	   6.19651	  -9.79009	
   6.27247	-0.000382133	   6.25363	-0.000391251	   6.25677	-0.000389795	   6.26095	-0.000387727	   6.26095	  -9.69317	
   6.33677	-0.000378002	   6.31728	-0.000387518	   6.32092	-0.000386028	   6.32499	-0.000383849	   6.32499	  -9.59623	
   6.40085	-0.000373849	   6.38081	-0.000383734	   6.38492	-0.0003823	   6.38886	-0.000379961	   6.38886	  -9.49902	
   6.46452	-0.00036971	   6.44402	-0.000379849	   6.44877	-0.000378566	   6.45243	-0.000376041	   6.45243	  -9.40103	
   6.52801	-0.000365611	   6.50693	-0.000375843	   6.51205	-0.000374778	   6.51567	-0.000372078	   6.51567	  -9.30194	
   6.59134	-0.000361558	   6.56963	-0.000371731	   6.57524	-0.000370907	   6.57874	-0.000368065	   6.57874	  -9.20162	
    6.6543	-0.000357541	   6.63207	-0.000367545	   6.63834	-0.000366935	   6.64157	-0.000364007	   6.64157	  -9.10018	
   6.71694	-0.00035354	   6.69408	-0.000363341	   6.70093	-0.000362865	   6.70398	-0.000359916	   6.70398	  -8.99789	
   6.77948	-0.000349523	    6.7561	-0.000359173	   6.76327	-0.000358725	   6.76628	-0.000355807	   6.76628	  -8.89518	
   6.84172	-0.00034546	   6.81793	-0.000355082	   6.82538	-0.000354549	   6.82834	-0.000351697	   6.82834	  -8.79242	
   6.90369	-0.000341329	   6.87938	-0.000351089	   6.88707	-0.000350378	   6.89005	-0.000347599	   6.89005	  -8.68997	
   6.96563	-0.000337118	   6.94069	-0.000347174	   6.94859	-0.000346246	   6.95163	-0.000343513	   6.95163	  -8.58782	
   7.02732	-0.000332833	   7.00188	-0.000343306	   7.00995	-0.000342176	   7.01305	-0.000339438	   7.01305	  -8.48596	
   7.08859	-0.000328491	    7.0629	-0.000339442	   7.07097	-0.000338169	   7.07415	-0.000335367	   7.07415	  -8.38418	
   7.14947	-0.000324119	   7.12343	-0.000335533	   7.13167	-0.000334213	   7.13485	-0.000331289	   7.13485	  -8.28221	
      7.21	-0.000319745	   7.18391	-0.000331557	    7.1923	-0.000330278	    7.1954	-0.000327193	    7.1954	  -8.17984	
   7.27021	-0.000315386	   7.24415	-0.000327483	   7.25267	-0.000326332	   7.25568	-0.000323067	   7.25568	  -8.07667	
   7.33015	-0.000311062	   7.30398	-0.000323322	   7.31259	-0.00032234	   7.31557	-0.000318908	   7.31557	   -7.9727	
   7.39005	-0.000306774	   7.36364	-0.000319105	    7.3721	-0.000318284	   7.37527	-0.000314721	   7.37527	  -7.86802	
   7.44972	-0.000302506	   7.42295	-0.000314855	   7.43147	-0.000314146	   7.43471	-0.000310502	   7.43471	  -7.76256	
   7.50897	-0.000298227	   7.48195	-0.000310614	   7.49051	-0.000309929	   7.49381	-0.000306257	   7.49381	  -7.65642	
   7.56765	-0.000293917	   7.54068	-0.000306408	   7.54925	-0.000305643	   7.55253	-0.000301989	   7.55253	  -7.54973	
   7.62581	-0.000289556	   7.59937	-0.000302247	   7.60774	-0.000301306	   7.61097	-0.000297703	   7.61097	  -7.44258	
   7.68371	-0.000285138	   7.65785	-0.000298138	   7.66601	-0.000296947	   7.66919	-0.000293408	   7.66919	  -7.33519	
    7.7412	-0.000280663	   7.71593	-0.000294057	   7.72388	-0.000292586	     7.727	-0.000289102	     7.727	  -7.22755	
   7.79832	-0.000276147	   7.77366	-0.000289978	    7.7814	-0.000288235	   7.78446	-0.000284787	   7.78446	  -7.11967	
   7.85532	-0.00027161	   7.83109	-0.000285883	   7.83841	-0.000283904	    7.8416	-0.000280465	    7.8416	  -7.01164	
   7.91203	-0.000267069	   7.88825	-0.000281735	   7.89517	-0.00027959	   7.89848	-0.000276131	   7.89848	  -6.90329	
   7.96828	-0.000262546	   7.94498	-0.000277523	   7.95152	-0.000275289	   7.95493	-0.000271786	   7.95493	  -6.79465	
   8.02434	-0.000258051	   8.00133	-0.000273239	   8.00731	-0.000271005	   8.01099	-0.000267432	   8.01099	  -6.68579	
   8.08025	-0.000253589	   8.05735	-0.000268892	   8.06302	-0.000266718	   8.06687	-0.000263067	   8.06687	  -6.57666	
   8.13583	-0.000249152	    8.1131	-0.000264507	   8.11847	-0.000262421	   8.12247	-0.000258693	   8.12247	  -6.46733	
   8.19092	-0.000244718	   8.16841	-0.0002601	    8.1735	-0.000258109	   8.17761	-0.000254309	   8.17761	  -6.35773	
   8.24581	-0.000240261	   8.22314	-0.0002557	   8.22796	-0.000253776	    8.2323	-0.000249913	    8.2323	  -6.24781	
   8.30052	-0.000235763	   8.27777	-0.00025133	   8.28213	-0.000249412	   8.28681	-0.000245502	   8.28681	  -6.13754	
   8.35491	-0.000231211	   8.33213	-0.000246995	   8.33607	-0.000245008	   8.34104	-0.000241072	   8.34104	  -6.02679	
    8.4088	-0.000226589	   8.38607	-0.0002427	   8.38961	-0.000240562	   8.39483	-0.000236617	   8.39483	  -5.91543	
   8.46206	-0.000221899	   8.43964	-0.00023843	   8.44303	-0.000236079	   8.44825	-0.000232136	   8.44825	  -5.80341	
   8.51478	-0.000217164	   8.49312	-0.000234169	   8.49616	-0.000231562	   8.50135	-0.000227632	   8.50135	  -5.69079	
   8.56703	-0.000212409	   8.54633	-0.000229892	   8.54906	-0.000227018	   8.55414	-0.000223106	   8.55414	  -5.57766	
   8.61888	-0.000207665	   8.59913	-0.000225575	   8.60156	-0.000222462	   8.60652	-0.000218567	   8.60652	  -5.46418	
   8.67041	-0.000202967	   8.65157	-0.000221201	   8.65374	-0.000217911	   8.65857	-0.000214027	   8.65857	  -5.35066	
   8.72167	-0.000198327	   8.70372	-0.000216769	   8.70544	-0.000213387	   8.71028	-0.000209494	   8.71028	  -5.23736	
   8.77273	-0.000193746	   8.75564	-0.000212284	   8.75695	-0.000208913	   8.76177	-0.000204981	   8.76177	  -5.12453	
   8.82343	-0.000189223	   8.80718	-0.000207767	   8.80812	-0.000204481	   8.81291	-0.00020049	   8.81291	  -5.01226	
   8.87426	-0.000184712	   8.85818	-0.000203237	   8.85879	-0.00020008	   8.86375	-0.00019601	   8.86375	  -4.90024	
   8.92505	-0.000180197	   8.90896	-0.000198725	   8.90906	-0.00019569	   8.91435	-0.000191537	   8.91435	  -4.78843	
   8.97499	-0.000175641	   8.95934	-0.000194245	   8.95921	-0.000191287	   8.96451	-0.000187058	   8.96451	  -4.67645	
   9.02441	-0.000171006	   9.00942	-0.000189807	   9.00907	-0.000186837	    9.0143	-0.00018255	    9.0143	  -4.56374	
    9.0736	-0.00016631	   9.05904	-0.000185405	   9.05851	-0.000182315	   9.06372	-0.00017801	   9.06372	  -4.45025	
     9.122	-0.000161552	   9.10808	-0.000181022	   9.10739	-0.000177709	   9.11249	-0.000173428	   9.11249	  -4.33569	
   9.16994	-0.000156749	   9.15663	-0.000176634	   9.15581	-0.000173029	   9.16079	-0.000168804	   9.16079	  -4.22011	
   9.21801	-0.000151956	   9.20499	-0.00017222	   9.20407	-0.000168307	   9.20902	-0.000164161	   9.20902	  -4.10402	
   9.26533	-0.000147194	   9.25301	-0.000167763	   9.25201	-0.000163578	   9.25678	-0.000159512	   9.25678	   -3.9878	
   9.31241	-0.000142487	   9.30057	-0.000163261	    9.2995	-0.000158883	   9.30416	-0.000154877	   9.30416	  -3.87193	
   9.35997	-0.000137856	   9.34753	-0.000158715	   9.34642	-0.000154257	   9.35131	-0.000150276	   9.35131	   -3.7569	
   9.40633	-0.000133281	   9.39421	-0.000154142	   9.39266	-0.00014971	   9.39773	-0.000145711	   9.39773	  -3.64278	
   9.45206	-0.000128747	   9.44069	-0.00014956	   9.43875	-0.000145238	   9.44384	-0.000141182	   9.44384	  -3.52954	
   9.49854	-0.000124214	   9.48683	-0.000144991	   9.48455	-0.000140817	   9.48997	-0.000136674	   9.48997	  -3.41685	
   9.54388	-0.000119649	   9.53251	-0.000140449	   9.52992	-0.000136404	   9.53544	-0.000132167	   9.53544	  -3.30418	
   9.58884	-0.000115026	    9.5776	-0.000135938	   9.57497	-0.000131963	   9.58047	-0.000127643	   9.58047	  -3.19106	
   9.63415	-0.000110329	   9.62242	-0.000131456	   9.61956	-0.000127458	   9.62538	-0.000123081	   9.62538	  -3.07703	
   9.67817	-0.000105572	   9.66705	-0.000126992	    9.6638	-0.000122869	   9.66967	-0.000118478	   9.66967	  -2.96195	
   9.72168	-0.000100783	   9.71137	-0.000122526	   9.70777	-0.000118207	   9.71361	-0.000113839	   9.71361	  -2.84597	
   9.76543	-9.59912e-05	   9.75525	-0.000118045	   9.75135	-0.000113482	   9.75734	-0.000109172	   9.75734	  -2.72931	
   9.80862	-9.12378e-05	   9.79857	-0.000113531	   9.79443	-0.000108715	   9.80054	-0.000104495	   9.80054	  -2.61237	
   9.85094	-8.65401e-05	   9.84145	-0.000108982	   9.83711	-0.000103942	   9.84317	-9.98213e-05	   9.84317	  -2.49553	
   9.89364	-8.19055e-05	   9.88404	-0.000104395	   9.87954	-9.9201e-05	   9.88574	-9.5167e-05	   9.88574	  -2.37918	
   9.93585	-7.73318e-05	   9.92639	-9.97759e-05	   9.92155	-9.45179e-05	   9.92793	-9.05419e-05	   9.92793	  -2.26355	
   9.97726	-7.27855e-05	   9.96836	-9.51415e-05	   9.96325	-8.98952e-05	   9.96962	-8.59407e-05	   9.96962	  -2.14852	
   10.0186	-6.82334e-05	   10.0101	-9.05034e-05	   10.0045	-8.53348e-05	   10.0111	-8.13572e-05	   10.0111	  -2.03393	
   10.0597	-6.36413e-05	   10.0512	-8.58706e-05	   10.0453	-8.08241e-05	    10.052	-7.67787e-05	    10.052	  -1.91947	
      10.1	-5.89864e-05	    10.092	-8.12496e-05	   10.0856	-7.63307e-05	   10.0925	-7.21889e-05	   10.0925	  -1.80472	
   10.1399	-5.42731e-05	   10.1327	-7.65859e-05	   10.1258	-7.18336e-05	   10.1328	-6.75642e-05	   10.1328	  -1.68911	
   10.1799	-4.95149e-05	   10.1729	-7.19011e-05	   10.1658	-6.73071e-05	   10.1729	-6.29077e-05	   10.1729	  -1.57269	
   10.2191	-4.47442e-05	   10.2126	-6.72235e-05	   10.2055	-6.27342e-05	   10.2124	-5.8234e-05	   10.2124	  -1.45585	
   10.2581	-4.00033e-05	   10.2519	-6.25478e-05	   10.2447	-5.81086e-05	   10.2516	-5.35532e-05	   10.2516	  -1.33883	
   10.2968	-3.53267e-05	   10.2909	-5.78982e-05	   10.2834	-5.34302e-05	   10.2904	-4.8885e-05	   10.2904	  -1.22213	
   10.3348	-3.0736e-05	   10.3293	-5.32945e-05	   10.3217	-4.87135e-05	   10.3286	-4.4248e-05	   10.3286	   -1.1062	
   10.3725	-2.62335e-05	   10.3687	-4.87475e-05	   10.3594	-4.39745e-05	   10.3669	-3.96518e-05	   10.3669	 -0.991296	
   10.4099	-2.17947e-05	   10.4086	-4.4269e-05	   10.3968	-3.92309e-05	   10.4051	-3.50982e-05	   10.4051	 -0.877456	
   10.4471	-1.73855e-05	   10.4468	-3.98466e-05	   10.4339	-3.45026e-05	   10.4426	-3.05782e-05	   10.4426	 -0.764456	
   10.4839	-1.29611e-05	    10.485	-3.54814e-05	   10.4707	-2.98027e-05	   10.4799	-2.60817e-05	   10.4799	 -0.652044	
   10.5204	-8.48143e-06	   10.5238	-3.11381e-05	    10.507	-2.51436e-05	   10.5171	-2.15877e-05	   10.5171	 -0.539693	
   10.5564	-3.92263e-06	   10.5602	-2.67544e-05	   10.5429	-2.05263e-05	   10.5532	-1.70678e-05	   10.5532	 -0.426694	
   10.5917	7.23178e-07	   10.5957	-2.22868e-05	   10.5783	-1.59445e-05	   10.5886	-1.25027e-05	   10.5886	 -0.312568	
   10.6269	5.43513e-06	   10.6322	-1.76968e-05	   10.6131	-1.13874e-05	    10.624	-7.88303e-06	    10.624	 -0.197076	
   10.6618	 1.018e-05	    10.667	-1.29617e-05	   10.6475	-6.83535e-06	   10.6588	-3.2057e-06	   10.6588	-0.0801425	
   10.6962	1.49145e-05	   10.6996	-8.09821e-06	   10.6818	-2.27411e-06	   10.6925	1.51405e-06	   10.6925	 0.0378512	
   10.7303	1.95967e-05	   10.7322	-3.14192e-06	   10.7157	2.30736e-06	    10.726	6.25406e-06	    10.726	  0.156352	
   10.7638	2.41964e-05	   10.7642	1.84406e-06	   10.7491	6.91262e-06	    10.759	1.09844e-05	    10.759	  0.274609	
   10.7968	2.87036e-05	   10.7952	6.79342e-06	   10.7821	1.15373e-05	   10.7914	1.56781e-05	   10.7914	  0.391952	
   10.8294	3.31268e-05	   10.8267	1.16425e-05	   10.8145	1.61725e-05	   10.8235	2.03139e-05	   10.8235	  0.507848	
   10.8616	3.74948e-05	   10.8577	1.63338e-05	   10.8463	2.08012e-05	   10.8552	2.48766e-05	   10.8552	  0.621915	
   10.8931	4.18474e-05	   10.8879	2.08637e-05	   10.8776	2.54109e-05	   10.8862	2.9374e-05	   10.8862	   0.73435	
   10.9245	4.62294e-05	    10.918	2.52489e-05	   10.9086	2.9991e-05	    10.917	3.38231e-05	    10.917	  0.845577	
   10.9556	5.06758e-05	   10.9479	2.95308e-05	   10.9392	3.45353e-05	   10.9476	3.82473e-05	   10.9476	  0.956182	
   10.9864	5.52055e-05	   10.9772	3.37716e-05	   10.9695	3.90479e-05	   10.9777	4.2675e-05	   10.9777	   1.06688	
   11.0167	5.98144e-05	   11.0066	3.80418e-05	   10.9995	4.35364e-05	   11.0076	4.71309e-05	   11.0076	   1.17827	
   11.0465	6.44831e-05	   11.0357	4.24024e-05	   11.0291	4.80142e-05	   11.0371	5.16332e-05	   11.0371	   1.29083	
   11.0758	6.9176e-05	   11.0637	4.68901e-05	   11.0581	5.24957e-05	   11.0659	5.61873e-05	   11.0659	   1.40468	
   11.1045	7.38533e-05	   11.0917	5.15015e-05	   11.0867	5.69891e-05	   11.0943	6.07813e-05	   11.0943	   1.51953	
   11.1329	7.84761e-05	   11.1197	5.62204e-05	   11.1146	6.15012e-05	   11.1224	6.53992e-05	   11.1224	   1.63498	
   11.1606	8.30217e-05	   11.1471	6.09987e-05	   11.1419	6.60326e-05	   11.1499	7.00176e-05	   11.1499	   1.75044	
   11.1875	8.74823e-05	   11.1739	6.57746e-05	   11.1688	7.05744e-05	   11.1767	7.46104e-05	   11.1767	   1.86526	
   11.2143	9.18718e-05	   11.2007	7.04873e-05	   11.1951	7.51211e-05	   11.2034	7.91601e-05	   11.2034	     1.979	
   11.2407	9.62184e-05	   11.2266	7.50955e-05	   11.2211	7.96613e-05	   11.2295	8.36584e-05	   11.2295	   2.09146	
   11.2665	0.000100561	    11.252	7.95826e-05	   11.2469	8.41906e-05	   11.2552	8.81114e-05	   11.2552	   2.20279	
   11.2921	0.000104936	   11.2772	8.39571e-05	   11.2725	8.87004e-05	   11.2806	9.2531e-05	   11.2806	   2.31328	
   11.3172	0.00010937	   11.3021	8.82528e-05	   11.2977	9.31903e-05	   11.3057	9.69378e-05	   11.3057	   2.42345	
   11.3419	0.000113876	   11.3266	9.25216e-05	   11.3225	9.76684e-05	   11.3303	0.000101355	   11.3303	   2.53389	
   11.3661	0.000118447	   11.3506	9.68113e-05	   11.3469	0.000102141	   11.3545	 0.0001058	   11.3545	   2.64499	
   11.3898	0.000123059	   11.3743	0.000101169	   11.3708	0.000106611	   11.3783	0.00011028	   11.3783	   2.75699	
   11.4128	0.000127679	   11.3976	0.000105629	   11.3941	0.000111087	   11.4015	0.000114798	   11.4015	   2.86995	
   11.4353	0.00013227	   11.4203	0.000110189	   11.4169	0.000115569	   11.4242	0.000119343	   11.4242	   2.98357	
   11.4574	0.000136802	   11.4429	0.000114828	   11.4393	0.000120062	   11.4466	0.000123897	   11.4466	   3.09743	
    11.479	0.000141258	   11.4649	0.000119489	   11.4613	0.00012456	   11.4684	0.000128436	   11.4684	   3.21089	
   11.4999	0.000145636	   11.4863	0.000124116	   11.4826	0.000129057	   11.4896	0.000132936	   11.4896	   3.32341	
   11.5201	0.000149956	   11.5072	0.000128656	   11.5032	0.000133545	   11.5102	0.000137386	   11.5102	   3.43464	
     11.54	0.000154247	   11.5274	0.000133073	   11.5231	0.000138008	   11.5302	0.000141776	   11.5302	    3.5444	
   11.5596	0.000158545	   11.5472	0.000137354	   11.5428	0.00014244	   11.5499	0.000146113	   11.5499	   3.65283	
   11.5788	0.00016288	   11.5667	0.000141527	    11.562	0.000146848	   11.5691	0.000150418	   11.5691	   3.76046	
   11.5977	0.000167272	   11.5856	0.000145636	    11.581	0.000151243	   11.5881	0.000154717	   11.5881	   3.86792	
   11.6164	0.000171729	   11.6041	0.000149742	   11.5997	0.000155642	   11.6068	0.000159038	   11.6068	   3.97594	
   11.6349	0.000176242	   11.6223	0.000153903	   11.6183	0.000160064	   11.6251	0.000163403	   11.6251	   4.08508	
    11.653	0.000180782	   11.6403	0.000158164	   11.6361	0.000164523	   11.6431	0.000167823	   11.6431	   4.19557	
   11.6707	0.000185315	   11.6579	0.000162543	   11.6536	0.000169023	   11.6607	0.000172294	   11.6607	   4.30734	
    11.688	0.000189807	   11.6752	0.000167026	   11.6708	0.000173551	    11.678	0.000176795	    11.678	   4.41986	
   11.7049	0.000194231	   11.6921	0.000171562	   11.6874	0.000178084	   11.6948	0.000181292	   11.6948	    4.5323	
   11.7214	0.000198576	   11.7083	0.000176099	   11.7036	0.000182593	   11.7111	0.000185756	   11.7111	   4.64389	
   11.7374	0.000202842	   11.7242	0.000180577	   11.7195	0.000187049	    11.727	0.000190156	    11.727	    4.7539	
    11.753	0.000207048	   11.7396	0.000184941	    11.735	0.00019143	   11.7425	0.000194473	   11.7425	   4.86182	
    11.768	0.000211226	   11.7546	0.000189167	     11.75	0.000195736	   11.7575	0.000198709	   11.7575	   4.96773	
   11.7825	0.000215408	   11.7691	0.000193273	   11.7646	0.000199984	   11.7721	0.000202888	   11.7721	    5.0722	
   11.7966	0.000219629	   11.7831	0.000197298	   11.7787	0.000204204	   11.7861	0.000207044	   11.7861	    5.1761	
   11.8101	0.000223912	   11.7966	0.000201301	   11.7924	0.00020844	   11.7997	0.000211218	   11.7997	   5.28045	
   11.8231	0.000228263	   11.8097	0.00020535	   11.8056	0.000212726	   11.8128	0.000215446	   11.8128	   5.38616	
   11.8356	0.000232667	   11.8222	0.000209494	   11.8183	0.000217088	   11.8254	0.00021975	   11.8254	   5.49374	
   11.8476	0.000237093	   11.8343	0.000213752	   11.8306	0.000221532	   11.8375	0.000224126	   11.8375	   5.60314	
   11.8591	0.000241505	   11.8459	0.000218107	   11.8423	0.000226032	   11.8491	0.000228548	   11.8491	    5.7137	
     11.87	0.000245859	    11.857	0.000222522	   11.8536	0.000230555	   11.8602	0.000232979	   11.8602	   5.82446	
   11.8805	0.000250122	   11.8676	0.000226935	   11.8644	0.000235056	   11.8708	0.000237371	   11.8708	   5.93428	
   11.8904	0.000254285	   11.8777	0.000231294	   11.8747	0.000239483	   11.8809	0.000241687	   11.8809	   6.04218	
   11.8999	0.000258352	   11.8873	0.000235555	   11.8845	0.000243804	   11.8906	0.000245904	   11.8906	   6.14759	
   11.9088	0.000262348	   11.8965	0.000239697	   11.8939	0.000248015	   11.8998	0.00025002	   11.8998	    6.2505	
   11.9173	0.000266311	   11.9052	0.000243728	   11.9028	0.00025213	   11.9085	0.000254057	   11.9085	   6.35142	
   11.9254	0.000270272	   11.9135	0.000247688	   11.9113	0.000256185	   11.9167	0.000258048	   11.9167	   6.45121	
    11.933	0.000274271	   11.9213	0.000251622	   11.9191	0.000260226	   11.9244	0.00026204	   11.9244	   6.55099	
   11.9401	0.000278342	   11.9286	0.000255572	   11.9265	0.000264303	   11.9317	0.000266072	   11.9317	   6.65181	
   11.9468	0.000282495	   11.9356	0.00025958	   11.9334	0.000268454	   11.9386	0.000270177	   11.9386	   6.75441	
   11.9531	0.000286717	   11.9421	0.000263658	     11.94	0.000272692	   11.9451	0.000274356	   11.9451	   6.85889	
    11.959	0.00029098	   11.9482	0.000267792	    11.946	0.00027701	   11.9511	0.000278594	   11.9511	   6.96485	
   11.9645	0.000295255	    11.954	0.000271954	   11.9516	0.00028138	   11.9567	0.000282863	   11.9567	   7.07158	
   11.9697	0.000299493	   11.9593	0.000276107	   11.9567	0.000285756	   11.9619	0.000287119	   11.9619	   7.17797	
   11.9742	0.000303669	   11.9641	0.000280205	   11.9615	0.000290092	   11.9666	0.000291322	   11.9666	   7.28305	
   11.9784	0.000307769	   11.9684	0.000284229	    11.966	0.00029435	   11.9709	0.00029545	   11.9709	   7.38624	
   11.9821	0.000311788	   11.9723	0.000288181	   11.9698	0.000298511	   11.9748	0.000299493	   11.9748	   7.48732	
   11.9855	0.000315732	   11.9758	0.000292073	   11.9733	0.000302574	   11.9782	0.00030346	   11.9782	   7.58649	
   11.9885	0.000319629	   11.9788	0.000295939	   11.9763	0.000306561	   11.9812	0.000307376	   11.9812	   7.68441	
   11.9909	0.000323501	   11.9813	0.000299826	   11.9789	0.000310511	   11.9837	0.00031128	   11.9837	   7.78199	
   11.9932	0.000327382	   11.9832	0.000303767	   11.9807	0.000314466	   11.9857	0.000315205	   11.9857	   7.88012	
   11.9946	0.000331278	   11.9845	0.000307783	   11.9819	0.000318464	    11.987	0.000319175	    11.987	   7.97937	
   11.9955	0.000335203	    11.985	0.000311871	   11.9824	0.000322526	   11.9876	 0.0003232	   11.9876	      8.08	
   11.9956	0.000339163	   11.9849	0.00031601	   11.9822	0.000326658	   11.9876	0.000327277	   11.9876	   8.18192	
    11.995	0.000343139	   11.9841	0.000320157	   11.9814	0.00033085	   11.9869	0.000331382	   11.9869	   8.28456	
   11.9939	0.00034711	   11.9829	0.000324272	   11.9801	0.000335072	   11.9856	0.000335485	   11.9856	   8.38712	
   11.9922	0.000351055	   11.9813	0.000328314	   11.9783	0.000339285	   11.9839	0.000339551	   11.9839	   8.48878	
   11.9899	0.000354956	   11.9793	0.00033226	    11.976	0.000343453	   11.9817	0.000343556	   11.9817	    8.5889	
   11.9873	0.000358797	   11.9769	0.000336101	   11.9733	0.000347545	   11.9791	0.000347481	   11.9791	   8.68703	
   11.9842	0.00036257	    11.974	0.000339869	     11.97	0.000351547	   11.9761	0.000351329	   11.9761	   8.78322	
   11.9807	0.00036628	   11.9708	0.000343588	   11.9665	0.000355463	   11.9727	0.00035511	   11.9727	   8.87776	
   11.9767	0.000369941	   11.9673	0.000347306	   11.9622	0.000359313	   11.9687	0.000358853	   11.9687	   8.97133	
   11.9722	0.000373571	   11.9635	0.000351052	   11.9576	0.00036313	   11.9644	0.000362584	   11.9644	   9.06461	
   11.9673	0.000377197	   11.9592	0.000354836	   11.9525	0.00036695	   11.9597	0.000366328	   11.9597	   9.15819	
   11.9623	0.000380847	   11.9543	0.00035866	   11.9472	0.000370809	   11.9546	0.000370105	   11.9546	   9.25264	
   11.9564	0.000384535	   11.9486	0.000362513	   11.9411	0.000374724	   11.9487	0.000373924	   11.9487	    9.3481	
   11.9499	0.000388269	   11.9424	0.000366359	   11.9345	0.000378696	   11.9423	0.000377775	   11.9423	   9.44437	
   11.9428	0.000392042	   11.9356	0.000370183	   11.9273	0.000382712	   11.9352	0.000381646	   11.9352	   9.54115	
   11.9351	0.000395837	   11.9283	0.000373965	   11.9196	0.00038674	   11.9277	0.000385514	   11.9277	   9.63785	
    11.927	0.00039963	   11.9205	0.000377706	   11.9115	0.000390744	   11.9197	0.00038936	   11.9197	     9.734	
   11.9185	0.000403392	   11.9123	0.000381424	    11.903	0.000394686	   11.9113	0.000393167	   11.9113	   9.82919	
   11.9097	0.000407104	   11.9037	0.000385131	   11.8943	0.000398538	   11.9026	0.000396924	   11.9026	   9.92311	
   11.9006	0.000410753	   11.8946	0.00038885	   11.8849	0.000402291	   11.8934	0.000400631	   11.8934	   10.0158	
    11.891	0.000414337	   11.8853	0.000392594	   11.8753	0.000405953	   11.8839	0.000404295	   11.8839	   10.1074	
   11.8811	0.000417884	   11.8754	0.000396358	   11.8652	0.000409548	   11.8739	0.00040793	   11.8739	   10.1983	
   11.8706	0.000421416	   11.8651	0.00040013	   11.8547	0.000413112	   11.8634	0.000411552	   11.8634	   10.2888	
   11.8594	0.000424949	   11.8541	0.000403872	   11.8435	0.000416676	   11.8523	0.000415166	   11.8523	   10.3791	
   11.8477	0.000428493	   11.8426	0.000407559	   11.8318	0.000420265	   11.8407	0.000418772	   11.8407	   10.4693	
   11.8356	0.000432036	   11.8306	0.000411171	   11.8197	0.000423895	   11.8286	0.000422367	   11.8286	   10.5592	
    11.823	0.000435558	   11.8182	0.000414692	   11.8072	0.000427564	   11.8161	0.000425938	   11.8161	   10.6485	
   11.8102	0.00043904	   11.8054	0.000418135	   11.7945	0.000431259	   11.8034	0.000429478	   11.8034	   10.7369	
   11.7968	0.000442473	   11.7924	0.000421527	   11.7816	0.000434953	   11.7903	0.000432984	   11.7903	   10.8246	
   11.7832	0.000445856	   11.7791	0.000424904	   11.7682	0.000438622	   11.7768	0.000436461	   11.7768	   10.9115	
    11.769	0.000449196	    11.765	0.000428314	   11.7541	0.000442249	   11.7627	0.00043992	   11.7627	    10.998	
   11.7544	0.000452505	   11.7502	0.000431783	   11.7394	0.000445826	    11.748	0.000443371	    11.748	   11.0843	
   11.7393	0.000455818	    11.735	0.000435328	   11.7242	0.000449351	   11.7328	0.000446832	   11.7328	   11.1708	
   11.7237	0.000459167	   11.7193	0.000438936	   11.7086	0.000452832	   11.7172	0.000450312	   11.7172	   11.2578	
   11.7078	0.00046257	   11.7032	0.000442576	   11.6927	0.000456285	   11.7012	0.00045381	   11.7012	   11.3453	
   11.6913	0.000466033	   11.6868	0.000446213	   11.6766	0.000459721	   11.6849	0.000457322	   11.6849	    11.433	
   11.6745	0.000469541	   11.6701	0.000449801	   11.6601	0.000463148	   11.6682	0.00046083	   11.6682	   11.5208	
   11.6573	0.000473058	   11.6526	 0.0004533	    11.643	0.000466571	    11.651	0.000464309	    11.651	   11.6077	
   11.6394	0.000476541	   11.6345	0.000456694	   11.6253	0.000469984	   11.6331	0.00046774	   11.6331	   11.6935	
    11.621	0.000479955	   11.6159	0.000459985	   11.6071	0.000473384	   11.6147	0.000471108	   11.6147	   11.7777	
   11.6022	0.000483265	   11.5969	0.000463206	   11.5886	0.000476756	   11.5959	0.000474409	   11.5959	   11.8602	
    11.583	0.000486465	   11.5776	0.000466395	   11.5697	0.00048009	   11.5768	0.00047765	   11.5768	   11.9412	
   11.5636	0.000489567	   11.5579	0.000469597	   11.5504	0.000483377	   11.5573	0.000480847	   11.5573	   12.0212	
   11.5441	0.000492606	   11.5378	0.00047284	   11.5304	0.000486621	   11.5374	0.000484022	   11.5374	   12.1006	
   11.5241	0.000495626	   11.5171	0.000476139	   11.5097	0.000489832	    11.517	0.000487199	    11.517	     12.18	
   11.5035	0.000498683	   11.4959	0.000479506	   11.4885	0.00049302	    11.496	0.000490403	    11.496	   12.2601	
   11.4824	0.000501805	   11.4742	0.000482911	    11.467	0.000496205	   11.4745	0.000493641	   11.4745	    12.341	
   11.4609	0.000505006	   11.4523	0.00048633	   11.4452	0.000499397	   11.4528	0.000496911	   11.4528	   12.4228	
   11.4392	0.000508276	   11.4299	0.00048972	   11.4227	0.000502602	   11.4306	0.000500199	   11.4306	    12.505	
   11.4171	0.000511582	    11.407	0.000493044	   11.3996	0.000505823	   11.4079	0.000503483	   11.4079	   12.5871	
   11.3943	0.000514875	   11.3837	0.000496289	   11.3761	0.00050905	   11.3847	0.000506738	   11.3847	   12.6685	
   11.3709	0.00051811	   11.3599	0.00049945	   11.3522	0.000512268	    11.361	0.000509943	    11.361	   12.7486	
   11.3471	0.000521246	   11.3357	0.000502535	    11.328	0.00051546	   11.3369	0.00051308	   11.3369	    12.827	
    11.323	0.000524269	   11.3111	0.000505584	   11.3035	0.00051861	   11.3125	0.000516154	   11.3125	   12.9039	
   11.2987	0.000527185	   11.2857	0.000508623	   11.2784	0.000521726	   11.2876	0.000519178	   11.2876	   12.9794	
   11.2736	0.000530025	   11.2597	0.000511691	   11.2528	0.000524807	    11.262	0.000522174	    11.262	   13.0544	
   11.2479	0.000532827	   11.2331	0.000514807	   11.2266	0.000527852	   11.2359	0.000525162	   11.2359	   13.1291	
   11.2218	0.000535637	   11.2063	0.000517971	   11.2001	0.00053087	   11.2094	0.000528159	   11.2094	    13.204	
   11.1953	0.000538495	   11.1792	0.000521175	   11.1732	0.000533864	   11.1825	0.000531178	   11.1825	   13.2795	
   11.1684	0.000541425	   11.1517	0.000524393	   11.1461	0.000536833	   11.1554	0.000534217	   11.1554	   13.3554	
   11.1409	0.000544425	   11.1236	0.000527593	   11.1186	0.000539783	   11.1277	0.000537267	   11.1277	   13.4317	
   11.1129	0.00054747	    11.095	0.000530742	   11.0906	0.000542713	   11.0995	0.000540308	   11.0995	   13.5077	
   11.0844	0.000550528	    11.066	0.000533808	   11.0622	0.000545631	   11.0709	0.000543322	   11.0709	   13.5831	
   11.0556	0.000553561	   11.0368	0.000536787	   11.0335	0.000548529	    11.042	0.000546292	    11.042	   13.6573	
    11.026	0.000556531	   11.0071	0.000539682	   11.0045	0.000551394	   11.0125	0.000549202	   11.0125	   13.7301	
   10.9957	0.000559408	   10.9768	0.000542509	   10.9749	0.000554234	   10.9824	0.00055205	   10.9824	   13.8013	
   10.9649	0.000562184	    10.946	0.000545303	   10.9447	0.00055705	   10.9519	0.000554846	   10.9519	   13.8711	
   10.9338	0.000564871	   10.9149	0.000548092	   10.9142	0.000559848	    10.921	0.000557603	    10.921	   13.9401	
   10.9022	0.000567497	   10.8836	0.000550902	   10.8835	0.000562638	   10.8898	0.000560345	   10.8898	   14.0086	
   10.8702	0.000570094	   10.8521	0.00055375	   10.8524	0.000565422	   10.8582	0.000563088	   10.8582	   14.0772	
   10.8379	0.000572694	     10.82	0.000556634	   10.8206	0.000568208	   10.8262	0.000565845	   10.8262	   14.1461	
   10.8051	0.000575328	   10.7875	0.000559545	   10.7885	0.000571002	   10.7937	0.000568625	   10.7937	   14.2156	
    10.772	0.000578011	   10.7547	0.000562455	   10.7558	0.000573798	   10.7608	0.000571421	   10.7608	   14.2855	
   10.7385	0.000580739	   10.7218	0.000565333	    10.723	0.000576594	   10.7278	0.000574222	   10.7278	   14.3556	
   10.7044	0.000583496	   10.6885	0.000568157	   10.6896	0.000579377	   10.6942	0.00057701	   10.6942	   14.4253	
   10.6698	0.000586251	   10.6546	0.000570906	   10.6556	0.000582127	     10.66	0.000579762	     10.66	    14.494	
   10.6349	0.000588972	   10.6204	0.000573579	   10.6213	0.00058483	   10.6256	0.000582461	   10.6256	   14.5615	
   10.5997	0.000591628	   10.5856	0.000576182	   10.5867	0.000587485	   10.5906	0.000585098	   10.5906	   14.6275	
   10.5639	0.000594198	   10.5503	0.000578733	   10.5515	0.000590075	   10.5553	0.000587669	   10.5553	   14.6917	
   10.5277	0.000596682	   10.5145	0.000581262	   10.5159	0.000592604	   10.5194	0.000590182	   10.5194	   14.7546	
   10.4911	0.000599089	   10.4784	0.00058379	   10.4799	0.000595076	   10.4831	0.000592652	   10.4831	   14.8163	
   10.4541	0.000601444	   10.4421	0.000586337	   10.4435	0.000597496	   10.4466	0.000595092	   10.4466	   14.8773	
   10.4167	0.000603776	   10.4053	0.00058891	   10.4066	0.000599884	   10.4095	0.000597523	   10.4095	   14.9381	
   10.3787	0.000606111	   10.3679	0.000591504	   10.3692	0.00060228	   10.3719	0.000599965	   10.3719	   14.9991	
   10.3405	0.000608474	   10.3302	0.00059411	   10.3314	 0.0006047	    10.334	0.000602428	    10.334	   15.0607	
   10.3018	0.000610873	   10.2921	0.000596701	   10.2933	0.000607162	   10.2957	0.000604912	   10.2957	   15.1228	
   10.2625	0.000613296	   10.2533	0.000599255	   10.2544	0.000609656	   10.2567	0.000607402	   10.2567	   15.1851	
   10.2227	0.000615729	    10.214	0.000601751	   10.2151	0.000612157	   10.2173	0.000609879	   10.2173	    15.247	
   10.1827	0.000618144	   10.1744	0.000604172	   10.1755	0.000614649	   10.1775	0.000612321	   10.1775	    15.308	
   10.1422	0.00062051	   10.1346	0.00060652	   10.1357	0.000617107	   10.1375	0.000614712	   10.1375	   15.3678	
   10.1012	0.00062281	   10.0944	0.000608804	   10.0955	0.000619507	   10.0971	0.000617041	   10.0971	    15.426	
   10.0598	0.000625034	   10.0537	0.000611044	   10.0549	0.000621828	   10.0561	0.000619302	   10.0561	   15.4825	
    10.018	0.000627182	   10.0128	0.000613264	   10.0139	0.000624055	   10.0149	 0.0006215	   10.0149	   15.5375	
   9.97547	0.000629269	   9.97165	0.000615487	   9.97223	0.000626205	   9.97312	0.000623653	   9.97312	   15.5913	
   9.93308	0.000631323	   9.92993	0.000617728	   9.92996	0.000628293	   9.93099	0.000625781	   9.93099	   15.6445	
   9.89033	0.000633372	   9.88778	0.000619994	   9.88732	0.000630339	   9.88848	0.000627902	   9.88848	   15.6975	
   9.84696	0.000635438	   9.84538	0.000622266	   9.84448	0.000632358	   9.84561	0.000630021	   9.84561	   15.7505	
   9.80359	0.000637538	   9.80247	0.000624514	    9.8016	0.000634363	   9.80255	0.000632138	   9.80255	   15.8035	
   9.76015	0.000639671	   9.75903	0.000626722	    9.7582	0.000636371	   9.75913	0.000634255	   9.75913	   15.8564	
   9.71596	0.000641815	   9.71524	0.000628874	   9.71447	0.000638382	   9.71522	0.000636357	   9.71522	   15.9089	
   9.67148	0.000643943	   9.67112	0.000630948	   9.67057	0.000640396	   9.67106	0.000638429	   9.67106	   15.9607	
   9.62663	0.000646025	   9.62659	0.000632953	   9.62604	0.000642414	   9.62642	0.000640464	   9.62642	   16.0116	
   9.58096	0.000648035	   9.58182	0.000634921	   9.58108	0.00064442	   9.58129	0.000642458	   9.58129	   16.0615	
   9.53511	0.000649954	   9.53677	0.000636877	   9.53588	0.000646399	   9.53592	0.00064441	   9.53592	   16.1102	
   9.48925	0.000651781	   9.49121	0.000638841	   9.49039	0.000648349	   9.49028	0.000646324	   9.49028	   16.1581	
   9.44289	0.000653538	   9.44532	0.000640828	   9.44437	0.000650251	    9.4442	0.000648206	    9.4442	   16.2051	
   9.39625	0.000655256	   9.39908	0.000642846	   9.39803	0.000652105	   9.39779	0.000650069	   9.39779	   16.2517	
   9.34949	0.000656969	   9.35246	0.000644888	   9.35154	0.00065392	   9.35116	0.000651926	   9.35116	   16.2981	
   9.30216	0.000658708	   9.30569	0.000646923	   9.30459	0.000655702	   9.30415	0.000653778	   9.30415	   16.3444	
   9.25445	0.000660495	   9.25827	0.000648915	   9.25723	0.000657461	   9.25665	0.000655624	   9.25665	   16.3906	
   9.20656	0.000662323	    9.2104	0.000650829	   9.20944	0.00065921	    9.2088	0.000657454	    9.2088	   16.4364	
   9.15825	0.000664176	   9.16229	0.000652627	   9.16098	0.000660961	   9.16051	0.000659255	   9.16051	   16.4814	
   9.10949	0.000666036	    9.1139	0.000654299	   9.11209	0.00066272	   9.11183	0.000661018	   9.11183	   16.5255	
   9.06049	0.000667857	   9.06521	0.000655859	   9.06295	0.000664483	   9.06288	0.000662733	   9.06288	   16.5683	
   9.01123	0.000669618	   9.01598	0.000657355	   9.01354	0.000666232	   9.01358	0.000664402	   9.01358	     16.61	
   8.96146	0.000671292	   8.96637	0.000658837	   8.96363	0.000667955	   8.96382	0.000666028	   8.96382	   16.6507	
    8.9114	0.000672873	   8.91643	0.000660363	   8.91343	0.000669641	   8.91375	0.000667626	   8.91375	   16.6906	
   8.86103	0.000674378	   8.86572	0.000661977	   8.86291	0.00067127	   8.86322	0.000669208	   8.86322	   16.7302	
   8.81012	0.000675828	   8.81425	0.000663685	   8.81186	0.000672834	   8.81208	0.000670782	   8.81208	   16.7696	
   8.75889	0.000677254	   8.76207	0.00066546	   8.76049	0.000674335	   8.76048	0.00067235	   8.76048	   16.8087	
   8.70754	0.000678697	    8.7098	0.000667261	   8.70899	0.000675789	   8.70878	0.000673916	   8.70878	   16.8479	
   8.65561	0.000680174	   8.65723	0.000669027	   8.65693	0.00067721	   8.65659	0.00067547	   8.65659	   16.8868	
   8.60333	0.000681689	   8.60434	 0.0006707	   8.60452	0.000678609	   8.60406	0.000676999	   8.60406	    16.925	
   8.55091	0.000683233	   8.55195	0.000672229	    8.5518	0.000680009	   8.55155	0.00067849	   8.55155	   16.9623	
   8.49789	0.000684781	   8.49937	0.000673592	    8.4985	0.00068142	   8.49859	0.000679931	   8.49859	   16.9983	
   8.44451	0.000686307	   8.44638	0.000674808	   8.44486	0.000682828	   8.44525	0.000681314	   8.44525	   17.0329	
   8.39097	0.000687777	   8.39317	0.000675942	   8.39108	0.000684231	   8.39174	0.00068265	   8.39174	   17.0662	
   8.33704	0.000689167	   8.33994	0.000677051	   8.33671	0.000685612	    8.3379	0.000683943	    8.3379	   17.0986	
   8.28273	0.000690476	   8.28625	0.000678191	     8.282	0.000686947	   8.28366	0.000685205	   8.28366	   17.1301	
   8.22825	0.000691704	   8.23231	0.000679422	   8.22714	0.000688229	   8.22923	0.000686452	   8.22923	   17.1613	
   8.17358	0.000692876	   8.17811	0.000680755	   8.17213	0.000689447	   8.17461	0.000687693	   8.17461	   17.1923	
   8.11851	0.000694013	   8.12313	0.000682154	   8.11674	0.000690617	   8.11946	0.000688928	   8.11946	   17.2232	
   8.06326	0.000695145	   8.06833	0.000683577	    8.0612	0.000691747	   8.06426	0.000690156	   8.06426	   17.2539	
   8.00759	0.000696293	    8.0139	0.000684964	   8.00527	0.00069285	   8.00892	0.000691369	   8.00892	   17.2842	
   7.95153	0.000697463	    7.9585	0.000686241	   7.94897	0.000693943	     7.953	0.000692549	     7.953	   17.3137	
   7.89529	0.000698654	   7.90242	0.000687386	   7.89251	0.000695035	   7.89674	0.000693691	   7.89674	   17.3423	
   7.83886	0.000699851	   7.84694	0.000688391	   7.83589	0.000696125	   7.84056	0.000694789	   7.84056	   17.3697	
   7.78203	0.000701033	   7.79052	0.000689282	   7.77889	0.000697212	   7.78381	0.000695842	   7.78381	   17.3961	
   7.72503	0.000702178	    7.7328	0.000690111	   7.72173	0.000698279	   7.72652	0.000696856	   7.72652	   17.4214	
   7.66773	0.000703268	   7.67575	0.000690943	   7.66415	0.000699321	   7.66921	0.000697844	   7.66921	   17.4461	
   7.61005	0.000704292	   7.61783	0.000691835	   7.60621	0.000700331	   7.61136	0.000698819	   7.61136	   17.4705	
   7.55199	0.00070525	   7.55847	0.000692819	   7.54813	0.000701303	   7.55286	0.000699791	   7.55286	   17.4948	
   7.49358	0.000706151	   7.49987	0.000693883	   7.48971	0.000702237	   7.49438	0.000700757	   7.49438	   17.5189	
   7.43482	0.00070701	   7.44111	0.000695009	   7.43095	0.000703137	   7.43563	0.000701719	   7.43563	    17.543	
   7.37595	0.000707846	   7.38115	0.000696149	   7.37208	0.000704014	    7.3764	0.00070267	    7.3764	   17.5667	
   7.31675	0.000708676	   7.32196	0.000697249	   7.31289	0.000704879	    7.3172	0.000703601	    7.3172	     17.59	
   7.25722	0.000709494	   7.26326	0.000698263	   7.25339	0.000705736	   7.25796	0.000704498	   7.25796	   17.6124	
   7.19729	0.000710306	   7.20295	0.000699164	   7.19365	0.000706589	   7.19797	0.000705353	   7.19797	   17.6338	
   7.13688	0.00071112	   7.14278	0.000699945	   7.13341	0.000707438	   7.13769	0.000706168	   7.13769	   17.6542	
   7.07622	0.000711925	   7.08294	0.00070063	   7.07292	0.000708286	   7.07736	0.000706947	   7.07736	   17.6737	
   7.01532	0.000712715	   7.02192	0.000701265	    7.0124	0.000709126	   7.01655	0.000707702	   7.01655	   17.6926	
     6.954	0.000713502	   6.96065	0.000701894	   6.95142	0.00070995	   6.95536	0.000708449	   6.95536	   17.7112	
   6.89248	0.000714273	   6.89957	0.000702551	   6.89023	0.00071075	    6.8941	0.000709191	    6.8941	   17.7298	
   6.83079	0.000715022	   6.83782	0.000703255	   6.82884	0.000711522	   6.83248	0.000709933	   6.83248	   17.7483	
   6.76872	0.000715741	   6.77545	0.000704012	   6.76704	0.000712263	    6.7704	0.000710672	    6.7704	   17.7668	
   6.70651	0.000716425	   6.71339	0.00070481	   6.70509	0.000712967	   6.70833	0.000711401	   6.70833	    17.785	
   6.64397	0.000717078	   6.65095	0.000705621	   6.64257	0.000713627	   6.64583	0.000712109	   6.64583	   17.8027	
   6.58111	0.000717697	   6.58794	0.000706407	   6.57974	0.000714251	   6.58293	0.000712785	   6.58293	   17.8196	
   6.51818	0.000718277	   6.52482	0.000707139	   6.51683	0.000714844	   6.51994	0.00071342	   6.51994	   17.8355	
   6.45476	0.000718827	   6.46141	0.00070779	   6.45343	0.000715412	   6.45653	0.00071401	   6.45653	   17.8502	
    6.3911	0.000719353	   6.39729	0.000708353	   6.38979	0.000715966	   6.39273	0.000714558	   6.39273	   17.8639	
   6.32723	0.000719862	   6.33318	0.000708831	   6.32594	0.000716516	   6.32878	0.00071507	   6.32878	   17.8767	
   6.26311	0.000720349	    6.2688	0.000709238	   6.26167	0.000717065	   6.26453	0.000715551	   6.26453	   17.8888	
   6.19882	0.000720815	   6.20382	0.000709602	   6.19725	0.000717613	   6.19996	0.00071601	   6.19996	   17.9002	
   6.13417	0.000721256	   6.13892	0.000709949	   6.13269	0.000718154	   6.13526	0.000716453	   6.13526	   17.9113	
    6.0692	0.000721662	    6.0739	0.000710309	   6.06781	0.000718687	    6.0703	0.000716886	    6.0703	   17.9222	
   6.00394	0.000722023	   6.00835	0.000710698	   6.00283	0.000719204	   6.00504	0.000717308	   6.00504	   17.9327	
   5.93863	0.000722333	   5.94275	0.000711121	   5.93778	 0.0007197	   5.93972	0.000717718	   5.93972	   17.9429	
   5.87307	0.000722586	    5.8769	0.000711574	   5.87247	0.000720165	   5.87415	0.000718108	   5.87415	   17.9527	
   5.80751	0.000722785	   5.81061	0.000712031	   5.80692	 0.0007206	   5.80835	0.000718472	   5.80835	   17.9618	
    5.7417	0.000722935	   5.74395	0.000712467	    5.7411	0.000720997	   5.74225	 0.0007188	   5.74225	     17.97	
   5.67549	0.000723052	   5.67715	0.00071285	   5.67511	0.000721349	   5.67592	0.000719084	   5.67592	   17.9771	
   5.60937	0.000723149	   5.61004	0.000713154	   5.60854	0.000721653	   5.60932	0.000719319	   5.60932	    17.983	
    5.5429	0.000723245	   5.54266	0.000713372	   5.54168	0.000721904	   5.54241	0.000719507	   5.54241	   17.9877	
   5.47635	0.000723352	   5.47525	0.000713505	   5.47475	0.000722098	   5.47545	0.000719651	   5.47545	   17.9913	
   5.40953	0.000723472	   5.40783	0.000713572	   5.40738	0.000722239	   5.40824	0.000719761	   5.40824	    17.994	
   5.34246	0.000723595	   5.34021	0.000713601	   5.33981	0.000722338	   5.34082	0.000719845	   5.34082	   17.9961	
    5.2754	0.00072371	   5.27263	0.000713619	   5.27208	0.000722417	   5.27337	0.000719916	   5.27337	   17.9979	
   5.20793	0.000723799	   5.20484	0.000713668	   5.20417	0.000722492	   5.20565	0.000719986	   5.20565	   17.9997	
   5.14033	0.000723843	   5.13693	0.00071377	   5.13615	0.00072258	    5.1378	0.000720064	    5.1378	   18.0016	
    5.0726	0.000723823	   5.06871	0.000713929	   5.06807	0.000722693	   5.06979	0.000720148	   5.06979	   18.0037	
   5.00458	0.000723735	   5.00023	0.00071413	   4.99972	0.00072283	   5.00151	0.000720232	   5.00151	   18.0058	
   4.93651	0.000723579	   4.93174	0.000714336	   4.93137	0.000722977	   4.93321	0.000720297	   4.93321	   18.0074	
   4.86799	0.000723369	   4.86305	0.000714496	   4.86281	0.000723113	   4.86462	0.000720326	   4.86462	   18.0081	
    4.7993	0.000723127	   4.79419	0.000714565	   4.79409	0.000723208	   4.79586	 0.0007203	   4.79586	   18.0075	
   4.73066	0.000722871	   4.72541	0.000714501	   4.72523	0.000723237	    4.7271	0.000720203	    4.7271	   18.0051	
   4.66169	0.000722616	   4.65661	0.000714282	   4.65607	0.000723184	   4.65812	0.000720027	   4.65812	   18.0007	
   4.59263	0.00072238	   4.58773	0.000713912	   4.58664	0.00072305	     4.589	0.000719781	     4.589	   17.9945	
   4.52311	0.000722175	   4.51898	0.000713422	     4.517	0.000722835	    4.5197	0.000719478	    4.5197	   17.9869	
   4.45337	0.000722003	   4.45018	0.000712871	   4.44718	0.000722571	   4.45024	0.000719148	   4.45024	   17.9787	
   4.38369	0.000721841	   4.38134	0.000712321	   4.37722	0.000722282	   4.38075	0.000718815	   4.38075	   17.9704	
   4.31386	0.000721657	   4.31207	0.000711835	   4.30694	0.000721986	   4.31096	0.000718493	   4.31096	   17.9623	
   4.24392	0.000721417	   4.24243	0.000711457	   4.23661	0.000721703	   4.24099	0.000718192	   4.24099	   17.9548	
    4.1737	0.000721083	   4.17226	0.000711201	   4.16626	0.000721435	   4.17074	0.000717906	   4.17074	   17.9477	
   4.10324	0.000720625	   4.10152	0.000711059	    4.0957	0.00072117	   4.10015	0.000717618	   4.10015	   17.9405	
   4.03258	0.000720047	   4.03018	0.000710986	   4.02497	0.000720902	   4.02924	0.000717312	   4.02924	   17.9328	
   3.96157	0.000719366	   3.95854	0.000710918	   3.95391	0.000720597	   3.95801	0.00071696	   3.95801	    17.924	
   3.89046	0.000718618	   3.88643	0.000710792	   3.88258	0.00072024	   3.88649	0.00071655	   3.88649	   17.9137	
    3.8193	0.000717842	   3.81413	0.000710545	   3.81081	0.000719822	   3.81475	0.00071607	   3.81475	   17.9017	
    3.7479	0.000717073	    3.7417	0.000710143	   3.73888	0.00071933	   3.74283	0.000715515	   3.74283	   17.8879	
   3.67653	0.000716358	   3.66938	0.000709581	   3.66704	0.000718769	   3.67098	0.000714903	   3.67098	   17.8726	
   3.60495	0.000715719	    3.5974	0.000708875	    3.5949	0.000718149	   3.59908	0.000714248	   3.59908	   17.8562	
   3.53325	0.000715153	   3.52556	0.000708071	   3.52272	0.000717488	   3.52718	0.000713571	   3.52718	   17.8393	
   3.46127	0.000714625	   3.45388	0.000707228	   3.45054	0.000716813	   3.45523	0.000712889	   3.45523	   17.8222	
   3.38906	0.000714103	   3.38195	0.000706407	   3.37817	0.000716136	   3.38306	0.000712215	   3.38306	   17.8054	
   3.31688	0.000713551	   3.31004	0.000705651	   3.30567	0.00071548	   3.31086	0.000711561	   3.31086	    17.789	
   3.24434	0.000712919	   3.23797	0.000704999	   3.23287	0.000714855	   3.23839	0.000710925	   3.23839	   17.7731	
   3.17171	0.000712178	   3.16577	0.000704446	   3.16004	0.000714262	   3.16584	0.000710295	   3.16584	   17.7574	
   3.09904	0.000711323	   3.09329	0.000703956	   3.08721	0.000713693	   3.09318	0.000709658	   3.09318	   17.7414	
   3.02615	0.000710361	   3.02057	0.000703495	   3.01421	0.000713136	   3.02031	0.000708998	   3.02031	   17.7249	
   2.95329	0.000709323	   2.94768	0.000702994	   2.94108	0.000712566	   2.94735	0.000708294	   2.94735	   17.7074	
    2.8801	0.000708246	   2.87444	 0.0007024	   2.86787	0.000711939	   2.87414	0.000707528	   2.87414	   17.6882	
   2.80682	0.000707166	   2.80114	0.000701673	   2.79463	0.000711225	   2.80086	0.000706688	   2.80086	   17.6672	
   2.73351	0.000706109	   2.72781	0.000700792	   2.72117	0.000710405	    2.7275	0.000705769	    2.7275	   17.6442	
      2.66	0.000705081	   2.65427	0.00069978	   2.64756	0.000709451	   2.65394	0.000704771	   2.65394	   17.6193	
   2.58633	0.000704078	    2.5808	0.000698674	   2.57405	0.000708373	   2.58039	0.000703708	   2.58039	   17.5927	
   2.51256	0.000703085	   2.50742	0.000697525	   2.50025	0.00070719	   2.50674	 0.0007026	   2.50674	    17.565	
   2.43873	0.000702079	   2.43396	0.000696407	   2.42643	0.000705942	   2.43304	0.000701476	   2.43304	   17.5369	
   2.36467	0.000701035	   2.36065	0.00069537	   2.35263	0.000704677	   2.35932	0.00070036	   2.35932	    17.509	
   2.29045	0.000699935	   2.28712	0.00069445	   2.27868	0.000703432	   2.28541	0.000699272	   2.28541	   17.4818	
   2.21632	0.000698767	   2.21361	0.000693637	   2.20483	0.000702247	   2.21159	0.000698217	   2.21159	   17.4554	
    2.1421	0.000697542	   2.13997	0.000692889	   2.13069	0.000701141	   2.13758	0.000697191	   2.13758	   17.4298	
   2.06783	0.000696271	   2.06622	0.000692146	   2.05654	0.000700103	   2.06353	0.000696173	   2.06353	   17.4043	
   1.99378	0.000694972	   1.99263	0.000691329	   1.98241	0.000699116	   1.98961	0.000695139	   1.98961	   17.3785	
   1.91954	0.000693653	    1.9188	0.000690375	   1.90834	0.000698139	   1.91556	0.000694056	   1.91556	   17.3514	
   1.84537	0.000692321	     1.845	0.000689248	   1.83421	0.000697127	   1.84153	0.000692899	   1.84153	   17.3225	
   1.77109	0.00069097	   1.77105	0.000687935	   1.75979	0.000696034	   1.76731	0.000691646	   1.76731	   17.2912	
   1.69677	0.000689581	   1.69701	0.000686474	   1.68537	0.000694827	   1.69305	0.000690294	   1.69305	   17.2573	
   1.62264	0.000688131	   1.62312	0.000684933	   1.61077	0.000693502	   1.61884	0.000688855	   1.61884	   17.2214	
   1.54831	0.00068662	     1.549	0.000683393	   1.53604	0.000692075	   1.54445	0.000687363	   1.54445	   17.1841	
   1.47384	0.000685042	   1.47491	0.000681929	   1.46145	0.000690569	   1.47007	0.000685846	   1.47007	   17.1462	
   1.39928	0.000683428	   1.40089	0.000680585	    1.3866	0.000689035	   1.39559	0.00068435	   1.39559	   17.1087	
   1.32468	0.000681799	   1.32676	0.00067938	   1.31177	0.000687519	   1.32107	0.000682899	   1.32107	   17.0725	
   1.24996	0.000680176	   1.25246	0.000678273	   1.23705	0.000686053	   1.24649	0.000681501	   1.24649	   17.0375	
   1.17509	0.000678591	   1.17794	0.000677224	    1.1622	0.000684647	   1.17174	0.000680154	   1.17174	   17.0039	
    1.1001	0.000677051	   1.10326	0.000676142	   1.08748	0.000683291	   1.09695	0.000678828	   1.09695	   16.9707	
   1.02527	0.000675535	   1.02846	0.00067496	   1.01273	0.000681957	   1.02215	0.000677484	   1.02215	   16.9371	
  0.950398	0.000674024	  0.953609	0.000673643	  0.937966	0.000680597	  0.947324	0.000676088	  0.947324	   16.9022	
  0.875542	0.00067248	  0.878945	0.000672157	  0.863245	0.000679163	  0.872577	 0.0006746	  0.872577	    16.865	
  0.800527	0.000670886	  0.804081	0.000670524	  0.788391	0.000677618	  0.797666	0.000673009	  0.797666	   16.8252	
  0.725618	0.000669211	  0.729282	0.000668813	  0.713665	0.000675938	  0.722855	0.000671321	  0.722855	    16.783	
  0.650426	0.000667454	  0.654324	0.000667075	  0.638836	0.000674134	  0.647862	0.000669554	  0.647862	   16.7389	
  0.575226	0.00066562	  0.579309	0.000665389	  0.564004	0.000672236	  0.572846	0.000667748	  0.572846	   16.6937	
  0.499851	0.00066374	  0.504286	0.000663786	  0.489209	0.000670293	  0.497782	0.00066594	  0.497782	   16.6485	
  0.424566	0.000661833	  0.429084	0.000662268	  0.414278	0.000668361	  0.422643	0.000664154	  0.422643	   16.6039	
  0.349405	0.000659932	  0.353969	0.000660834	  0.339471	0.000666479	  0.347615	0.000662415	  0.347615	   16.5604	
  0.273981	0.000658052	  0.278766	0.000659422	  0.264821	0.000664674	  0.272523	0.000660716	  0.272523	   16.5179	
  0.198565	0.000656217	  0.203522	0.000657972	  0.190143	0.000662942	   0.19741	0.000659043	   0.19741	   16.4761	
  0.123096	0.000654406	  0.128336	0.000656431	  0.115531	0.000661255	  0.122321	0.000657364	  0.122321	   16.4341	
 0.0475175	0.000652601	  0.052984	0.00065474	 0.0407601	0.000659564	 0.0470872	0.000655635	 0.0470872	   16.3909	
-0.0279104	0.000650772	-0.0224773	0.000652892	-0.0339082	0.000657813	-0.0280986	0.000653826	-0.0280986	   16.3456	
 -0.103577	0.000648883	-0.0982077	0.000650901	 -0.108861	0.000655969	 -0.103549	0.000651917	 -0.103549	   16.2979	
 -0.179209	0.000646914	 -0.173933	0.00064881	 -0.183826	0.000653998	  -0.17899	0.000649908	  -0.17899	   16.2477	
 -0.254767	0.000644863	 -0.249608	0.000646675	 -0.258552	0.000651898	 -0.254309	0.000647812	 -0.254309	   16.1953	
 -0.330214	0.000642731	 -0.325196	0.000644546	 -0.333437	0.000649702	 -0.329616	0.00064566	 -0.329616	   16.1415	
 -0.405518	0.000640545	 -0.400661	0.000642472	 -0.408219	0.000647447	   -0.4048	0.000643488	   -0.4048	   16.0872	
  -0.48091	0.000638323	 -0.476076	0.000640471	  -0.48297	0.000645178	 -0.479985	0.000641324	 -0.479985	   16.0331	
 -0.556288	0.00063609	 -0.551507	0.000638534	 -0.557759	0.000642939	 -0.555185	0.000639188	 -0.555185	   15.9797	
  -0.63182	0.000633869	 -0.626911	0.000636642	 -0.632332	0.000640747	 -0.630355	0.000637086	 -0.630355	   15.9271	
 -0.707451	0.000631665	 -0.702246	0.00063474	 -0.707086	0.000638616	 -0.705594	0.000635007	 -0.705594	   15.8752	
  -0.78292	0.000629479	 -0.777476	0.00063278	 -0.781755	0.000636535	 -0.780717	0.000632931	 -0.780717	   15.8233	
 -0.858617	0.000627293	 -0.852566	0.000630726	 -0.856307	0.00063447	  -0.85583	0.00063083	  -0.85583	   15.7707	
 -0.934272	0.000625085	   -0.9277	0.000628546	 -0.930921	0.000632387	 -0.930964	0.000628673	 -0.930964	   15.7168	
  -1.00984	0.000622844	  -1.00283	0.000626239	  -1.00534	0.000630246	  -1.00601	0.000626443	  -1.00601	   15.6611	
  -1.08551	0.000620551	  -1.07813	0.000623822	  -1.07981	0.000628014	  -1.08115	0.000624129	  -1.08115	   15.6032	
    -1.161	0.000618201	  -1.15332	0.000621322	  -1.15424	0.000625676	  -1.15619	0.000621733	  -1.15619	   15.5433	
  -1.23672	0.000615797	   -1.2286	0.000618788	  -1.22879	0.000623231	  -1.23137	0.000619272	  -1.23137	   15.4818	
  -1.31239	0.000613346	  -1.30391	0.000616259	  -1.30341	0.000620704	  -1.30657	0.00061677	  -1.30657	   15.4192	
  -1.38776	0.000610866	  -1.37899	0.000613769	  -1.37787	0.000618121	  -1.38154	0.000614252	  -1.38154	   15.3563	
  -1.46303	0.000608371	  -1.45403	0.00061133	  -1.45211	0.000615515	  -1.45639	0.000611739	  -1.45639	   15.2935	
  -1.53815	0.000605867	    -1.529	0.000608933	  -1.52635	0.00061292	  -1.53116	0.00060924	  -1.53116	    15.231	
   -1.6131	0.00060336	  -1.60364	0.000606555	  -1.60031	0.000610355	  -1.60569	0.000606757	  -1.60569	   15.1689	
  -1.68776	0.000600848	  -1.67837	0.000604158	  -1.67442	0.000607838	  -1.68019	0.000604281	  -1.68019	    15.107	
   -1.7622	0.000598319	  -1.75294	0.000601701	  -1.74842	0.000605362	  -1.75452	0.000601794	  -1.75452	   15.0448	
  -1.83682	0.000595763	   -1.8273	0.000599151	  -1.82247	 0.0006029	  -1.82887	0.000599271	  -1.82887	   14.9818	
  -1.91137	0.000593169	  -1.90165	0.000596493	  -1.89655	0.000600421	  -1.90319	0.000596694	  -1.90319	   14.9174	
  -1.98581	0.000590528	  -1.97596	0.00059373	   -1.9704	0.000597887	  -1.97739	0.000594049	  -1.97739	   14.8512	
  -2.06011	0.000587835	  -2.04997	0.000590876	  -2.04421	0.000595268	  -2.05143	0.000591326	  -2.05143	   14.7832	
  -2.13424	0.000585091	  -2.12389	0.000587947	  -2.11796	0.000592547	  -2.12536	0.000588528	  -2.12536	   14.7132	
  -2.20838	0.000582303	  -2.19768	0.000584988	  -2.19139	0.000589726	  -2.19915	0.000585672	  -2.19915	   14.6418	
  -2.28235	0.000579477	  -2.27154	0.000582044	  -2.26477	0.000586811	  -2.27288	0.000582777	  -2.27288	   14.5694	
  -2.35648	0.000576623	  -2.34519	0.00057914	    -2.338	0.000583843	  -2.34655	0.000579869	  -2.34655	   14.4967	
   -2.4303	0.000573744	  -2.41863	0.000576294	  -2.41148	0.00058086	  -2.42014	0.000576966	  -2.42014	   14.4241	
  -2.50401	0.000570838	  -2.49205	0.000573518	  -2.48495	0.000577894	  -2.49367	0.000574083	  -2.49367	   14.3521	
  -2.57759	0.000567906	  -2.56541	0.000570791	  -2.55837	0.000574971	  -2.56712	0.000571223	  -2.56712	   14.2806	
  -2.65121	0.000564945	  -2.63889	0.000568081	  -2.63192	0.000572111	  -2.64067	0.000568379	  -2.64067	   14.2095	
  -2.72464	0.000561953	  -2.71224	0.000565349	  -2.70535	0.000569301	  -2.71407	0.000565534	  -2.71407	   14.1384	
  -2.79784	0.000558939	  -2.78543	0.000562563	  -2.77862	0.000566514	   -2.7873	0.000562672	   -2.7873	   14.0668	
  -2.87102	0.000555912	  -2.85866	0.000559696	  -2.85177	0.000563706	  -2.86048	0.000559772	  -2.86048	   13.9943	
  -2.94392	0.000552886	  -2.93187	0.00055673	  -2.92472	0.000560836	  -2.93351	0.000556817	  -2.93351	   13.9204	
  -3.01676	0.000549875	  -3.00505	0.000553661	  -2.99767	0.000557868	  -3.00649	0.000553801	  -3.00649	    13.845	
  -3.08949	0.000546891	  -3.07814	0.000550508	  -3.07057	0.000554776	   -3.0794	0.000550725	   -3.0794	   13.7681	
  -3.16189	0.000543929	  -3.15093	0.000547297	   -3.1434	0.000551534	  -3.15208	0.000547587	  -3.15208	   13.6897	
  -3.23437	0.000540973	  -3.22382	0.000544058	  -3.21613	0.000548172	  -3.22478	0.000544401	  -3.22478	     13.61	
  -3.30668	0.000537993	  -3.29656	0.000540818	  -3.28874	0.000544753	  -3.29733	0.000541188	  -3.29733	   13.5297	
  -3.37875	0.000534955	  -3.36907	0.000537605	  -3.36115	0.000541338	  -3.36966	0.000537966	  -3.36966	   13.4491	
  -3.45084	0.000531821	   -3.4416	0.000534433	  -3.43361	0.000537993	  -3.44201	0.000534749	  -3.44201	   13.3687	
  -3.52269	0.000528568	  -3.51391	0.000531301	  -3.50586	0.000534771	  -3.51416	0.000531547	  -3.51416	   13.2887	
  -3.59451	0.000525189	   -3.5862	0.00052819	   -3.5779	0.000531678	  -3.58621	0.000528352	  -3.58621	   13.2088	
  -3.66627	0.000521701	  -3.65844	0.000525075	  -3.64993	0.000528691	  -3.65821	0.000525156	  -3.65821	   13.1289	
  -3.73795	0.000518134	  -3.73038	0.000521932	   -3.7217	0.000525754	  -3.73001	0.00052194	  -3.73001	   13.0485	
  -3.80951	0.000514538	  -3.80223	0.000518737	   -3.7932	0.000522797	  -3.80165	0.000518691	  -3.80165	   12.9673	
  -3.88095	0.000510964	  -3.87397	0.000515469	  -3.86464	0.000519735	  -3.87319	0.00051539	  -3.87319	   12.8847	
  -3.95218	0.000507456	  -3.94537	0.000512126	  -3.93594	0.000516496	   -3.9445	0.000512026	   -3.9445	   12.8006	
  -4.02326	0.000504046	  -4.01684	0.000508715	  -4.00734	0.000513047	  -4.01581	0.000508603	  -4.01581	   12.7151	
  -4.09416	0.00050073	  -4.08814	0.000505261	  -4.07859	0.000509393	  -4.08697	0.000505128	  -4.08697	   12.6282	
  -4.16488	0.000497476	  -4.15926	0.000501799	  -4.14969	0.000505569	  -4.15794	0.000501615	  -4.15794	   12.5404	
   -4.2356	0.000494205	  -4.23039	0.000498353	  -4.22082	0.000501645	  -4.22894	0.000498068	  -4.22894	   12.4517	
   -4.3061	0.000490857	   -4.3013	0.000494934	  -4.29175	0.00049771	  -4.29972	 0.0004945	  -4.29972	   12.3625	
  -4.37637	0.000487397	  -4.37218	0.000491546	  -4.36226	0.000493845	  -4.37027	0.000490929	  -4.37027	   12.2732	
  -4.44661	0.000483795	  -4.44301	0.000488174	  -4.43277	0.000490102	   -4.4408	0.000487357	   -4.4408	   12.1839	
  -4.51659	0.000480063	  -4.51356	0.000484798	  -4.50305	0.000486495	  -4.51107	0.000483785	  -4.51107	   12.0946	
   -4.5863	0.00047626	  -4.58362	0.000481388	  -4.57288	0.000483021	  -4.58093	0.000480223	  -4.58093	   12.0056	
  -4.65596	0.000472442	  -4.65361	0.000477925	  -4.64269	0.000479626	  -4.65075	0.000476664	  -4.65075	   11.9166	
  -4.72533	0.000468672	  -4.72332	0.000474401	  -4.71225	0.000476237	   -4.7203	0.000473103	   -4.7203	   11.8276	
  -4.79442	0.000464988	  -4.79294	0.000470815	  -4.78157	0.00047279	  -4.78964	0.000469531	  -4.78964	   11.7383	
  -4.86323	0.000461415	  -4.86227	0.00046718	  -4.85063	0.000469222	  -4.85871	0.000465939	  -4.85871	   11.6485	
  -4.93175	0.000457958	  -4.93149	0.00046352	  -4.91943	0.000465503	  -4.92756	0.000462327	  -4.92756	   11.5582	
  -5.00021	0.000454559	  -5.00019	0.000459858	  -4.98799	0.000461642	  -4.99613	0.000458686	  -4.99613	   11.4672	
   -5.0686	0.000451139	  -5.06881	0.000456219	   -5.0565	0.000457661	  -5.06464	0.000455006	  -5.06464	   11.3752	
  -5.13668	0.000447634	  -5.13713	0.000452616	  -5.12495	0.000453616	  -5.13292	0.000451289	  -5.13292	   11.2822	
  -5.20447	0.000443975	  -5.20514	0.000449035	  -5.19292	0.000449563	  -5.20084	0.000447524	  -5.20084	   11.1881	
  -5.27218	0.000440128	  -5.27308	0.000445474	  -5.26084	0.000445555	   -5.2687	0.000443719	   -5.2687	    11.093	
  -5.33959	0.000436091	  -5.34071	0.000441918	  -5.32849	0.000441622	  -5.33626	0.000439877	  -5.33626	   10.9969	
  -5.40672	0.000431913	  -5.40784	0.000438339	  -5.39607	0.00043777	  -5.40354	0.000436007	  -5.40354	   10.9002	
  -5.47378	0.000427672	  -5.47491	0.000434722	  -5.46339	0.000433986	  -5.47069	0.000432127	  -5.47069	   10.8032	
  -5.54054	0.000423443	   -5.5417	0.000431061	  -5.53043	0.000430236	  -5.53756	0.000428247	  -5.53756	   10.7062	
  -5.60698	0.000419304	  -5.60817	0.000427351	  -5.59715	0.00042647	   -5.6041	0.000424375	   -5.6041	   10.6094	
  -5.67336	0.000415316	  -5.67438	0.000423601	  -5.66384	0.000422646	  -5.67053	0.000420521	  -5.67053	    10.513	
  -5.73947	0.000411487	  -5.74035	0.00041983	  -5.73026	0.000418729	   -5.7367	0.000416682	   -5.7367	    10.417	
  -5.80532	0.000407795	  -5.80608	0.000416045	  -5.79623	0.000414707	  -5.80255	0.000412849	  -5.80255	   10.3212	
  -5.87113	0.000404179	  -5.87159	0.00041226	  -5.86197	0.000410589	  -5.86823	0.000409009	  -5.86823	   10.2252	
  -5.93669	0.000400559	  -5.93688	0.000408476	   -5.9275	0.000406401	  -5.93369	0.000405145	  -5.93369	   10.1286	
    -6.002	0.000396861	  -6.00175	0.000404694	  -5.99262	0.000402189	  -5.99879	0.000401248	  -5.99879	   10.0312	
  -6.06713	0.000393013	  -6.06649	0.000400913	   -6.0576	0.000397995	  -6.06374	0.000397307	  -6.06374	   9.93268	
  -6.13203	0.000388977	  -6.13106	0.00039713	  -6.12241	0.000393855	   -6.1285	0.000393321	   -6.1285	   9.83302	
  -6.19693	0.000384761	  -6.19525	0.000393336	  -6.18684	0.000389795	  -6.19301	0.000389298	  -6.19301	   9.73244	
  -6.26161	0.000380403	  -6.25909	0.000389527	  -6.25091	0.000385815	   -6.2572	0.000385248	   -6.2572	   9.63121	
  -6.32607	0.00037597	  -6.32281	0.00038569	  -6.31486	0.000381896	  -6.32125	0.000381185	  -6.32125	   9.52963	
  -6.39013	0.000371543	  -6.38621	0.000381829	  -6.37849	0.000378003	  -6.38494	0.000377125	  -6.38494	   9.42813	
   -6.4538	0.00036719	  -6.44931	0.000377943	  -6.44161	0.000374093	  -6.44824	0.000373075	  -6.44824	   9.32688	
  -6.51734	0.000362961	  -6.51234	0.00037403	  -6.50468	0.000370126	  -6.51145	0.000369039	  -6.51145	   9.22597	
  -6.58053	0.000358869	  -6.57511	0.000370096	  -6.56749	0.000366071	  -6.57438	0.000365012	  -6.57438	    9.1253	
  -6.64361	0.000354899	  -6.63763	0.000366145	  -6.63007	0.000361918	   -6.6371	0.000360987	   -6.6371	   9.02468	
   -6.7066	0.000351003	  -6.69992	0.000362182	  -6.69263	0.000357676	  -6.69972	0.000356953	  -6.69972	   8.92384	
  -6.76929	0.000347112	  -6.76201	0.000358214	  -6.75499	0.000353374	   -6.7621	 0.0003529	   -6.7621	   8.82251	
   -6.8315	0.00034316	   -6.8237	0.000354243	  -6.81694	0.000349058	  -6.82405	0.000348821	  -6.82405	   8.72052	
  -6.89347	0.000339094	  -6.88524	0.000350274	  -6.87852	0.000344771	  -6.88574	0.000344713	  -6.88574	   8.61782	
  -6.95523	0.000334885	  -6.94665	0.000346304	  -6.93997	0.00034054	  -6.94728	0.000340576	  -6.94728	    8.5144	
  -7.01658	0.00033054	  -7.00773	0.000342328	   -7.0011	0.00033639	  -7.00847	0.000336419	  -7.00847	   8.41048	
  -7.07768	 0.0003261	  -7.06846	0.000338341	   -7.0619	0.000332316	  -7.06935	0.000332252	  -7.06935	   8.30631	
  -7.13866	0.000321623	  -7.12893	0.000334338	  -7.12243	 0.0003283	  -7.13001	0.000328087	  -7.13001	   8.20217	
  -7.19931	0.000317174	  -7.18917	0.000330312	  -7.18274	0.000324305	  -7.19041	0.00032393	  -7.19041	   8.09826	
  -7.25966	0.000312803	  -7.24899	0.00032626	  -7.24264	0.000320286	  -7.25043	0.000319783	  -7.25043	   7.99457	
  -7.31977	0.000308531	  -7.30844	0.000322181	  -7.30217	0.000316204	  -7.31013	0.000315639	  -7.31013	   7.89097	
  -7.37964	0.000304371	  -7.36777	0.000318082	  -7.36159	0.000312037	  -7.36967	0.000311497	  -7.36967	   7.78742	
  -7.43911	0.000300272	  -7.42679	0.000313967	   -7.4207	0.000307778	  -7.42887	0.000307339	  -7.42887	   7.68348	
  -7.49822	0.000296177	  -7.48533	0.000309841	  -7.47933	0.000303447	  -7.48763	0.000303155	  -7.48763	   7.57888	
  -7.55721	0.000292027	  -7.54371	0.000305709	  -7.53764	0.000299076	  -7.54619	0.000298938	  -7.54619	   7.47344	
   -7.6159	0.000287761	   -7.6019	0.000301578	  -7.59578	0.000294704	  -7.60453	0.000294681	  -7.60453	   7.36702	
  -7.67413	0.000283339	  -7.65972	0.000297447	  -7.65357	0.000290372	  -7.66247	0.000290386	  -7.66247	   7.25965	
  -7.73173	0.000278769	  -7.71722	0.00029331	  -7.71104	0.000286104	  -7.71999	0.000286061	  -7.71999	   7.15152	
  -7.78918	0.000274086	  -7.77465	0.000289164	  -7.76825	0.000281906	  -7.77736	0.000281719	  -7.77736	   7.04297	
  -7.84632	0.00026935	  -7.83183	0.000285003	  -7.82524	0.000277767	  -7.83446	0.000277373	  -7.83446	   6.93433	
  -7.90298	0.000264621	  -7.88858	0.000280818	  -7.88183	0.00027366	  -7.89113	0.000273033	  -7.89113	   6.82582	
  -7.95942	0.00025996	  -7.94497	0.000276608	  -7.93828	0.000269557	  -7.94756	0.000268709	  -7.94756	   6.71771	
  -8.01568	0.000255409	  -8.00125	0.000272373	  -7.99463	0.000265441	  -8.00385	0.000264408	  -8.00385	   6.61019	
  -8.07159	0.000250995	  -8.05723	0.000268115	   -8.0507	0.000261297	  -8.05984	0.000260136	  -8.05984	    6.5034	
   -8.1272	0.000246699	  -8.11298	0.000263838	  -8.10632	0.000257095	   -8.1155	0.000255877	   -8.1155	   6.39693	
  -8.18256	0.000242483	  -8.16811	0.000259548	  -8.16155	0.000252836	  -8.17074	0.000251622	  -8.17074	   6.29056	
  -8.23771	0.00023831	  -8.22311	0.00025525	  -8.21666	0.000248519	  -8.22583	0.00024736	  -8.22583	   6.18399	
   -8.2925	0.000234124	  -8.27782	0.00025095	  -8.27148	0.000244121	   -8.2806	0.000243065	   -8.2806	   6.07663	
  -8.34696	0.000229866	  -8.33207	0.000246648	  -8.32542	0.00023966	  -8.33482	0.000238725	  -8.33482	   5.96812	
  -8.40095	0.000225526	  -8.38573	0.000242346	  -8.37755	0.000235156	  -8.38808	0.000234343	  -8.38808	   5.85857	
  -8.45459	0.00022109	  -8.43929	0.000238043	   -8.4294	0.000230628	  -8.44109	0.00022992	  -8.44109	   5.74801	
  -8.50789	0.000216566	  -8.49257	0.000233739	  -8.48115	0.000226087	  -8.49387	0.000225464	  -8.49387	    5.6366	
   -8.5609	0.000211992	  -8.54543	0.000229426	  -8.53137	0.000221542	   -8.5459	0.000220987	   -8.5459	   5.52467	
  -8.61347	0.000207399	  -8.59772	 0.0002251	  -8.58189	0.000217026	   -8.5977	0.000216508	   -8.5977	   5.41271	
  -8.66568	0.000202826	  -8.64974	0.00022076	  -8.63358	0.000212569	  -8.64966	0.000212051	  -8.64966	   5.30128	
  -8.71758	0.000198304	  -8.70154	0.000216403	  -8.68449	0.000208181	   -8.7012	0.000207629	   -8.7012	   5.19073	
  -8.76903	0.00019384	  -8.75296	0.000212029	  -8.73473	0.000203874	  -8.75224	0.000203248	  -8.75224	    5.0812	
  -8.82005	0.00018944	  -8.80418	0.000207641	  -8.78632	0.000199657	  -8.80352	0.000198913	  -8.80352	   4.97282	
  -8.87077	0.000185085	  -8.85515	0.000203243	   -8.8379	0.000195521	  -8.85461	0.000194616	  -8.85461	    4.8654	
  -8.92125	0.000180748	  -8.90593	0.000198843	  -8.88927	0.000191435	  -8.90549	0.000190342	  -8.90549	   4.75855	
  -8.97134	0.000176398	  -8.95637	0.000194446	  -8.94093	0.000187357	  -8.95621	0.000186067	  -8.95621	   4.65167	
  -9.02091	0.000172002	  -9.00632	0.000190055	  -8.99204	0.000183241	  -9.00642	0.000181766	  -9.00642	   4.54415	
  -9.07005	0.000167542	  -9.05586	0.000185673	  -9.04227	0.00017904	  -9.05606	0.000177418	  -9.05606	   4.43546	
  -9.11882	0.000163012	  -9.10529	0.000181297	  -9.09236	0.000174716	  -9.10549	0.000173008	  -9.10549	   4.32521	
  -9.16732	0.000158416	  -9.15444	0.000176916	  -9.14216	0.000170256	  -9.15464	0.000168529	  -9.15464	   4.21323	
   -9.2154	0.000153786	  -9.20319	0.000172517	  -9.19106	0.00016567	  -9.20321	0.000163991	  -9.20321	   4.09978	
  -9.26314	0.000149152	   -9.2516	0.000168088	  -9.23942	0.000160991	  -9.25139	0.00015941	  -9.25139	   3.98526	
  -9.31063	0.000144548	  -9.29975	0.000163627	  -9.28715	0.000156274	  -9.29917	0.000154816	  -9.29917	   3.87041	
  -9.35793	0.000139998	  -9.34771	0.000159144	  -9.33412	0.00015158	  -9.34659	0.000150241	  -9.34659	   3.75602	
   -9.4049	0.00013551	  -9.39534	0.000154651	  -9.38109	0.00014695	  -9.39378	0.000145704	  -9.39378	   3.64259	
  -9.45142	0.000131078	  -9.44272	0.000150167	  -9.42789	0.000142425	  -9.44067	0.000141223	  -9.44067	   3.53058	
  -9.49757	0.000126673	  -9.48949	0.000145707	  -9.47396	0.000138012	  -9.48701	0.000136798	  -9.48701	   3.41994	
  -9.54323	0.000122262	  -9.53598	0.000141281	  -9.51964	0.000133698	  -9.53295	0.000132414	  -9.53295	   3.31034	
  -9.58854	0.00011782	  -9.58225	0.00013689	  -9.56521	0.000129449	  -9.57867	0.000128053	  -9.57867	   3.20133	
  -9.63355	0.000113325	  -9.62818	0.000132528	  -9.61054	0.000125197	  -9.62409	0.000123683	  -9.62409	   3.09208	
  -9.67813	0.000108768	  -9.67363	0.000128164	  -9.65549	0.000120886	  -9.66908	0.000119273	  -9.66908	   2.98182	
  -9.72216	0.000104164	   -9.7185	0.000123763	  -9.70057	0.000116481	  -9.71374	0.000114803	  -9.71374	   2.87007	
  -9.76555	9.95365e-05	  -9.76268	0.000119309	  -9.74521	0.000111949	  -9.75781	0.000110265	  -9.75781	   2.75662	
  -9.80882	9.49105e-05	  -9.80629	0.000114786	  -9.78928	0.000107305	  -9.80146	0.000105667	  -9.80146	   2.64168	
  -9.85185	9.03107e-05	  -9.84965	0.000110205	  -9.83311	0.00010258	  -9.84487	0.000101032	  -9.84487	    2.5258	
   -9.8945	8.57526e-05	  -9.89221	0.000105594	  -9.87658	9.78211e-05	  -9.88776	9.63893e-05	  -9.88776	   2.40973	
  -9.93668	8.12414e-05	  -9.93416	0.000100961	  -9.91955	9.30851e-05	  -9.93013	9.17627e-05	  -9.93013	   2.29407	
  -9.97826	7.67707e-05	   -9.9762	9.63662e-05	  -9.96194	8.84186e-05	  -9.97214	8.71851e-05	  -9.97214	   2.17963	
  -10.0196	7.23213e-05	  -10.0176	9.18216e-05	  -10.0041	8.38598e-05	  -10.0137	8.26675e-05	  -10.0137	   2.06669	
  -10.0608	6.78722e-05	  -10.0586	8.73326e-05	  -10.0456	7.94119e-05	   -10.055	7.82056e-05	   -10.055	   1.95514	
  -10.1016	6.34025e-05	  -10.0997	8.28999e-05	  -10.0869	7.50471e-05	  -10.0961	7.37832e-05	  -10.0961	   1.84458	
  -10.1421	5.89079e-05	  -10.1401	7.84866e-05	  -10.1278	7.07272e-05	  -10.1366	6.93739e-05	  -10.1366	   1.73435	
  -10.1821	5.4379e-05	  -10.1797	7.40541e-05	  -10.1682	6.63873e-05	  -10.1767	6.49401e-05	  -10.1767	    1.6235	
  -10.2217	4.98167e-05	  -10.2195	6.95828e-05	   -10.208	6.1973e-05	  -10.2164	6.04575e-05	  -10.2164	   1.51144	
   -10.261	4.52381e-05	  -10.2582	6.50272e-05	  -10.2473	5.74401e-05	  -10.2555	5.59018e-05	  -10.2555	   1.39755	
  -10.3002	4.06568e-05	  -10.2968	6.03988e-05	  -10.2863	5.27698e-05	  -10.2944	5.12752e-05	  -10.2944	   1.28188	
  -10.3391	3.60815e-05	  -10.3357	5.57093e-05	   -10.325	4.7988e-05	  -10.3333	4.65929e-05	  -10.3333	   1.16482	
  -10.3776	3.15242e-05	  -10.3731	5.09839e-05	  -10.3635	4.31401e-05	  -10.3714	4.18827e-05	  -10.3714	   1.04707	
  -10.4156	2.69904e-05	  -10.4101	4.62708e-05	  -10.4014	3.82904e-05	   -10.409	3.71839e-05	   -10.409	  0.929597	
   -10.453	2.24671e-05	  -10.4477	4.15999e-05	  -10.4389	3.35162e-05	  -10.4465	3.25277e-05	  -10.4465	  0.813193	
  -10.4897	1.79501e-05	  -10.4843	3.6997e-05	  -10.4757	2.88723e-05	  -10.4832	2.79398e-05	  -10.4832	  0.698495	
  -10.5259	1.34289e-05	  -10.5206	3.24774e-05	   -10.512	2.43825e-05	  -10.5195	2.34296e-05	  -10.5195	  0.585741	
  -10.5619	8.89736e-06	  -10.5568	2.80175e-05	  -10.5482	 2.004e-05	  -10.5556	1.8985e-05	  -10.5556	  0.474624	
  -10.5976	4.34675e-06	   -10.592	2.35984e-05	  -10.5839	1.57891e-05	  -10.5912	1.45781e-05	  -10.5912	  0.364452	
  -10.6329	-2.30709e-07	   -10.627	1.91768e-05	  -10.6193	1.15639e-05	  -10.6264	 1.017e-05	  -10.6264	   0.25425	
  -10.6678	-4.83455e-06	  -10.6618	1.47222e-05	  -10.6543	7.29712e-06	  -10.6613	5.72825e-06	  -10.6613	  0.143206	
  -10.7022	-9.45264e-06	  -10.6959	1.02153e-05	  -10.6887	2.91376e-06	  -10.6956	1.22546e-06	  -10.6956	 0.0306365	
  -10.7359	-1.40753e-05	  -10.7292	5.64087e-06	  -10.7228	-1.61331e-06	  -10.7293	-3.34925e-06	  -10.7293	-0.0837312	
  -10.7693	-1.86848e-05	  -10.7625	1.01206e-06	  -10.7563	-6.27904e-06	  -10.7627	-7.98393e-06	  -10.7627	 -0.199598	
  -10.8025	-2.32745e-05	  -10.7954	-3.65209e-06	  -10.7893	-1.10502e-05	  -10.7958	-1.26589e-05	  -10.7958	 -0.316473	
  -10.8354	-2.78386e-05	  -10.8278	-8.33168e-06	  -10.8222	-1.58637e-05	  -10.8285	-1.73446e-05	  -10.8285	 -0.433616	
  -10.8681	-3.23703e-05	  -10.8599	-1.29924e-05	  -10.8548	-2.06534e-05	  -10.8609	-2.20054e-05	  -10.8609	 -0.550134	
  -10.9003	-3.68785e-05	  -10.8917	-1.76143e-05	  -10.8869	-2.53565e-05	   -10.893	-2.66164e-05	   -10.893	 -0.665411	
   -10.932	-4.13754e-05	  -10.9227	-2.21852e-05	  -10.9185	-2.9928e-05	  -10.9244	-3.11629e-05	  -10.9244	 -0.779072	
  -10.9632	-4.58752e-05	  -10.9534	-2.66978e-05	  -10.9497	-3.43794e-05	  -10.9555	-3.56508e-05	  -10.9555	 -0.891269	
  -10.9939	-5.03977e-05	  -10.9839	-3.11636e-05	  -10.9803	-3.874e-05	   -10.986	-4.01005e-05	   -10.986	  -1.00251	
  -11.0238	-5.49509e-05	  -11.0138	-3.5592e-05	  -11.0103	-4.30503e-05	  -11.0159	-4.45311e-05	  -11.0159	  -1.11328	
  -11.0531	-5.95412e-05	  -11.0433	-4.0002e-05	  -11.0398	-4.73891e-05	  -11.0454	-4.89774e-05	  -11.0454	  -1.22444	
   -11.082	-6.41626e-05	  -11.0721	-4.44136e-05	  -11.0686	-5.18062e-05	  -11.0742	-5.34608e-05	  -11.0742	  -1.33652	
  -11.1107	-6.88011e-05	  -11.1003	-4.88413e-05	   -11.097	-5.63336e-05	  -11.1027	-5.7992e-05	  -11.1027	   -1.4498	
   -11.139	-7.3428e-05	  -11.1284	-5.32959e-05	  -11.1253	-6.09762e-05	  -11.1309	-6.25667e-05	  -11.1309	  -1.56417	
  -11.1669	-7.80238e-05	  -11.1563	-5.77801e-05	  -11.1533	-6.57084e-05	  -11.1588	-6.71708e-05	  -11.1588	  -1.67927	
  -11.1945	-8.25743e-05	  -11.1838	-6.22936e-05	   -11.181	-7.04865e-05	  -11.1864	-7.17848e-05	  -11.1864	  -1.79462	
  -11.2216	-8.70766e-05	  -11.2109	-6.68385e-05	  -11.2082	-7.52549e-05	  -11.2136	-7.639e-05	  -11.2136	  -1.90975	
  -11.2482	-9.15375e-05	  -11.2376	-7.14024e-05	   -11.235	-7.99542e-05	  -11.2403	-8.09647e-05	  -11.2403	  -2.02412	
  -11.2743	-9.59872e-05	  -11.2637	-7.59739e-05	  -11.2613	-8.45544e-05	  -11.2664	-8.55052e-05	  -11.2664	  -2.13763	
  -11.2998	-0.000100455	  -11.2893	-8.05437e-05	   -11.287	-8.90402e-05	   -11.292	-9.00131e-05	   -11.292	  -2.25033	
  -11.3248	-0.000104972	  -11.3144	-8.50979e-05	  -11.3123	-9.34328e-05	  -11.3172	-9.45008e-05	  -11.3172	  -2.36252	
  -11.3492	-0.000109556	  -11.3388	-8.96256e-05	  -11.3372	-9.77671e-05	  -11.3417	-9.8983e-05	  -11.3417	  -2.47457	
  -11.3731	-0.000114219	  -11.3627	-9.41209e-05	  -11.3618	-0.000102087	  -11.3659	-0.000103476	  -11.3659	  -2.58689	
  -11.3964	-0.000118934	  -11.3864	-9.85797e-05	  -11.3858	-0.000106447	  -11.3895	-0.000107987	  -11.3895	  -2.69967	
  -11.4194	-0.000123677	  -11.4097	-0.000103011	  -11.4093	-0.000110884	  -11.4128	-0.000112524	  -11.4128	  -2.81311	
  -11.4418	-0.000128396	  -11.4323	-0.000107423	  -11.4323	-0.000115413	  -11.4355	-0.000117078	  -11.4355	  -2.92694	
  -11.4638	-0.000133053	  -11.4544	-0.000111827	  -11.4552	-0.000120031	  -11.4578	-0.000121637	  -11.4578	  -3.04092	
  -11.4855	-0.000137623	  -11.4762	-0.000116239	  -11.4775	-0.000124705	  -11.4797	-0.000126189	  -11.4797	  -3.15473	
  -11.5069	-0.000142089	  -11.4977	-0.000120672	  -11.4992	-0.000129398	  -11.5013	-0.000130719	  -11.5013	  -3.26798	
   -11.528	-0.000146461	  -11.5188	-0.000125131	  -11.5206	-0.00013406	  -11.5225	-0.000135217	  -11.5225	  -3.38044	
  -11.5486	-0.00015078	  -11.5396	-0.000129621	  -11.5417	-0.000138652	  -11.5433	-0.000139684	  -11.5433	   -3.4921	
  -11.5689	-0.000155086	    -11.56	-0.00013413	  -11.5622	-0.000143148	  -11.5637	-0.000144121	  -11.5637	  -3.60303	
  -11.5886	-0.000159432	    -11.58	-0.000138651	  -11.5823	-0.000147543	  -11.5836	-0.000148542	  -11.5836	  -3.71355	
  -11.6079	-0.00016385	  -11.5995	-0.000143169	  -11.6019	-0.000151856	  -11.6031	-0.000152958	  -11.6031	  -3.82396	
  -11.6266	-0.000168357	  -11.6185	-0.000147677	   -11.621	-0.000156122	   -11.622	-0.000157386	   -11.622	  -3.93464	
  -11.6448	-0.000172955	  -11.6369	-0.000152172	  -11.6396	-0.000160383	  -11.6404	-0.000161837	  -11.6404	  -4.04592	
  -11.6624	-0.000177608	  -11.6549	-0.000156668	  -11.6575	-0.000164681	  -11.6583	-0.000166319	  -11.6583	  -4.15797	
  -11.6795	-0.00018227	  -11.6723	-0.00016118	  -11.6749	-0.000169045	  -11.6756	-0.000170832	  -11.6756	  -4.27079	
   -11.696	-0.000186892	  -11.6891	-0.000165704	  -11.6917	-0.000173489	  -11.6923	-0.000175362	  -11.6923	  -4.38404	
  -11.7119	-0.000191425	  -11.7053	-0.000170218	  -11.7082	-0.000178002	  -11.7085	-0.000179882	  -11.7085	  -4.49705	
  -11.7274	-0.000195844	   -11.721	-0.000174716	   -11.724	-0.000182556	  -11.7241	-0.000184372	  -11.7241	   -4.6093	
  -11.7423	-0.000200144	   -11.736	-0.000179175	  -11.7392	-0.000187108	  -11.7392	-0.000188809	  -11.7392	  -4.72022	
  -11.7566	-0.000204341	  -11.7507	-0.000183563	  -11.7537	-0.000191618	  -11.7537	-0.000193174	  -11.7537	  -4.82935	
  -11.7703	-0.000208482	  -11.7648	-0.000187872	  -11.7677	-0.000196056	  -11.7676	-0.00019747	  -11.7676	  -4.93675	
  -11.7834	-0.000212616	  -11.7783	-0.000192107	   -11.781	-0.000200409	  -11.7809	-0.000201711	  -11.7809	  -5.04277	
  -11.7961	-0.000216794	  -11.7912	-0.000196265	  -11.7941	-0.00020468	  -11.7938	-0.000205913	  -11.7938	  -5.14782	
  -11.8081	-0.000221046	  -11.8034	-0.00020035	  -11.8066	-0.000208895	  -11.8061	-0.000210097	  -11.8061	  -5.25242	
  -11.8198	-0.000225383	  -11.8151	-0.000204418	  -11.8185	-0.00021309	  -11.8178	-0.000214297	  -11.8178	  -5.35742	
  -11.8311	-0.000229795	  -11.8263	-0.000208529	  -11.8302	-0.0002173	  -11.8292	-0.000218541	  -11.8292	  -5.46354	
  -11.8419	-0.00023425	   -11.837	-0.000212716	  -11.8412	-0.000221556	    -11.84	-0.000222841	    -11.84	  -5.57101	
  -11.8521	-0.000238706	  -11.8471	-0.00021704	  -11.8519	-0.000225876	  -11.8504	-0.000227208	  -11.8504	  -5.68019	
  -11.8622	-0.000243118	  -11.8567	-0.000221513	  -11.8621	-0.000230261	  -11.8603	-0.00023163	  -11.8603	  -5.79076	
  -11.8716	-0.000247447	  -11.8659	-0.000226115	  -11.8717	-0.000234689	  -11.8697	-0.000236084	  -11.8697	  -5.90209	
  -11.8804	-0.000251675	  -11.8746	-0.000230802	  -11.8806	-0.000239128	  -11.8785	-0.000240535	  -11.8785	  -6.01338	
  -11.8886	-0.000255803	  -11.8828	-0.000235505	  -11.8892	-0.000243544	  -11.8869	-0.00024495	  -11.8869	  -6.12376	
  -11.8967	-0.000259843	  -11.8904	-0.000240154	  -11.8973	-0.000247908	  -11.8948	-0.000249302	  -11.8948	  -6.23254	
  -11.9043	-0.000263832	  -11.8978	-0.000244676	  -11.9047	-0.0002522	  -11.9022	-0.00025357	  -11.9022	  -6.33924	
  -11.9114	-0.000267815	  -11.9048	-0.000249011	  -11.9116	-0.000256415	  -11.9093	-0.000257747	  -11.9093	  -6.44367	
   -11.918	-0.000271836	  -11.9113	-0.00025315	   -11.918	-0.000260563	  -11.9158	-0.00026185	  -11.9158	  -6.54624	
  -11.9241	-0.00027593	  -11.9173	-0.000257115	  -11.9239	-0.000264673	  -11.9218	-0.000265906	  -11.9218	  -6.64765	
  -11.9299	-0.000280116	  -11.9229	-0.000260963	  -11.9293	-0.000268779	  -11.9274	-0.000269953	  -11.9274	  -6.74881	
  -11.9351	-0.000284394	   -11.928	-0.00026476	  -11.9343	-0.000272909	  -11.9325	-0.000274021	  -11.9325	  -6.85053	
    -11.94	-0.000288741	  -11.9328	-0.000268578	  -11.9388	-0.000277083	  -11.9372	-0.000278134	  -11.9372	  -6.95334	
  -11.9445	-0.000293115	  -11.9371	-0.000272478	  -11.9429	-0.000281308	  -11.9415	-0.0002823	  -11.9415	  -7.05751	
  -11.9487	-0.000297474	   -11.941	-0.000276494	  -11.9466	-0.000285576	  -11.9454	-0.000286515	  -11.9454	  -7.16286	
  -11.9524	-0.000301759	  -11.9446	-0.000280629	  -11.9499	-0.000289868	   -11.949	-0.000290752	   -11.949	   -7.2688	
  -11.9557	-0.000305932	  -11.9478	-0.000284869	  -11.9529	-0.00029416	  -11.9521	-0.000294987	  -11.9521	  -7.37468	
  -11.9586	-0.000309976	  -11.9507	-0.000289166	  -11.9556	-0.000298422	   -11.955	-0.000299188	   -11.955	  -7.47969	
  -11.9612	-0.000313901	  -11.9533	-0.000293462	  -11.9579	-0.000302625	  -11.9575	-0.000303329	  -11.9575	  -7.58323	
  -11.9634	-0.000317742	  -11.9556	-0.000297694	  -11.9599	-0.000306764	  -11.9596	-0.0003074	  -11.9596	    -7.685	
  -11.9654	-0.000321557	  -11.9576	-0.000301816	  -11.9616	-0.000310843	  -11.9615	-0.000311405	  -11.9615	  -7.78513	
   -11.967	-0.000325414	  -11.9593	-0.000305814	  -11.9631	-0.00031487	  -11.9631	-0.000315366	  -11.9631	  -7.88415	
  -11.9683	-0.000329347	  -11.9608	-0.000309691	  -11.9643	-0.000318872	  -11.9645	-0.000319303	  -11.9645	  -7.98258	
  -11.9694	-0.000333399	  -11.9621	-0.000313482	  -11.9653	-0.000322869	  -11.9656	-0.00032325	  -11.9656	  -8.08125	
  -11.9703	-0.000337571	  -11.9629	-0.000317235	  -11.9661	-0.000326884	  -11.9664	-0.00032723	  -11.9664	  -8.18075	
  -11.9707	-0.000341816	  -11.9634	-0.000320999	  -11.9665	-0.000330935	  -11.9668	-0.00033125	  -11.9668	  -8.28125	
  -11.9705	-0.000346095	  -11.9632	-0.000324824	  -11.9664	-0.000335017	  -11.9667	-0.000335312	  -11.9667	   -8.3828	
  -11.9697	-0.000350332	  -11.9626	-0.00032875	  -11.9659	-0.000339122	   -11.966	-0.000339401	   -11.966	  -8.48503	
  -11.9684	-0.000354455	  -11.9612	-0.000332775	  -11.9646	-0.000343225	  -11.9647	-0.000343485	  -11.9647	  -8.58713	
  -11.9667	-0.000358434	  -11.9592	-0.000336873	  -11.9626	-0.000347303	  -11.9628	-0.000347537	  -11.9628	  -8.68842	
  -11.9643	-0.000362255	  -11.9567	-0.000341007	  -11.9601	-0.000351327	  -11.9604	-0.00035153	  -11.9604	  -8.78824	
  -11.9613	-0.00036593	  -11.9536	-0.000345118	   -11.957	-0.000355275	  -11.9573	-0.000355441	  -11.9573	  -8.88603	
  -11.9579	-0.000369521	  -11.9501	-0.000349144	  -11.9534	-0.000359132	  -11.9538	-0.000359266	  -11.9538	  -8.98165	
  -11.9539	-0.000373084	  -11.9461	-0.000353049	  -11.9494	-0.000362906	  -11.9498	-0.000363013	  -11.9498	  -9.07533	
  -11.9496	-0.000376688	  -11.9418	-0.000356817	   -11.945	-0.000366625	  -11.9455	-0.00036671	  -11.9455	  -9.16776	
  -11.9449	-0.000380366	  -11.9372	-0.000360451	  -11.9403	-0.00037033	  -11.9408	-0.000370382	  -11.9408	  -9.25956	
  -11.9399	-0.000384136	  -11.9323	-0.000363994	  -11.9353	-0.000374059	  -11.9358	-0.000374063	  -11.9358	  -9.35157	
  -11.9346	-0.000388007	  -11.9271	-0.000367498	  -11.9298	-0.000377855	  -11.9305	-0.000377787	  -11.9305	  -9.44467	
  -11.9288	-0.000391942	  -11.9214	-0.000371029	   -11.924	-0.000381741	  -11.9247	-0.000381571	  -11.9247	  -9.53927	
  -11.9223	-0.000395895	  -11.9152	-0.000374643	  -11.9173	-0.000385706	  -11.9183	-0.000385415	  -11.9183	  -9.63536	
  -11.9152	-0.000399824	  -11.9082	-0.000378362	    -11.91	-0.000389716	  -11.9111	-0.000389301	  -11.9111	  -9.73251	
  -11.9076	-0.00040368	  -11.9009	-0.000382183	  -11.9021	-0.000393723	  -11.9035	-0.000393195	  -11.9035	  -9.82988	
  -11.8994	-0.000407433	  -11.8929	-0.000386075	  -11.8936	-0.000397678	  -11.8953	-0.000397062	  -11.8953	  -9.92655	
  -11.8907	-0.000411066	  -11.8845	-0.000389987	  -11.8847	-0.000401538	  -11.8866	-0.000400864	  -11.8866	  -10.0216	
  -11.8816	-0.000414595	  -11.8757	-0.000393864	  -11.8754	-0.000405268	  -11.8775	-0.000404576	  -11.8775	  -10.1144	
  -11.8721	-0.000418032	  -11.8664	-0.000397641	  -11.8657	-0.000408871	  -11.8681	-0.000408181	  -11.8681	  -10.2045	
  -11.8622	-0.000421412	  -11.8569	-0.000401286	  -11.8557	-0.000412383	  -11.8583	-0.000411693	  -11.8583	  -10.2923	
   -11.852	-0.000424788	  -11.8472	-0.000404795	  -11.8452	-0.000415858	  -11.8481	-0.000415147	  -11.8481	  -10.3787	
  -11.8413	-0.000428198	   -11.837	-0.000408188	  -11.8341	-0.000419332	  -11.8375	-0.000418573	  -11.8375	  -10.4643	
  -11.8299	-0.000431674	  -11.8261	-0.000411511	  -11.8224	-0.000422867	  -11.8261	-0.000422017	  -11.8261	  -10.5504	
   -11.818	-0.000435272	  -11.8145	-0.000414812	  -11.8101	-0.00042648	  -11.8142	-0.000425521	  -11.8142	   -10.638	
  -11.8056	-0.000438965	  -11.8026	-0.000418145	  -11.7973	-0.000430154	  -11.8018	-0.000429088	  -11.8018	  -10.7272	
  -11.7928	-0.000442719	  -11.7902	-0.000421549	   -11.784	-0.000433873	   -11.789	-0.000432714	   -11.789	  -10.8178	
  -11.7795	-0.000446497	  -11.7774	-0.000425033	  -11.7703	-0.000437596	  -11.7757	-0.000436376	  -11.7757	  -10.9094	
  -11.7659	-0.000450248	  -11.7641	-0.000428588	  -11.7563	-0.000441254	  -11.7621	-0.00044003	  -11.7621	  -11.0008	
  -11.7518	-0.000453909	  -11.7503	-0.000432181	  -11.7419	-0.000444824	   -11.748	-0.000443638	   -11.748	  -11.0909	
  -11.7374	-0.00045744	  -11.7362	-0.000435766	  -11.7267	-0.000448282	  -11.7334	-0.000447163	  -11.7334	  -11.1791	
  -11.7222	-0.000460818	  -11.7213	-0.0004393	   -11.711	-0.000451639	  -11.7182	-0.000450586	  -11.7182	  -11.2646	
  -11.7065	-0.000464058	  -11.7058	-0.000442749	  -11.6947	-0.000454922	  -11.7023	-0.00045391	  -11.7023	  -11.3477	
  -11.6902	-0.000467198	  -11.6898	-0.000446097	   -11.678	-0.000458173	   -11.686	-0.000457156	   -11.686	  -11.4289	
  -11.6735	-0.000470297	  -11.6734	-0.000449355	   -11.661	-0.000461435	  -11.6693	-0.000460362	  -11.6693	  -11.5091	
  -11.6566	-0.000473431	  -11.6567	-0.000452543	  -11.6438	-0.000464749	  -11.6523	-0.000463574	  -11.6523	  -11.5894	
  -11.6392	-0.000476655	  -11.6392	-0.000455698	  -11.6259	-0.000468119	  -11.6348	-0.000466824	  -11.6348	  -11.6706	
  -11.6212	-0.000480005	  -11.6211	-0.000458861	  -11.6075	-0.000471542	  -11.6166	-0.000470136	  -11.6166	  -11.7534	
  -11.6028	-0.000483477	  -11.6022	-0.000462065	  -11.5886	-0.000474996	  -11.5979	-0.000473513	  -11.5979	  -11.8378	
  -11.5839	-0.000487034	  -11.5829	-0.000465328	  -11.5692	-0.000478445	  -11.5786	-0.000476936	  -11.5786	  -11.9234	
  -11.5644	-0.000490622	  -11.5631	-0.000468652	  -11.5494	-0.000481854	   -11.559	-0.000480376	   -11.559	  -12.0094	
  -11.5446	-0.000494176	  -11.5431	-0.000472023	  -11.5293	-0.000485189	   -11.539	-0.000483796	   -11.539	  -12.0949	
  -11.5244	-0.000497635	  -11.5226	-0.000475414	  -11.5091	-0.000488438	  -11.5187	-0.000487162	  -11.5187	  -12.1791	
  -11.5037	-0.000500954	  -11.5015	-0.000478785	  -11.4883	-0.000491602	  -11.4978	-0.000490447	  -11.4978	  -12.2612	
  -11.4826	-0.000504127	    -11.48	-0.000482099	   -11.467	-0.000494698	  -11.4765	-0.000493641	  -11.4765	   -12.341	
  -11.4608	-0.000507178	   -11.458	-0.000485332	  -11.4453	-0.000497757	  -11.4547	-0.000496756	  -11.4547	  -12.4189	
  -11.4387	-0.00051016	  -11.4356	-0.000488477	  -11.4232	-0.000500805	  -11.4325	-0.000499814	  -11.4325	  -12.4953	
  -11.4161	-0.00051313	  -11.4128	-0.000491537	  -11.4005	-0.000503869	  -11.4098	-0.000502846	  -11.4098	  -12.5711	
  -11.3931	-0.000516145	  -11.3897	-0.000494536	  -11.3775	-0.000506966	  -11.3868	-0.000505883	  -11.3868	  -12.6471	
  -11.3698	-0.000519243	  -11.3661	-0.000497504	  -11.3538	-0.000510095	  -11.3632	-0.000508948	  -11.3632	  -12.7237	
  -11.3459	-0.00052244	  -11.3418	-0.00050048	  -11.3295	-0.000513252	  -11.3391	-0.000512057	  -11.3391	  -12.8014	
  -11.3216	-0.000525719	  -11.3171	-0.000503495	  -11.3048	-0.000516413	  -11.3145	-0.000515209	  -11.3145	  -12.8802	
  -11.2968	-0.000529046	  -11.2921	-0.000506568	  -11.2798	-0.000519558	  -11.2896	-0.00051839	  -11.2896	  -12.9598	
  -11.2718	-0.000532366	  -11.2668	-0.000509701	  -11.2542	-0.000522659	  -11.2643	-0.000521575	  -11.2643	  -13.0394	
  -11.2464	-0.00053563	  -11.2414	-0.000512876	   -11.228	-0.000525703	  -11.2386	-0.000524736	  -11.2386	  -13.1184	
  -11.2203	-0.000538797	  -11.2154	-0.000516061	  -11.2016	-0.000528685	  -11.2124	-0.000527848	  -11.2124	  -13.1962	
  -11.1937	-0.000541853	  -11.1888	-0.000519226	  -11.1746	-0.000531606	  -11.1857	-0.000530895	  -11.1857	  -13.2724	
  -11.1666	-0.000544803	  -11.1618	-0.000522336	  -11.1474	-0.000534472	  -11.1586	-0.00053387	  -11.1586	  -13.3468	
  -11.1393	-0.000547681	  -11.1346	-0.00052537	  -11.1199	-0.000537311	  -11.1313	-0.000536787	  -11.1313	  -13.4197	
  -11.1114	-0.000550516	  -11.1069	-0.000528317	  -11.0919	-0.00054014	  -11.1034	-0.000539658	  -11.1034	  -13.4914	
  -11.0829	-0.000553346	  -11.0785	-0.000531185	  -11.0633	-0.000542984	  -11.0749	-0.000542505	  -11.0749	  -13.5626	
  -11.0541	-0.000556203	  -11.0497	-0.000533994	  -11.0342	-0.000545857	   -11.046	-0.000545351	   -11.046	  -13.6338	
  -11.0249	-0.000559099	  -11.0205	-0.000536776	  -11.0048	-0.000548758	  -11.0167	-0.000548211	  -11.0167	  -13.7053	
  -10.9954	-0.000562033	   -10.991	-0.000539557	  -10.9746	-0.000551683	   -10.987	-0.000551091	   -10.987	  -13.7773	
  -10.9653	-0.000564993	  -10.9608	-0.000542366	  -10.9444	-0.00055461	  -10.9568	-0.00055399	  -10.9568	  -13.8497	
  -10.9348	-0.000567955	  -10.9302	-0.000545209	  -10.9139	-0.00055752	  -10.9263	-0.000556895	  -10.9263	  -13.9224	
  -10.9038	-0.000570894	  -10.8991	-0.000548086	  -10.8829	-0.000560389	  -10.8953	-0.000559789	  -10.8953	  -13.9947	
  -10.8725	-0.000573779	  -10.8677	-0.000550977	  -10.8517	-0.000563199	   -10.864	-0.000562652	   -10.864	  -14.0663	
  -10.8407	-0.000576592	   -10.836	-0.000553857	  -10.8201	-0.000565953	  -10.8322	-0.000565468	  -10.8322	  -14.1367	
  -10.8084	-0.000579329	  -10.8035	-0.000556701	  -10.7878	-0.000568665	  -10.7999	-0.000568232	  -10.7999	  -14.2058	
  -10.7756	-0.000581998	  -10.7706	-0.000559487	  -10.7551	-0.00057135	  -10.7671	-0.000570945	  -10.7671	  -14.2736	
  -10.7424	-0.000584612	  -10.7371	-0.0005622	   -10.722	-0.000574018	  -10.7338	-0.00057361	  -10.7338	  -14.3402	
  -10.7089	-0.00058719	  -10.7033	-0.000564838	  -10.6885	-0.000576674	  -10.7003	-0.000576234	  -10.7003	  -14.4058	
  -10.6751	-0.000589749	  -10.6689	-0.000567407	  -10.6546	-0.000579322	  -10.6662	-0.000578826	  -10.6662	  -14.4706	
  -10.6409	-0.000592316	   -10.634	-0.000569929	  -10.6205	-0.000581955	  -10.6318	-0.0005814	  -10.6318	   -14.535	
  -10.6062	-0.000594894	  -10.5987	-0.000572425	  -10.5864	-0.000584559	  -10.5971	-0.000583959	  -10.5971	   -14.599	
  -10.5712	-0.000597492	  -10.5629	-0.000574921	  -10.5524	-0.000587128	  -10.5622	-0.000586514	  -10.5622	  -14.6628	
  -10.5358	-0.000600112	  -10.5269	-0.00057744	  -10.5182	-0.000589658	   -10.527	-0.00058907	   -10.527	  -14.7267	
  -10.4998	-0.00060273	  -10.4903	-0.000579994	  -10.4833	-0.000592148	  -10.4911	-0.000591624	  -10.4911	  -14.7906	
  -10.4633	-0.000605324	  -10.4534	-0.000582586	  -10.4481	-0.000594609	  -10.4549	-0.000594173	  -10.4549	  -14.8543	
  -10.4265	-0.000607882	   -10.416	-0.000585214	  -10.4126	-0.000597045	  -10.4183	-0.000596714	  -10.4183	  -14.9178	
  -10.3893	-0.000610384	  -10.3783	-0.000587858	  -10.3757	-0.000599466	  -10.3811	-0.000599236	  -10.3811	  -14.9809	
  -10.3515	-0.000612823	  -10.3401	-0.000590493	  -10.3383	-0.00060188	  -10.3433	-0.000601732	  -10.3433	  -15.0433	
  -10.3132	-0.000615196	  -10.3015	-0.000593084	  -10.3009	-0.000604282	  -10.3052	-0.000604188	  -10.3052	  -15.1047	
  -10.2744	-0.00061751	  -10.2627	-0.000595606	  -10.2625	-0.000606671	  -10.2665	-0.000606595	  -10.2665	  -15.1649	
  -10.2352	-0.000619779	  -10.2236	-0.000598037	  -10.2236	-0.000609039	  -10.2275	-0.000608952	  -10.2275	  -15.2238	
  -10.1955	-0.000622022	  -10.1839	-0.000600369	  -10.1846	-0.000611394	   -10.188	-0.000611262	   -10.188	  -15.2815	
  -10.1553	-0.000624253	  -10.1439	-0.000602604	  -10.1451	-0.000613724	  -10.1481	-0.000613527	  -10.1481	  -15.3382	
  -10.1149	-0.000626492	  -10.1037	-0.000604763	  -10.1051	-0.000616028	  -10.1079	-0.000615761	  -10.1079	   -15.394	
   -10.074	-0.000628736	   -10.063	-0.000606874	  -10.0651	-0.000618319	  -10.0674	-0.000617976	  -10.0674	  -15.4494	
  -10.0328	-0.000630987	  -10.0218	-0.000608974	  -10.0245	-0.000620607	  -10.0264	-0.000620189	  -10.0264	  -15.5047	
  -9.99119	-0.000633233	   -9.9803	-0.000611092	  -9.98251	-0.000622883	  -9.98467	-0.000622403	  -9.98467	  -15.5601	
  -9.94937	-0.000635453	  -9.93841	-0.000613251	  -9.94062	-0.000625155	   -9.9428	-0.00062462	   -9.9428	  -15.6155	
  -9.90708	-0.000637632	   -9.8961	-0.000615455	  -9.89829	-0.000627413	  -9.90049	-0.000626833	  -9.90049	  -15.6708	
  -9.86429	-0.000639756	  -9.85335	-0.000617702	  -9.85445	-0.000629649	  -9.85736	-0.000629036	  -9.85736	  -15.7259	
  -9.82118	-0.000641817	  -9.81033	-0.000619974	  -9.81105	-0.000631854	  -9.81419	-0.000631215	  -9.81419	  -15.7804	
  -9.77793	-0.00064382	  -9.76679	-0.000622239	   -9.7682	-0.000634034	  -9.77097	-0.000633364	  -9.77097	  -15.8341	
  -9.73426	-0.000645765	   -9.7227	-0.000624464	   -9.7241	-0.000636195	  -9.72702	-0.000635475	  -9.72702	  -15.8869	
  -9.69016	-0.000647672	  -9.67826	-0.000626626	  -9.67979	-0.000638314	  -9.68274	-0.000637537	  -9.68274	  -15.9384	
   -9.6458	-0.000649558	  -9.63365	-0.000628708	  -9.63612	-0.000640406	  -9.63852	-0.000639557	  -9.63852	  -15.9889	
  -9.60093	-0.000651444	   -9.5884	-0.000630707	  -9.59087	-0.000642469	   -9.5934	-0.00064154	   -9.5934	  -16.0385	
  -9.55554	-0.000653342	  -9.54272	-0.00063264	  -9.54517	-0.000644482	  -9.54781	-0.000643488	  -9.54781	  -16.0872	
  -9.50982	-0.000655253	  -9.49679	-0.000634529	  -9.50025	-0.000646459	  -9.50229	-0.000645414	  -9.50229	  -16.1353	
  -9.46374	-0.000657173	  -9.45036	-0.000636401	   -9.4539	-0.000648391	    -9.456	-0.000647321	    -9.456	   -16.183	
  -9.41707	-0.000659087	  -9.40343	-0.000638279	  -9.40638	-0.00065026	  -9.40896	-0.000649209	  -9.40896	  -16.2302	
     -9.37	-0.000660975	  -9.35619	-0.00064018	  -9.36004	-0.000652086	  -9.36208	-0.000651081	  -9.36208	   -16.277	
  -9.32274	-0.000662818	  -9.30867	-0.000642108	  -9.31316	-0.000653865	  -9.31486	-0.000652931	  -9.31486	  -16.3233	
  -9.27502	-0.0006646	  -9.26057	-0.000644056	  -9.26542	-0.000655615	  -9.26701	-0.000654757	  -9.26701	  -16.3689	
  -9.22685	-0.000666313	  -9.21211	-0.000646003	  -9.21789	-0.000657364	  -9.21895	-0.00065656	  -9.21895	   -16.414	
  -9.17841	-0.000667965	  -9.16347	-0.000647928	  -9.17008	-0.000659118	  -9.17065	-0.000658337	  -9.17065	  -16.4584	
  -9.12947	-0.000669569	  -9.11441	-0.000649808	  -9.12154	-0.00066089	  -9.12181	-0.000660089	  -9.12181	  -16.5022	
  -9.08024	-0.000671142	  -9.06493	-0.000651625	  -9.07312	-0.000662675	  -9.07276	-0.000661814	  -9.07276	  -16.5454	
  -9.03069	-0.000672703	  -9.01521	-0.000653375	  -9.02435	-0.000664453	  -9.02342	-0.00066351	  -9.02342	  -16.5878	
  -8.98102	-0.000674267	  -8.96504	-0.000655061	  -8.97437	-0.000666208	  -8.97348	-0.000665179	  -8.97348	  -16.6295	
  -8.93077	-0.00067584	   -8.9144	-0.000656698	  -8.92419	-0.000667907	  -8.92312	-0.000666815	  -8.92312	  -16.6704	
  -8.88016	-0.000677421	   -8.8635	-0.000658307	  -8.87387	-0.000669533	  -8.87251	-0.00066842	  -8.87251	  -16.7105	
  -8.82939	 -0.000679	  -8.81232	-0.000659907	  -8.82276	-0.000671083	  -8.82149	-0.000669997	  -8.82149	  -16.7499	
  -8.77801	-0.000680563	  -8.76106	-0.000661518	  -8.77151	-0.000672563	   -8.7702	-0.000671548	   -8.7702	  -16.7887	
  -8.72624	-0.000682097	  -8.70948	-0.000663121	  -8.72032	-0.000673996	  -8.71868	-0.000673071	  -8.71868	  -16.8268	
   -8.6743	-0.000683589	  -8.65755	-0.000664721	  -8.66829	-0.000675407	  -8.66671	-0.000674572	  -8.66671	  -16.8643	
  -8.62214	-0.000685036	  -8.60529	-0.000666322	  -8.61587	-0.000676822	  -8.61443	-0.00067606	  -8.61443	  -16.9015	
  -8.56956	-0.000686434	  -8.55266	-0.000667917	  -8.56349	-0.000678269	   -8.5619	-0.00067754	   -8.5619	  -16.9385	
  -8.51675	-0.000687792	  -8.49974	-0.000669501	  -8.51058	-0.000679749	  -8.50902	-0.000679014	  -8.50902	  -16.9754	
  -8.46328	-0.000689118	  -8.44624	-0.000671083	  -8.45705	-0.000681262	  -8.45552	-0.000680488	  -8.45552	  -17.0122	
   -8.4094	-0.000690424	  -8.39239	-0.000672662	  -8.40333	-0.000682787	   -8.4017	-0.000681958	   -8.4017	  -17.0489	
  -8.35509	-0.000691721	   -8.3384	-0.000674241	  -8.34899	-0.000684295	  -8.34749	-0.000683419	  -8.34749	  -17.0855	
  -8.30057	-0.000693013	  -8.28404	-0.000675807	  -8.29406	-0.000685764	  -8.29289	-0.000684862	  -8.29289	  -17.1215	
  -8.24564	-0.000694296	  -8.22932	-0.000677353	  -8.23877	-0.000687168	  -8.23791	-0.000686272	  -8.23791	  -17.1568	
   -8.1905	-0.000695568	  -8.17444	-0.000678866	  -8.18333	-0.000688495	  -8.18276	-0.000687643	  -8.18276	  -17.1911	
  -8.13515	-0.000696818	  -8.11919	-0.000680321	  -8.12732	-0.000689748	  -8.12722	-0.000688963	  -8.12722	  -17.2241	
  -8.07936	-0.000698039	  -8.06357	-0.000681701	  -8.07095	-0.000690942	   -8.0713	-0.000690228	   -8.0713	  -17.2557	
  -8.02337	-0.00069922	   -8.0078	-0.000682993	  -8.01446	-0.000692106	  -8.01521	-0.00069144	  -8.01521	   -17.286	
  -7.96737	-0.000700361	  -7.95144	-0.000684194	  -7.95741	-0.000693264	  -7.95874	-0.000692606	  -7.95874	  -17.3152	
  -7.91093	-0.000701458	  -7.89473	-0.000685322	  -7.90004	-0.000694434	   -7.9019	-0.000693738	   -7.9019	  -17.3435	
  -7.85426	-0.000702521	  -7.83768	-0.000686398	  -7.84256	-0.000695631	  -7.84483	-0.00069485	  -7.84483	  -17.3713	
  -7.79737	-0.000703559	  -7.78051	-0.00068746	  -7.78496	-0.000696853	  -7.78761	-0.000695957	  -7.78761	  -17.3989	
  -7.74004	-0.000704582	  -7.72299	-0.000688544	  -7.72704	-0.000698089	  -7.73002	-0.000697071	  -7.73002	  -17.4268	
  -7.68251	-0.000705597	  -7.66536	-0.000689672	    -7.669	-0.000699319	  -7.67229	-0.000698196	  -7.67229	  -17.4549	
  -7.62434	-0.000706608	  -7.60718	-0.000690861	  -7.61043	-0.000700521	  -7.61398	-0.00069933	  -7.61398	  -17.4833	
   -7.5658	-0.000707615	  -7.54869	-0.000692098	  -7.55156	-0.000701678	  -7.55535	-0.000700464	  -7.55535	  -17.5116	
  -7.50711	-0.000708607	  -7.49012	-0.000693358	  -7.49262	-0.000702771	  -7.49661	-0.000701579	  -7.49661	  -17.5395	
  -7.44784	-0.000709576	  -7.43124	-0.00069461	  -7.43338	-0.0007038	  -7.43749	-0.000702662	  -7.43749	  -17.5666	
  -7.38824	-0.000710513	  -7.37208	-0.000695817	  -7.37386	-0.00070477	  -7.37806	-0.0007037	  -7.37806	  -17.5925	
  -7.32853	-0.000711411	  -7.31263	-0.000696948	  -7.31428	-0.000705693	  -7.31848	-0.000704684	  -7.31848	  -17.6171	
  -7.26872	-0.00071227	  -7.25291	-0.000697984	  -7.25423	-0.00070659	  -7.25862	-0.000705615	  -7.25862	  -17.6404	
  -7.20859	-0.000713091	  -7.19293	-0.000698922	  -7.19392	-0.000707484	  -7.19848	-0.000706499	  -7.19848	  -17.6625	
  -7.14837	-0.000713881	  -7.13271	-0.000699782	  -7.13339	-0.000708389	  -7.13816	-0.000707351	  -7.13816	  -17.6838	
  -7.08764	-0.000714647	  -7.07205	-0.000700584	  -7.07242	-0.000709335	  -7.07737	-0.000708189	  -7.07737	  -17.7047	
  -7.02665	-0.000715402	  -7.01118	-0.000701351	  -7.01126	-0.000710308	  -7.01636	-0.00070902	  -7.01636	  -17.7255	
   -6.9654	-0.000716153	  -6.94991	-0.000702112	  -6.94972	-0.000711287	  -6.95501	-0.000709851	  -6.95501	  -17.7463	
  -6.90392	-0.000716903	  -6.88827	-0.00070289	  -6.88781	-0.000712244	  -6.89333	-0.000710679	  -6.89333	   -17.767	
  -6.84222	-0.000717647	  -6.82648	-0.000703697	  -6.82577	-0.000713143	  -6.83149	-0.000711496	  -6.83149	  -17.7874	
  -6.78031	-0.000718377	  -6.76457	-0.000704541	  -6.76362	-0.000713952	   -6.7695	-0.00071229	   -6.7695	  -17.8073	
    -6.718	-0.000719076	  -6.70233	-0.00070541	  -6.70115	-0.000714649	  -6.70716	-0.000713045	  -6.70716	  -17.8261	
  -6.65554	-0.000719727	  -6.63999	-0.000706273	  -6.63859	-0.000715228	   -6.6447	-0.000713743	   -6.6447	  -17.8436	
  -6.59271	-0.000720317	  -6.57713	-0.000707124	  -6.57553	-0.00071571	  -6.58179	-0.000714384	  -6.58179	  -17.8596	
  -6.52956	-0.000720838	  -6.51402	-0.000707935	  -6.51223	-0.000716121	   -6.5186	-0.000714964	   -6.5186	  -17.8741	
  -6.46611	-0.000721297	  -6.45089	-0.000708689	  -6.44891	-0.000716501	   -6.4553	-0.000715496	   -6.4553	  -17.8874	
  -6.40238	-0.000721711	  -6.38773	-0.000709378	  -6.38516	-0.000716898	  -6.39175	-0.000715995	  -6.39175	  -17.8999	
   -6.3384	-0.000722104	  -6.32434	-0.000709987	  -6.32122	-0.000717344	  -6.32799	-0.000716478	  -6.32799	   -17.912	
  -6.27441	-0.000722508	  -6.26095	-0.000710535	  -6.25712	-0.000717863	  -6.26416	-0.000716969	  -6.26416	  -17.9242	
  -6.21015	-0.000722948	   -6.1973	-0.000711041	  -6.19267	-0.00071845	  -6.20004	-0.00071748	  -6.20004	   -17.937	
   -6.1457	-0.000723434	  -6.13347	-0.000711512	   -6.1281	-0.000719081	  -6.13576	-0.000718009	  -6.13576	  -17.9502	
  -6.08108	-0.000723963	  -6.06926	-0.00071198	  -6.06302	-0.000719718	  -6.07112	-0.000718554	  -6.07112	  -17.9638	
   -6.0161	-0.000724501	  -6.00472	-0.000712458	  -5.99768	-0.000720309	  -6.00617	-0.000719089	  -6.00617	  -17.9772	
   -5.9508	-0.000725008	  -5.94008	-0.00071295	  -5.93233	-0.000720815	  -5.94107	-0.000719591	  -5.94107	  -17.9898	
  -5.88521	-0.000725453	  -5.87516	-0.000713465	  -5.86676	-0.000721204	  -5.87571	-0.000720041	  -5.87571	   -18.001	
  -5.81937	-0.000725783	  -5.80997	-0.000713982	    -5.801	-0.00072147	  -5.81011	-0.000720412	  -5.81011	  -18.0103	
  -5.75351	-0.000725985	  -5.74476	-0.000714488	  -5.73528	-0.00072163	  -5.74452	-0.000720701	  -5.74452	  -18.0175	
  -5.68723	-0.000726065	  -5.67912	-0.000714962	  -5.66935	-0.000721712	  -5.67857	-0.000720913	  -5.67857	  -18.0228	
  -5.62079	-0.00072604	  -5.61331	-0.000715369	  -5.60329	-0.000721762	  -5.61246	-0.000721057	  -5.61246	  -18.0264	
  -5.55399	-0.000725962	  -5.54713	-0.000715694	  -5.53692	-0.000721824	  -5.54602	-0.00072116	  -5.54602	   -18.029	
  -5.48689	-0.000725876	  -5.48064	-0.000715938	  -5.47026	-0.000721925	  -5.47927	-0.000721246	  -5.47927	  -18.0312	
  -5.41974	-0.000725823	  -5.41408	-0.000716125	  -5.40358	-0.000722083	  -5.41246	-0.000721344	  -5.41246	  -18.0336	
  -5.35233	-0.000725845	  -5.34704	-0.000716281	  -5.33645	-0.00072229	  -5.34527	-0.000721472	  -5.34527	  -18.0368	
  -5.28471	-0.00072594	   -5.2798	-0.00071643	  -5.26915	-0.000722526	  -5.27789	-0.000721632	  -5.27789	  -18.0408	
  -5.21691	-0.000726095	  -5.21238	-0.000716609	   -5.2017	-0.000722757	  -5.21033	-0.00072182	  -5.21033	  -18.0455	
  -5.14891	-0.000726271	   -5.1446	-0.000716824	  -5.13407	-0.000722945	  -5.14253	-0.000722013	  -5.14253	  -18.0503	
   -5.0808	-0.000726413	  -5.07672	-0.000717065	  -5.06636	-0.000723057	  -5.07463	-0.000722178	  -5.07463	  -18.0545	
  -5.01218	-0.000726482	  -5.00834	-0.000717321	  -4.99837	-0.000723073	   -5.0063	-0.000722292	   -5.0063	  -18.0573	
  -4.94354	-0.000726435	  -4.93974	-0.000717566	  -4.93014	-0.000722991	   -4.9378	-0.00072233	   -4.9378	  -18.0583	
  -4.87468	-0.000726253	  -4.87094	-0.000717768	  -4.86192	-0.000722826	  -4.86918	-0.000722282	  -4.86918	  -18.0571	
  -4.80543	-0.000725915	  -4.80179	-0.000717898	  -4.79352	-0.000722605	  -4.80025	-0.000722139	  -4.80025	  -18.0535	
  -4.73607	-0.000725449	  -4.73253	-0.000717935	  -4.72498	-0.000722365	  -4.73119	-0.000721916	  -4.73119	  -18.0479	
  -4.66635	-0.000724915	   -4.6631	-0.000717884	  -4.65637	-0.000722137	  -4.66194	-0.000721645	  -4.66194	  -18.0411	
  -4.59639	-0.000724359	  -4.59342	-0.000717764	  -4.58747	-0.00072194	  -4.59243	-0.000721354	  -4.59243	  -18.0339	
  -4.52622	-0.000723838	  -4.52354	-0.000717598	  -4.51851	-0.000721781	  -4.52276	-0.000721072	  -4.52276	  -18.0268	
  -4.45568	-0.000723425	   -4.4533	-0.000717389	  -4.44933	-0.000721652	  -4.45277	-0.000720822	  -4.45277	  -18.0206	
  -4.38441	-0.000723135	  -4.38294	-0.000717175	  -4.37995	-0.000721529	  -4.38243	-0.000720613	  -4.38243	  -18.0153	
  -4.31207	-0.000722955	  -4.31251	-0.00071697	  -4.31042	-0.000721384	  -4.31167	-0.000720436	  -4.31167	  -18.0109	
  -4.23983	-0.000722839	  -4.24183	-0.000716752	  -4.24057	-0.000721183	  -4.24074	-0.000720258	  -4.24074	  -18.0065	
  -4.16772	-0.000722728	  -4.17116	-0.000716524	  -4.17064	-0.000720904	  -4.16984	-0.000720052	  -4.16984	  -18.0013	
  -4.09439	-0.000722566	  -4.10026	-0.000716278	  -4.10057	-0.000720534	  -4.09841	-0.000719793	  -4.09841	  -17.9948	
  -4.02218	-0.000722274	  -4.02922	-0.00071597	  -4.03029	-0.000720078	  -4.02723	-0.000719441	  -4.02723	   -17.986	
  -3.95103	-0.000721801	   -3.9581	-0.000715608	  -3.96006	-0.000719553	  -3.95639	-0.000718988	  -3.95639	  -17.9747	
  -3.87857	-0.000721136	  -3.88671	-0.000715192	  -3.88947	-0.000718988	  -3.88491	-0.000718439	  -3.88491	   -17.961	
  -3.80599	-0.000720292	  -3.81531	-0.000714738	  -3.81878	-0.00071841	  -3.81336	-0.000717813	  -3.81336	  -17.9453	
  -3.73501	-0.000719322	  -3.74372	-0.000714255	  -3.74783	-0.000717844	  -3.74219	-0.00071714	  -3.74219	  -17.9285	
  -3.66406	-0.000718289	  -3.67199	-0.00071375	  -3.67666	-0.000717305	   -3.6709	-0.000716448	   -3.6709	  -17.9112	
  -3.59296	-0.000717274	  -3.60037	-0.000713227	  -3.60552	-0.000716795	  -3.59962	-0.000715765	  -3.59962	  -17.8941	
  -3.52248	-0.000716348	  -3.52846	-0.0007127	  -3.53403	-0.000716302	  -3.52832	-0.000715116	  -3.52832	  -17.8779	
  -3.45144	-0.000715545	  -3.45653	-0.000712153	  -3.46245	-0.000715804	   -3.4568	-0.000714501	   -3.4568	  -17.8625	
   -3.3797	-0.000714873	  -3.38418	-0.000711589	   -3.3904	-0.000715277	  -3.38476	-0.000713913	  -3.38476	  -17.8478	
  -3.30841	-0.000714301	   -3.3117	-0.000710986	  -3.31816	-0.000714696	  -3.31276	-0.000713328	  -3.31276	  -17.8332	
  -3.23692	-0.000713768	  -3.23912	-0.000710337	  -3.24598	-0.000714046	  -3.24068	-0.000712717	  -3.24068	  -17.8179	
  -3.16466	-0.000713205	  -3.16629	-0.000709641	  -3.17368	-0.000713321	  -3.16821	-0.000712056	  -3.16821	  -17.8014	
  -3.09234	-0.000712547	  -3.09345	-0.000708894	  -3.10131	-0.000712527	   -3.0957	-0.000711323	   -3.0957	  -17.7831	
  -3.01979	-0.000711748	  -3.02044	-0.000708097	   -3.0289	-0.000711678	  -3.02304	-0.000710508	  -3.02304	  -17.7627	
  -2.94659	-0.000710785	  -2.94731	-0.000707258	  -2.95627	-0.000710795	  -2.95006	-0.000709613	  -2.95006	  -17.7403	
  -2.87351	-0.000709665	  -2.87409	-0.000706381	  -2.88348	-0.0007099	  -2.87703	-0.000708649	  -2.87703	  -17.7162	
  -2.80058	-0.00070844	  -2.80063	-0.000705477	  -2.81057	-0.000709008	  -2.80393	-0.000707642	  -2.80393	   -17.691	
  -2.72698	-0.000707168	  -2.72718	-0.000704544	  -2.73759	-0.000708131	  -2.73058	-0.000706614	  -2.73058	  -17.6654	
  -2.65364	-0.000705908	  -2.65357	-0.000703586	  -2.66458	-0.000707267	  -2.65726	-0.000705587	  -2.65726	  -17.6397	
  -2.58057	-0.000704708	  -2.57986	-0.000702601	  -2.59136	-0.000706408	  -2.58393	-0.000704572	  -2.58393	  -17.6143	
  -2.50715	-0.000703595	  -2.50629	-0.000701588	   -2.5182	-0.000705535	  -2.51055	-0.000703573	  -2.51055	  -17.5893	
  -2.43367	-0.000702564	  -2.43268	-0.000700545	  -2.44491	-0.000704629	  -2.43709	-0.000702579	  -2.43709	  -17.5645	
  -2.36046	-0.000701584	  -2.35908	-0.000699467	  -2.37139	-0.000703673	  -2.36364	-0.000701575	  -2.36364	  -17.5394	
  -2.28704	-0.000700611	  -2.28529	-0.000698348	  -2.29785	-0.000702657	  -2.29006	-0.000700538	  -2.29006	  -17.5135	
  -2.21343	-0.000699482	  -2.21139	-0.00069725	  -2.22411	-0.000701639	  -2.21631	-0.000699457	  -2.21631	  -17.4864	
  -2.13992	-0.000698228	  -2.13762	-0.000696149	  -2.15023	-0.000700563	  -2.14259	-0.000698314	  -2.14259	  -17.4578	
  -2.06631	-0.00069686	  -2.06359	-0.000695046	  -2.07605	-0.000699422	  -2.06865	-0.000697109	  -2.06865	  -17.4277	
  -1.99223	-0.000695407	  -1.98936	-0.000693933	  -2.00183	-0.000698228	  -1.99448	-0.000695856	  -1.99448	  -17.3964	
  -1.91818	-0.000693909	  -1.91519	-0.000692797	  -1.92763	-0.000696994	  -1.92033	-0.000694567	  -1.92033	  -17.3642	
  -1.84399	-0.000692422	  -1.84092	-0.000691625	  -1.85326	-0.00069574	  -1.84605	-0.000693262	  -1.84605	  -17.3316	
