# User: ACHyster
# File name: C:/ACHYSTER/ACHyster SENS/SHAMS/CoFe2O4-1gl-water-32 Glycerol-Sens-07-03-2023/CoFe2O4-1gl-water-32 Glycerol- 10_100F- 12 kAm -Sens-07-03-20230004#1.txt
# Saved at: ma. mar. 7 16:03:13 2023
# Hyster Loop (3 iterations). Intensity: 12.0 kA/m; Tuned frequency: 50.0 kHz
# Units x axis: (kA/m)
# Units y axis: "Repeats y" & "Average y" (10^(-3)Am^2); "Mass avg y" (Am^2/kg)
# Magnetic mass: 4e-05 g
# Parameter      	Repeat   1	Repeat   2	Repeat   3	Average   	Sigma     
# H_C (kA/m)     	      10.8	      10.8	      10.8	      10.8	       0.0
# M_R (Am^2/kg)  	      24.4	      24.3	      24.1	      24.3	       0.1
# M_max (Am^2/kg)	      11.7	      11.7	      11.8	      11.7	       0.0
# Area (mJ/kg)   	    1143.5	    1138.4	    1132.3	    1138.1	       4.6
# SAR (W/g)      	      57.2	      56.9	      56.6	      56.9	       0.2
#Repeat 1 x	Repeat 1 y	Repeat 2 x	Repeat 2 y	Repeat 3 x	Repeat 3 y	Average x 	Average y 	Mass avg x 	Mass avg y 
  -1.67351	-0.00103082	  -1.67972	-0.0010237	  -1.68321	-0.00101711	  -1.67881	-0.00102388	  -1.67881	  -25.5969	
  -1.59827	-0.00102894	  -1.60491	-0.0010218	  -1.60836	-0.00101529	  -1.60385	-0.00102201	  -1.60385	  -25.5503	
   -1.5232	-0.00102701	  -1.53017	-0.00101984	  -1.53363	-0.00101338	    -1.529	-0.00102007	    -1.529	  -25.5018	
   -1.4481	-0.00102501	  -1.45534	-0.00101781	  -1.45868	-0.00101135	  -1.45404	-0.00101806	  -1.45404	  -25.4515	
  -1.37302	-0.00102296	  -1.38045	-0.00101576	  -1.38371	-0.00100925	  -1.37906	-0.00101599	  -1.37906	  -25.3997	
  -1.29795	-0.00102086	  -1.30565	-0.00101368	  -1.30871	-0.00100714	   -1.3041	-0.00101389	   -1.3041	  -25.3473	
  -1.22293	-0.00101872	  -1.23064	-0.0010116	  -1.23354	-0.00100505	  -1.22904	-0.00101179	  -1.22904	  -25.2948	
  -1.14805	-0.00101657	  -1.15562	-0.00100948	  -1.15839	-0.00100297	  -1.15402	-0.00100968	  -1.15402	  -25.2419	
  -1.07303	-0.00101439	  -1.08028	-0.00100731	  -1.08308	-0.00100086	   -1.0788	-0.00100752	   -1.0788	   -25.188	
 -0.998005	-0.00101218	  -1.00492	-0.00100507	  -1.00777	-0.000998665	  -1.00356	-0.00100531	  -1.00356	  -25.1327	
 -0.922916	-0.00100993	 -0.929643	-0.00100278	 -0.932718	-0.000996367	 -0.928426	-0.00100302	 -0.928426	  -25.0756	
 -0.847697	-0.0010076	 -0.854206	-0.00100046	 -0.857507	-0.000993991	 -0.853136	-0.00100069	 -0.853136	  -25.0171	
  -0.77263	-0.0010052	 -0.778895	-0.000998145	 -0.782417	-0.000991589	 -0.777981	-0.000998313	 -0.777981	  -24.9578	
 -0.697431	-0.00100274	 -0.703289	-0.000995801	 -0.707167	-0.000989205	 -0.702629	-0.000995917	 -0.702629	  -24.8979	
 -0.622243	-0.00100024	 -0.627686	-0.000993409	 -0.631902	-0.00098685	 -0.627277	-0.0009935	 -0.627277	  -24.8375	
 -0.547112	-0.000997724	 -0.552134	-0.000990945	 -0.556672	-0.000984495	 -0.551973	-0.000991055	 -0.551973	  -24.7764	
 -0.471849	-0.000995196	 -0.476445	-0.000988417	 -0.481425	-0.000982095	 -0.476573	-0.000988569	 -0.476573	  -24.7142	
   -0.3966	-0.000992649	 -0.400769	-0.000985852	 -0.406298	-0.000979607	 -0.401223	-0.000986036	 -0.401223	  -24.6509	
 -0.321263	-0.000990055	 -0.325004	-0.00098327	  -0.33087	-0.000977027	 -0.325712	-0.000983451	 -0.325712	  -24.5863	
 -0.245945	-0.000987397	 -0.249258	-0.000980675	 -0.255439	-0.000974378	 -0.250214	-0.000980816	 -0.250214	  -24.5204	
  -0.17078	-0.000984669	 -0.173534	-0.000978054	 -0.179871	-0.000971701	 -0.174729	-0.000978141	 -0.174729	  -24.4535	
-0.0954842	-0.000981881	-0.0976933	-0.000975386	 -0.104317	-0.000969032	-0.0991648	-0.000975433	-0.0991648	  -24.3858	
-0.0203397	-0.00097906	-0.0220208	-0.000972665	-0.0289089	-0.000966376	-0.0237564	-0.0009727	-0.0237564	  -24.3175	
 0.0549626	-0.000976224	 0.0537925	-0.000969888	  0.046546	-0.000963717	  0.051767	-0.000969943	  0.051767	  -24.2486	
  0.130251	-0.000973378	  0.129575	-0.000967066	     0.122	-0.000961014	  0.127275	-0.000967153	  0.127275	  -24.1788	
  0.205391	-0.000970504	  0.205326	-0.000964217	   0.19745	-0.000958232	  0.202722	-0.000964318	  0.202722	  -24.1079	
  0.280669	-0.000967575	  0.281185	-0.000961339	  0.273036	-0.000955366	  0.278297	-0.000961427	  0.278297	  -24.0357	
  0.355802	-0.000964583	   0.35687	-0.000958428	  0.348473	-0.000952423	  0.353715	-0.000958478	  0.353715	  -23.9619	
  0.431213	-0.000961536	  0.432666	-0.000955477	  0.424184	-0.000949447	  0.429354	-0.000955487	  0.429354	  -23.8872	
  0.506605	-0.000958464	  0.508428	-0.000952488	  0.499871	-0.000946463	  0.504968	-0.000952472	  0.504968	  -23.8118	
  0.581709	-0.000955389	  0.584054	-0.000949464	  0.575603	-0.000943493	  0.580455	-0.000949449	  0.580455	  -23.7362	
  0.656842	-0.000952317	  0.659679	-0.000946402	  0.651327	-0.000940518	  0.655949	-0.000946412	  0.655949	  -23.6603	
  0.731844	-0.000949211	  0.735143	-0.000943311	  0.726886	-0.000937499	  0.731291	-0.00094334	  0.731291	  -23.5835	
  0.806865	-0.000946032	  0.810732	-0.000940178	  0.802429	-0.00093441	  0.806675	-0.000940206	  0.806675	  -23.5052	
  0.881905	-0.000942756	  0.886299	-0.000936992	  0.877957	-0.000931231	  0.882053	-0.000936993	  0.882053	  -23.4248	
  0.956916	-0.000939416	  0.961685	-0.000933749	  0.953199	-0.000927979	  0.957267	-0.000933715	  0.957267	  -23.3429	
   1.03209	-0.000936039	    1.0372	-0.00093046	   1.02845	-0.000924689	   1.03258	-0.000930396	   1.03258	  -23.2599	
   1.10713	-0.00093267	   1.11257	-0.000927143	   1.10358	-0.000921391	   1.10776	-0.000927068	   1.10776	  -23.1767	
   1.18213	-0.000929305	   1.18787	-0.000923809	   1.17866	-0.000918103	   1.18289	-0.000923739	   1.18289	  -23.0935	
   1.25716	-0.000925909	   1.26317	-0.00092046	   1.25377	-0.000914814	   1.25803	-0.000920394	   1.25803	  -23.0099	
   1.33195	-0.000922445	    1.3382	-0.000917082	   1.32864	-0.000911489	   1.33293	-0.000917005	   1.33293	  -22.9251	
   1.40651	-0.000918859	    1.4134	-0.00091366	   1.40369	-0.000908089	   1.40787	-0.000913536	   1.40787	  -22.8384	
     1.481	-0.000915165	   1.48847	-0.000910179	   1.47864	-0.000904585	   1.48271	-0.000909976	   1.48271	  -22.7494	
   1.55528	-0.000911392	   1.56316	-0.000906646	   1.55357	-0.000900976	   1.55734	-0.000906338	   1.55734	  -22.6584	
   1.62966	-0.000907591	   1.63792	-0.00090307	   1.62855	-0.000897296	   1.63204	-0.000902652	   1.63204	  -22.5663	
   1.70401	-0.000903821	   1.71246	-0.000899476	    1.7033	-0.000893597	   1.70659	-0.000898965	   1.70659	  -22.4741	
   1.77859	-0.000900089	   1.78687	-0.000895874	   1.77791	-0.000889933	   1.78112	-0.000895299	   1.78112	  -22.3825	
   1.85313	-0.000896365	   1.86124	-0.000892257	   1.85247	-0.000886312	   1.85561	-0.000891645	   1.85561	  -22.2911	
   1.92776	-0.000892604	   1.93545	-0.000888603	   1.92671	-0.000882704	   1.92997	-0.00088797	   1.92997	  -22.1993	
   2.00222	-0.000888751	   2.00963	-0.000884898	   2.00108	-0.00087905	   2.00431	-0.000884233	   2.00431	  -22.1058	
   2.07651	-0.000884798	   2.08368	-0.000881132	   2.07529	-0.000875295	   2.07849	-0.000880408	   2.07849	  -22.0102	
   2.15061	-0.000880747	   2.15766	-0.000877307	   2.14943	-0.000871421	   2.15256	-0.000876491	   2.15256	  -21.9123	
   2.22472	-0.000876655	   2.23152	-0.000873447	   2.22358	-0.000867451	    2.2266	-0.000872518	    2.2266	  -21.8129	
   2.29884	-0.00087257	   2.30514	-0.000869565	   2.29746	-0.000863447	   2.30048	-0.000868527	   2.30048	  -21.7132	
   2.37312	-0.000868527	   2.37862	-0.000865674	   2.37135	-0.000859462	   2.37436	-0.000864554	   2.37436	  -21.6139	
   2.44727	-0.000864506	   2.45204	-0.000861758	   2.44515	-0.000855521	   2.44815	-0.000860595	   2.44815	  -21.5149	
   2.52145	-0.000860462	   2.52515	-0.000857803	   2.51859	-0.000851608	   2.52173	-0.000856624	   2.52173	  -21.4156	
   2.59566	-0.000856345	   2.59838	-0.000853797	   2.59213	-0.000847665	   2.59539	-0.000852602	   2.59539	  -21.3151	
   2.66962	-0.000852117	   2.67147	-0.000849739	    2.6655	-0.000843637	   2.66886	-0.000848498	   2.66886	  -21.2124	
   2.74344	-0.000847792	   2.74438	-0.000845638	   2.73854	-0.000839493	   2.74212	-0.000844308	   2.74212	  -21.1077	
   2.81719	-0.000843411	   2.81733	-0.000841502	   2.81161	-0.000835253	   2.81538	-0.000840056	   2.81538	  -21.0014	
   2.89076	-0.000839027	   2.89018	-0.000837337	   2.88456	-0.000830967	    2.8885	-0.000835777	    2.8885	  -20.8944	
    2.9641	-0.000834672	   2.96305	-0.000833142	   2.95769	-0.0008267	   2.96161	-0.000831505	   2.96161	  -20.7876	
    3.0373	-0.000830329	   3.03585	-0.000828933	   3.03072	-0.000822484	   3.03462	-0.000827248	   3.03462	  -20.6812	
   3.11024	-0.000825954	   3.10832	-0.000824726	   3.10352	-0.000818298	   3.10736	-0.000822992	   3.10736	  -20.5748	
   3.18323	-0.000821512	   3.18091	-0.000820505	   3.17641	-0.000814073	   3.18018	-0.000818697	   3.18018	  -20.4674	
   3.25601	-0.000816984	   3.25334	-0.000816235	    3.2491	-0.000809738	   3.25282	-0.000814319	   3.25282	   -20.358	
   3.32866	-0.000812388	    3.3256	-0.000811869	   3.32158	-0.000805261	   3.32528	-0.000809839	   3.32528	   -20.246	
   3.40128	-0.000807756	   3.39776	-0.000807382	   3.39407	-0.000800678	    3.3977	-0.000805272	    3.3977	  -20.1318	
   3.47374	-0.000803124	   3.46969	-0.000802781	    3.4663	-0.000796061	   3.46991	-0.000800655	   3.46991	  -20.0164	
     3.546	-0.000798506	   3.54134	-0.000798122	   3.53819	-0.000791483	   3.54184	-0.000796037	   3.54184	  -19.9009	
   3.61816	-0.000793885	   3.61297	-0.000793484	   3.61004	-0.000786968	   3.61372	-0.000791446	   3.61372	  -19.7861	
    3.6901	-0.000789232	   3.68434	-0.000788927	   3.68159	-0.000782475	   3.68534	-0.000786878	   3.68534	  -19.6719	
   3.76212	-0.000784515	   3.75587	-0.000784458	   3.75327	-0.000777938	   3.75709	-0.000782303	   3.75709	  -19.5576	
   3.83396	-0.000779731	   3.82731	-0.000780023	   3.82483	-0.000773298	    3.8287	-0.000777684	    3.8287	  -19.4421	
   3.90548	-0.000774899	   3.89852	-0.000775541	   3.89601	-0.000768548	       3.9	-0.000772996	       3.9	  -19.3249	
   3.97702	-0.00077005	   3.96968	-0.00077093	   3.96713	-0.000763729	   3.97128	-0.000768236	   3.97128	  -19.2059	
   4.04833	-0.000765204	   4.04068	-0.000766159	   4.03809	-0.000758893	   4.04237	-0.000763419	   4.04237	  -19.0855	
    4.1195	-0.000760357	   4.11146	-0.000761265	   4.10879	-0.000754091	   4.11325	-0.000758571	   4.11325	  -18.9643	
   4.19063	-0.000755485	   4.18217	-0.000756323	   4.17954	-0.000749315	   4.18411	-0.000753708	   4.18411	  -18.8427	
   4.26147	-0.000750564	   4.25267	-0.000751427	   4.25005	-0.000744537	   4.25473	-0.000748843	   4.25473	  -18.7211	
   4.33219	-0.000745578	   4.32286	-0.000746623	   4.32038	-0.000739711	   4.32514	-0.000743971	   4.32514	  -18.5993	
   4.40283	-0.000740532	   4.39307	-0.000741869	   4.39052	-0.000734806	   4.39547	-0.000739069	   4.39547	  -18.4767	
   4.47313	-0.00073545	   4.46304	-0.0007371	   4.46041	-0.000729828	   4.46552	-0.000734126	   4.46552	  -18.3532	
   4.54327	-0.000730356	   4.53307	-0.000732217	   4.53008	-0.000724807	   4.53548	-0.000729127	   4.53548	  -18.2282	
   4.61316	-0.000725263	   4.60305	-0.00072719	   4.59971	-0.000719779	   4.60531	-0.000724077	   4.60531	  -18.1019	
    4.6827	-0.000720164	   4.67273	-0.000722048	   4.66906	-0.000714763	   4.67483	-0.000718992	   4.67483	  -17.9748	
   4.75223	-0.000715035	   4.74211	-0.000716861	   4.73811	-0.00070974	   4.74415	-0.000713879	   4.74415	   -17.847	
   4.82161	-0.000709853	   4.81142	-0.000711719	   4.80712	-0.000704683	   4.81338	-0.000708752	   4.81338	  -17.7188	
   4.89062	-0.000704609	   4.88041	-0.000706654	   4.87582	-0.000699565	   4.88228	-0.000703609	   4.88228	  -17.5902	
   4.95954	-0.000699316	   4.94937	-0.000701642	   4.94433	-0.000694383	   4.95108	-0.000698447	   4.95108	  -17.4612	
   5.02818	-0.000694002	   5.01823	-0.000696605	   5.01278	-0.000689163	   5.01973	-0.000693257	   5.01973	  -17.3314	
   5.09672	-0.000688683	   5.08688	-0.000691461	   5.08104	-0.000683939	   5.08821	-0.000688028	   5.08821	  -17.2007	
   5.16518	-0.000683366	   5.15537	-0.000686175	   5.14917	-0.000678719	   5.15657	-0.000682753	   5.15657	  -17.0688	
   5.23346	-0.000678044	   5.22374	-0.000680777	    5.2172	-0.000673507	    5.2248	-0.000677442	    5.2248	  -16.9361	
   5.30133	-0.000672697	   5.29174	-0.000675339	   5.28489	-0.000668265	   5.29265	-0.000672101	   5.29265	  -16.8025	
   5.36898	-0.000667311	   5.35944	-0.000669945	    5.3523	-0.000662965	   5.36024	-0.000666741	   5.36024	  -16.6685	
   5.43647	-0.000661881	   5.42702	-0.000664622	   5.41962	-0.000657608	    5.4277	-0.00066137	    5.4277	  -16.5343	
   5.50372	-0.000656409	   5.49425	-0.000659334	   5.48661	-0.000652208	   5.49486	-0.000655984	   5.49486	  -16.3996	
    5.5707	-0.000650919	   5.56126	-0.000654005	    5.5534	-0.0006468	   5.56179	-0.000650575	   5.56179	  -16.2644	
   5.63752	-0.000645424	   5.62817	-0.000648563	   5.62011	-0.000641391	    5.6286	-0.000645126	    5.6286	  -16.1281	
   5.70409	-0.000639928	   5.69474	-0.000642985	    5.6865	-0.000635984	   5.69511	-0.000639632	   5.69511	  -15.9908	
   5.77057	-0.000634422	    5.7611	-0.000637307	   5.75287	-0.000630556	   5.76151	-0.000634095	   5.76151	  -15.8524	
   5.83689	-0.000628889	   5.82737	-0.000631615	   5.81915	-0.000625075	    5.8278	-0.000628526	    5.8278	  -15.7132	
   5.90283	-0.000623311	   5.89332	-0.000625989	   5.88511	-0.000619523	   5.89375	-0.000622941	   5.89375	  -15.5735	
   5.96859	-0.000617686	   5.95901	-0.000620449	   5.95067	-0.000613905	   5.95942	-0.000617347	   5.95942	  -15.4337	
   6.03422	-0.000612024	   6.02463	-0.00061495	   6.01619	-0.00060826	   6.02501	-0.000611744	   6.02501	  -15.2936	
    6.0995	-0.000606342	   6.08996	-0.00060939	   6.08142	-0.000602632	   6.09029	-0.000606121	   6.09029	   -15.153	
   6.16449	-0.000600649	   6.15492	-0.000603679	   6.14629	-0.000597034	   6.15523	-0.000600454	   6.15523	  -15.0113	
   6.22939	-0.000594945	    6.2197	-0.000597792	   6.21115	-0.000591452	   6.22008	-0.00059473	   6.22008	  -14.8682	
   6.29398	-0.000589223	   6.28424	-0.000591791	   6.27575	-0.000585845	   6.28465	-0.000588953	   6.28465	  -14.7238	
   6.35815	-0.000583467	   6.34831	-0.000585785	   6.33999	-0.00058017	   6.34882	-0.000583141	   6.34882	  -14.5785	
   6.42228	-0.000577661	   6.41214	-0.000579878	   6.40412	-0.000574413	   6.41285	-0.000577317	   6.41285	  -14.4329	
   6.48615	-0.000571791	   6.47579	-0.000574097	   6.46803	-0.000568589	   6.47666	-0.000571492	   6.47666	  -14.2873	
   6.54954	-0.000565861	    6.5392	-0.000568383	   6.53153	-0.000562745	   6.54009	-0.000565663	   6.54009	  -14.1416	
   6.61272	-0.000559902	   6.60236	-0.000562624	   6.59465	-0.000556919	   6.60324	-0.000559815	   6.60324	  -13.9954	
   6.67571	-0.00055396	   6.66524	-0.000556719	   6.65763	-0.000551115	   6.66619	-0.000553931	   6.66619	  -13.8483	
   6.73843	-0.000548053	   6.72779	-0.000550644	   6.72027	-0.000545311	   6.72883	-0.000548003	   6.72883	  -13.7001	
   6.80054	-0.000542178	    6.7898	-0.00054446	   6.78255	-0.000539461	   6.79096	-0.000542033	   6.79096	  -13.5508	
   6.86256	-0.000536307	   6.85167	-0.000538277	   6.84454	-0.000533543	   6.85292	-0.000536043	   6.85292	  -13.4011	
   6.92426	-0.000530393	   6.91331	-0.000532199	   6.90628	-0.000527562	   6.91461	-0.000530051	   6.91461	  -13.2513	
   6.98545	-0.000524397	   6.97463	-0.000526252	   6.96784	-0.000521556	   6.97597	-0.000524068	   6.97597	  -13.1017	
   7.04646	-0.000518302	   7.03566	-0.000520379	   7.02924	-0.000515552	   7.03712	-0.000518078	   7.03712	  -12.9519	
   7.10726	-0.000512129	   7.09641	-0.000514473	   7.09046	-0.000509563	   7.09805	-0.000512055	   7.09805	  -12.8014	
   7.16765	-0.000505932	   7.15682	-0.000508428	   7.15128	-0.000503583	   7.15858	-0.000505981	   7.15858	  -12.6495	
    7.2277	-0.00049976	   7.21682	-0.000502209	   7.21179	-0.000497581	   7.21877	-0.00049985	   7.21877	  -12.4962	
   7.28765	-0.000493642	   7.27679	-0.000495863	   7.27221	-0.000491535	   7.27888	-0.00049368	   7.27888	   -12.342	
   7.34729	-0.00048756	    7.3365	-0.000489491	   7.33233	-0.000485438	   7.33871	-0.000487496	   7.33871	  -12.1874	
   7.40656	-0.000481466	   7.39576	-0.000483212	   7.39195	-0.00047931	   7.39809	-0.000481329	   7.39809	  -12.0332	
    7.4657	-0.000475318	   7.45481	-0.000477079	   7.45118	-0.000473177	   7.45723	-0.000475191	   7.45723	  -11.8798	
   7.52462	-0.00046911	   7.51372	-0.000471076	   7.51024	-0.000467047	    7.5162	-0.000469078	    7.5162	  -11.7269	
   7.58315	-0.000462856	    7.5723	-0.000465099	   7.56894	-0.000460914	   7.57479	-0.000462956	   7.57479	  -11.5739	
   7.64137	-0.000456576	   7.63049	-0.000459019	    7.6275	-0.00045475	   7.63312	-0.000456782	   7.63312	  -11.4195	
   7.69951	-0.000450287	   7.68839	-0.000452746	   7.68558	-0.000448536	   7.69116	-0.000450523	   7.69116	  -11.2631	
   7.75736	-0.000443984	   7.74609	-0.000446288	   7.74343	-0.000442272	   7.74896	-0.000444181	   7.74896	  -11.1045	
   7.81475	-0.000437662	   7.80339	-0.000439744	   7.80086	-0.000435978	   7.80634	-0.000437794	   7.80634	  -10.9449	
   7.87218	-0.000431297	   7.86027	-0.000433247	   7.85797	-0.000429685	   7.86347	-0.00043141	   7.86347	  -10.7852	
   7.92918	-0.0004249	   7.91709	-0.000426897	   7.91498	-0.00042341	   7.92042	-0.000425069	   7.92042	  -10.6267	
     7.986	-0.000418482	   7.97366	-0.000420698	    7.9717	-0.000417137	   7.97712	-0.000418773	   7.97712	  -10.4693	
    8.0423	-0.00041207	   8.02978	-0.000414562	   8.02795	-0.000410838	   8.03334	-0.00041249	   8.03334	  -10.3123	
   8.09845	-0.000405676	   8.08558	-0.000408348	   8.08397	-0.000404499	   8.08933	-0.000406175	   8.08933	  -10.1544	
     8.154	-0.000399297	   8.14114	-0.000401972	   8.13985	-0.000398121	     8.145	-0.000399797	     8.145	  -9.99492	
   8.20938	-0.000392909	   8.19642	-0.000395435	   8.19541	-0.000391739	    8.2004	-0.000393361	    8.2004	  -9.83402	
   8.26434	-0.000386482	   8.25125	-0.000388843	   8.25047	-0.000385353	   8.25535	-0.000386893	   8.25535	  -9.67232	
   8.31915	-0.000380001	    8.3056	-0.00038232	   8.30515	-0.000378953	   8.30997	-0.000380425	   8.30997	  -9.51062	
   8.37362	-0.000373463	   8.35987	-0.000375939	   8.35955	-0.000372528	   8.36435	-0.000373977	   8.36435	  -9.34943	
   8.42774	-0.000366885	   8.41386	-0.000369682	   8.41363	-0.000366051	   8.41841	-0.000367539	   8.41841	  -9.18849	
   8.48143	-0.000360299	   8.46741	-0.000363438	   8.46724	-0.000359519	   8.47203	-0.000361085	   8.47203	  -9.02713	
   8.53498	-0.000353725	   8.52049	-0.000357076	   8.52048	-0.000352956	   8.52532	-0.000354586	   8.52532	  -8.86464	
   8.58821	-0.000347181	   8.57322	-0.000350531	   8.57347	-0.000346401	    8.5783	-0.000348038	    8.5783	  -8.70094	
   8.64109	-0.000340671	   8.62572	-0.000343839	   8.62618	-0.000339898	     8.631	-0.00034147	     8.631	  -8.53674	
   8.69345	-0.000334175	   8.67782	-0.000337112	   8.67855	-0.000333448	   8.68327	-0.000334911	   8.68327	  -8.37278	
   8.74556	-0.000327663	   8.72949	-0.000330472	   8.73031	-0.00032701	   8.73512	-0.000328382	   8.73512	  -8.20954	
   8.79725	-0.000321101	   8.78114	-0.00032398	   8.78187	-0.00032053	   8.78675	-0.000321871	   8.78675	  -8.04676	
   8.84865	-0.000314473	   8.83257	-0.0003176	   8.83319	-0.000313941	   8.83814	-0.000315338	   8.83814	  -7.88345	
   8.89958	-0.000307788	   8.88362	-0.000311237	   8.88411	-0.000307265	   8.88911	-0.000308763	   8.88911	  -7.71908	
   8.95006	-0.000301074	   8.93414	-0.000304782	   8.93448	-0.000300557	   8.93956	-0.000302138	   8.93956	  -7.55344	
   9.00019	-0.000294373	    8.9844	-0.000298185	   8.98443	-0.000293908	   8.98967	-0.000295489	   8.98967	  -7.38722	
   9.05011	-0.000287715	   9.03451	-0.000291466	   9.03424	-0.000287373	   9.03962	-0.000288851	   9.03962	  -7.22129	
   9.09965	-0.000281103	   9.08431	-0.000284708	   9.08373	-0.000280926	   9.08923	-0.000282246	   9.08923	  -7.05614	
    9.1488	-0.000274516	   9.13363	-0.000278007	   9.13275	-0.000274492	   9.13839	-0.000275672	   9.13839	   -6.8918	
   9.19755	-0.000267909	   9.18249	-0.000271418	   9.18144	-0.00026797	   9.18716	-0.000269099	   9.18716	  -6.72747	
   9.24617	-0.00026124	   9.23077	-0.000264917	   9.22988	-0.000261305	   9.23561	-0.000262487	   9.23561	  -6.56218	
   9.29439	-0.000254504	   9.27875	-0.00025843	    9.2781	-0.000254512	   9.28375	-0.000255815	   9.28375	  -6.39538	
   9.34217	-0.000247727	   9.32639	-0.000251869	   9.32594	-0.000247668	    9.3315	-0.000249088	    9.3315	  -6.22721	
   9.38938	-0.000240967	   9.37355	-0.000245185	   9.37326	-0.000240882	   9.37873	-0.000242344	   9.37873	  -6.05861	
   9.43624	-0.000234266	   9.42028	-0.0002384	    9.4201	-0.000234222	   9.42554	-0.000235629	   9.42554	  -5.89073	
   9.48272	-0.000227625	   9.46672	-0.000231586	   9.46673	-0.000227685	   9.47206	-0.000228965	   9.47206	  -5.72413	
   9.52892	 -0.000221	   9.51295	-0.000224826	   9.51312	-0.000221197	   9.51833	-0.000222341	   9.51833	  -5.55852	
   9.57469	-0.00021433	   9.55884	-0.000218163	   9.55911	-0.000214648	   9.56421	-0.000215713	   9.56421	  -5.39283	
    9.6199	-0.000207577	   9.60424	-0.000211572	   9.60458	-0.00020796	   9.60957	-0.000209036	   9.60957	   -5.2259	
   9.66478	-0.000200756	   9.64903	-0.000204984	   9.64952	-0.000201135	   9.65444	-0.000202292	   9.65444	   -5.0573	
   9.70954	-0.000193903	   9.69337	-0.000198324	    9.6941	-0.000194243	     9.699	-0.00019549	     9.699	  -4.88725	
   9.75401	-0.000187075	   9.73754	-0.000191553	   9.73847	-0.000187404	   9.74334	-0.000188677	   9.74334	  -4.71694	
   9.79807	-0.000180304	   9.78141	-0.000184693	   9.78248	-0.000180686	   9.78732	-0.000181894	   9.78732	  -4.54736	
   9.84159	-0.000173573	   9.82484	-0.000177811	   9.82601	-0.000174082	   9.83081	-0.000175156	   9.83081	  -4.37889	
   9.88459	-0.000166845	    9.8677	-0.000170982	   9.86894	-0.000167523	   9.87375	-0.00016845	   9.87375	  -4.21125	
   9.92725	-0.000160063	   9.91017	-0.000164238	   9.91143	-0.000160899	   9.91628	-0.000161733	   9.91628	  -4.04334	
   9.96969	-0.000153212	   9.95254	-0.000157557	   9.95379	-0.000154156	   9.95867	-0.000154975	   9.95867	  -3.87438	
   10.0118	-0.000146306	   9.99442	-0.000150878	   9.99587	-0.000147296	   10.0007	-0.00014816	   10.0007	  -3.70401	
   10.0534	-0.000139385	   10.0359	-0.000144139	   10.0375	-0.000140402	   10.0423	-0.000141309	   10.0423	  -3.53271	
   10.0945	-0.000132498	    10.077	-0.000137309	   10.0787	-0.00013356	   10.0834	-0.000134455	   10.0834	  -3.36139	
   10.1351	-0.000125665	   10.1175	-0.000130409	   10.1194	-0.000126824	    10.124	-0.000127633	    10.124	  -3.19082	
   10.1751	-0.000118874	   10.1573	-0.000123492	   10.1599	-0.000120166	   10.1641	-0.000120844	   10.1641	   -3.0211	
   10.2149	-0.000112083	    10.197	-0.00011662	   10.1999	-0.00011351	   10.2039	-0.000114071	   10.2039	  -2.85177	
   10.2544	-0.000105242	   10.2364	-0.000109828	   10.2397	-0.000106777	   10.2435	-0.000107282	   10.2435	  -2.68206	
   10.2935	-9.83244e-05	   10.2755	-0.000103095	    10.279	-9.99427e-05	   10.2827	-0.000100454	   10.2827	  -2.51135	
    10.332	-9.13357e-05	   10.3141	-9.6374e-05	   10.3179	-9.3049e-05	   10.3213	-9.35862e-05	   10.3213	  -2.33966	
   10.3699	-8.43177e-05	   10.3522	-8.96036e-05	   10.3561	-8.61799e-05	   10.3594	-8.67004e-05	   10.3594	  -2.16751	
   10.4072	-7.73339e-05	   10.3898	-8.27574e-05	   10.3938	-7.93987e-05	   10.3969	-7.983e-05	   10.3969	  -1.99575	
   10.4442	-7.04306e-05	   10.4271	-7.58584e-05	   10.4311	-7.27174e-05	   10.4341	-7.30022e-05	   10.4341	  -1.82505	
    10.481	-6.36124e-05	   10.4643	-6.8951e-05	   10.4683	-6.60808e-05	   10.4712	-6.62147e-05	   10.4712	  -1.65537	
   10.5174	-5.6831e-05	   10.5011	-6.20878e-05	   10.5051	-5.94047e-05	   10.5079	-5.94412e-05	   10.5079	  -1.48603	
   10.5534	-5.00241e-05	   10.5376	-5.52754e-05	   10.5415	-5.26275e-05	   10.5442	-5.26423e-05	   10.5442	  -1.31606	
   10.5889	-4.314e-05	   10.5736	-4.84996e-05	   10.5774	-4.57448e-05	   10.5799	-4.57948e-05	   10.5799	  -1.14487	
   10.6237	-3.61709e-05	    10.609	-4.17444e-05	   10.6127	-3.88184e-05	   10.6151	-3.89112e-05	   10.6151	  -0.97278	
   10.6581	-2.91554e-05	   10.6437	-3.49927e-05	   10.6476	-3.19292e-05	   10.6498	-3.20258e-05	   10.6498	 -0.800644	
   10.6923	-2.21457e-05	   10.6782	-2.82253e-05	    10.682	-2.51322e-05	   10.6842	-2.51677e-05	   10.6842	 -0.629193	
   10.7263	-1.51844e-05	   10.7124	-2.1431e-05	    10.716	-1.84253e-05	   10.7182	-1.83469e-05	   10.7182	 -0.458673	
   10.7599	-8.27524e-06	   10.7462	-1.46155e-05	   10.7498	-1.17495e-05	    10.752	-1.15467e-05	    10.752	 -0.288669	
   10.7932	-1.39178e-06	   10.7797	-7.791e-06	   10.7832	-5.03004e-06	   10.7854	-4.73761e-06	   10.7854	  -0.11844	
    10.826	5.48629e-06	   10.8127	-9.74011e-07	   10.8161	1.78132e-06	   10.8183	2.09787e-06	   10.8183	 0.0524466	
   10.8581	1.23653e-05	   10.8453	5.82978e-06	   10.8484	8.68107e-06	   10.8506	8.95872e-06	   10.8506	  0.223968	
   10.8903	1.92231e-05	   10.8773	1.25956e-05	   10.8801	1.56117e-05	   10.8826	1.58101e-05	   10.8826	  0.395254	
   10.9223	2.60376e-05	   10.9089	1.93449e-05	   10.9113	2.25079e-05	   10.9142	2.26301e-05	   10.9142	  0.565753	
   10.9542	3.28165e-05	   10.9401	2.60914e-05	   10.9422	2.93294e-05	   10.9455	2.94124e-05	   10.9455	  0.735311	
   10.9857	3.95985e-05	   10.9706	3.28765e-05	   10.9729	3.60825e-05	   10.9764	3.61858e-05	   10.9764	  0.904646	
   11.0164	4.64382e-05	   11.0008	3.97179e-05	   11.0032	4.28198e-05	   11.0068	4.2992e-05	   11.0068	    1.0748	
   11.0461	5.33601e-05	   11.0307	4.66003e-05	   11.0332	4.96027e-05	   11.0367	4.98543e-05	   11.0367	   1.24636	
   11.0748	6.03458e-05	   11.0602	5.34948e-05	   11.0628	5.64654e-05	   11.0659	5.67687e-05	   11.0659	   1.41922	
   11.1027	6.73305e-05	   11.0893	6.03437e-05	   11.0919	6.33989e-05	   11.0947	6.36911e-05	   11.0947	   1.59228	
     11.13	7.42412e-05	    11.118	6.71218e-05	   11.1205	7.03486e-05	   11.1228	7.05705e-05	   11.1228	   1.76426	
    11.157	8.10436e-05	    11.146	7.3854e-05	   11.1485	7.72701e-05	   11.1505	7.73892e-05	   11.1505	   1.93473	
    11.184	8.77533e-05	   11.1734	8.05872e-05	   11.1758	8.41333e-05	   11.1777	8.41579e-05	   11.1777	   2.10395	
    11.211	9.44419e-05	   11.2002	8.73715e-05	   11.2026	9.09544e-05	   11.2046	9.09226e-05	   11.2046	   2.27306	
   11.2379	0.000101192	   11.2266	9.42153e-05	   11.2291	9.7761e-05	   11.2312	9.77229e-05	   11.2312	   2.44307	
   11.2642	0.000108046	   11.2523	0.00010109	   11.2552	0.000104579	   11.2572	0.000104571	   11.2572	   2.61429	
   11.2902	0.00011498	   11.2778	0.000107949	    11.281	0.000111412	    11.283	0.000111447	    11.283	   2.78617	
   11.3156	0.00012193	   11.3029	0.000114756	   11.3065	0.000118245	   11.3084	0.00011831	   11.3084	   2.95776	
   11.3406	0.000128811	   11.3277	0.00012151	   11.3317	0.000125064	   11.3333	0.000125128	   11.3333	    3.1282	
   11.3652	0.000135583	   11.3521	0.000128237	   11.3566	0.000131875	    11.358	0.000131898	    11.358	   3.29745	
   11.3893	0.000142267	   11.3762	0.000134974	   11.3809	0.000138687	   11.3821	0.000138643	   11.3821	   3.46607	
    11.413	0.000148931	   11.3998	0.000141747	   11.4048	0.00014552	   11.4058	0.000145399	   11.4058	   3.63498	
    11.436	0.000155655	    11.423	0.000148552	   11.4281	0.000152376	    11.429	0.000152195	    11.429	   3.80487	
   11.4585	0.000162475	   11.4456	0.000155371	   11.4508	0.000159241	   11.4516	0.000159029	   11.4516	   3.97573	
   11.4804	0.000169366	   11.4676	0.00016217	   11.4729	0.000166088	   11.4737	0.000165875	   11.4737	   4.14687	
    11.502	0.000176261	   11.4891	0.000168934	   11.4944	0.000172884	   11.4952	0.000172693	   11.4952	   4.31733	
   11.5231	0.000183083	   11.5101	0.000175659	   11.5153	0.000179625	   11.5162	0.000179456	   11.5162	    4.4864	
   11.5437	0.000189798	   11.5304	0.00018236	   11.5358	0.000186331	   11.5366	0.000186163	   11.5366	   4.65408	
    11.564	0.000196427	   11.5503	0.000189066	   11.5556	0.00019304	   11.5566	0.000192844	   11.5566	    4.8211	
   11.5839	0.000203025	   11.5697	0.000195789	   11.5751	0.000199783	   11.5763	0.000199532	   11.5763	   4.98831	
   11.6036	0.000209667	   11.5888	0.000202533	   11.5943	0.000206565	   11.5956	0.000206255	   11.5956	   5.15638	
   11.6231	0.00021639	   11.6075	0.000209282	   11.6132	0.000213358	   11.6146	0.00021301	   11.6146	   5.32525	
   11.6423	0.000223173	    11.626	0.000216007	    11.632	0.000220123	   11.6334	0.000219768	   11.6334	   5.49419	
   11.6612	0.000229966	   11.6441	0.000222688	   11.6502	0.000226832	   11.6518	0.000226496	   11.6518	   5.66239	
   11.6797	0.000236697	    11.662	0.000229313	   11.6683	0.000233523	     11.67	0.000233178	     11.67	   5.82944	
   11.6978	0.000243322	   11.6796	0.000235902	    11.686	0.000240208	   11.6878	0.000239811	   11.6878	   5.99526	
   11.7155	0.000249848	    11.697	0.000242489	   11.7033	0.000246886	   11.7053	0.000246408	   11.7053	   6.16019	
   11.7327	0.000256326	    11.714	0.000249114	   11.7203	0.00025352	   11.7223	0.000252987	   11.7223	   6.32467	
   11.7495	0.000262828	   11.7306	0.000255788	   11.7373	0.000260084	   11.7391	0.000259567	   11.7391	   6.48917	
   11.7657	0.000269395	   11.7468	0.000262482	   11.7546	0.00026656	   11.7557	0.000266145	   11.7557	   6.65364	
   11.7815	0.000276017	   11.7626	0.000269148	   11.7715	0.000272949	   11.7719	0.000272705	   11.7719	   6.81761	
   11.7967	0.000282638	    11.778	0.00027574	   11.7884	0.000279315	   11.7877	0.000279231	   11.7877	   6.98078	
   11.8114	0.000289192	   11.7929	0.000282253	   11.8036	0.000285729	   11.8026	0.000285725	   11.8026	   7.14312	
   11.8255	0.000295653	   11.8073	0.000288726	   11.8186	0.000292239	   11.8172	0.000292206	   11.8172	   7.30514	
   11.8391	0.000302046	   11.8213	0.000295218	   11.8317	0.000298827	   11.8307	0.000298697	   11.8307	   7.46743	
   11.8521	0.00030842	   11.8347	0.00030175	   11.8444	0.000305419	   11.8437	0.000305197	   11.8437	   7.62992	
   11.8646	0.00031483	   11.8477	0.000308328	   11.8564	0.000311937	   11.8562	0.000311698	   11.8562	   7.79245	
   11.8765	0.000321286	   11.8601	0.000314902	    11.868	0.000318318	   11.8682	0.000318169	   11.8682	   7.95422	
   11.8879	0.000327753	    11.872	0.000321428	   11.8792	0.000324577	   11.8797	0.000324586	   11.8797	   8.11465	
   11.8987	0.000334184	   11.8834	0.000327871	     11.89	0.000330778	   11.8907	0.000330944	   11.8907	   8.27361	
    11.909	0.000340538	   11.8943	0.000334229	   11.9005	0.00033698	   11.9013	0.000337249	   11.9013	   8.43123	
   11.9188	0.000346816	   11.9047	0.000340542	   11.9104	0.000343253	   11.9113	0.000343537	   11.9113	   8.58843	
    11.928	0.00035305	   11.9146	0.000346865	   11.9199	 0.0003496	   11.9208	0.000349838	   11.9208	   8.74596	
   11.9368	0.000359277	    11.924	0.00035324	   11.9292	0.000356006	     11.93	0.000356174	     11.93	   8.90436	
   11.9451	0.000365525	    11.933	0.000359667	   11.9378	0.000362409	   11.9386	0.000362534	   11.9386	   9.06334	
   11.9527	0.000371782	   11.9414	0.000366102	   11.9458	0.000368741	   11.9466	0.000368875	   11.9466	   9.22188	
   11.9601	0.000378033	   11.9494	0.000372492	   11.9531	0.000374978	   11.9542	0.000375168	   11.9542	   9.37919	
   11.9666	0.000384261	   11.9569	0.000378816	   11.9601	0.00038112	   11.9612	0.000381399	   11.9612	   9.53498	
   11.9728	0.000390447	   11.9639	0.000385071	   11.9665	0.000387209	   11.9677	0.000387576	   11.9677	    9.6894	
   11.9781	0.000396593	   11.9705	0.000391288	   11.9726	0.000393306	   11.9737	0.000393729	   11.9737	   9.84322	
   11.9836	0.000402703	   11.9765	0.000397492	   11.9783	0.000399446	   11.9794	0.00039988	   11.9794	   9.99701	
   11.9876	0.000408798	   11.9821	0.000403712	   11.9836	0.000405634	   11.9844	0.000406048	   11.9844	   10.1512	
   11.9917	0.000414886	   11.9871	0.000409959	   11.9885	0.000411834	   11.9891	0.000412226	   11.9891	   10.3057	
   11.9947	0.000420978	   11.9918	0.000416208	    11.993	0.000418001	   11.9932	0.000418395	   11.9932	   10.4599	
   11.9978	0.000427069	    11.996	0.000422436	   11.9972	0.000424102	    11.997	0.000424535	    11.997	   10.6134	
        12	0.000433144	   11.9999	0.000428616	   12.0007	0.000430132	   12.0002	0.000430631	   12.0002	   10.7658	
   12.0021	0.000439195	   12.0033	0.000434744	   12.0037	0.000436125	    12.003	0.000436688	    12.003	   10.9172	
   12.0035	0.000445228	   12.0062	0.000440824	   12.0062	0.000442133	   12.0053	0.000442728	   12.0053	   11.0682	
   12.0049	0.000451243	   12.0084	0.000446884	   12.0083	0.000448189	   12.0072	0.000448772	   12.0072	   11.2193	
   12.0053	0.000457234	   12.0101	0.000452947	   12.0101	0.000454291	   12.0085	0.000454824	   12.0085	   11.3706	
   12.0056	0.000463199	   12.0112	0.000459038	   12.0112	0.000460393	   12.0093	0.000460876	   12.0093	   11.5219	
   12.0052	0.000469144	   12.0115	0.000465143	   12.0119	0.000466433	   12.0096	0.000466907	   12.0096	   11.6727	
   12.0047	0.000475075	   12.0113	0.00047123	   12.0119	0.000472384	   12.0093	0.000472896	   12.0093	   11.8224	
   12.0034	0.000480996	   12.0105	0.000477263	   12.0111	0.000478259	   12.0083	0.000478839	   12.0083	    11.971	
   12.0021	0.000486914	   12.0092	0.000483213	   12.0097	0.000484103	    12.007	0.000484743	    12.007	   12.1186	
   12.0001	0.00049282	   12.0073	0.000489105	   12.0077	0.00048997	    12.005	0.000490632	    12.005	   12.2658	
   11.9978	0.000498706	   12.0049	0.000494995	   12.0052	0.000495883	   12.0026	0.000496528	   12.0026	   12.4132	
   11.9951	0.000504561	    12.002	0.000500928	   12.0022	0.000501828	   11.9998	0.000502439	   11.9998	    12.561	
   11.9921	0.000510379	   11.9987	0.000506913	   11.9988	0.000507755	   11.9965	0.000508349	   11.9965	   12.7087	
   11.9887	0.000516165	   11.9951	0.000512911	    11.995	0.000513618	   11.9929	0.000514231	   11.9929	   12.8558	
    11.985	0.000521942	   11.9911	0.000518859	   11.9908	0.00051941	    11.989	0.00052007	    11.989	   13.0018	
   11.9808	0.000527725	   11.9869	0.000524712	   11.9863	0.000525156	   11.9847	0.000525864	   11.9847	   13.1466	
   11.9764	0.000533521	   11.9822	0.000530473	   11.9813	0.000530901	     11.98	0.000531632	     11.98	   13.2908	
   11.9716	0.000539317	   11.9771	0.000536178	    11.976	0.000536672	   11.9749	0.000537389	   11.9749	   13.4347	
   11.9664	0.000545091	   11.9711	0.00054189	     11.97	0.000542464	   11.9692	0.000543148	   11.9692	   13.5787	
   11.9608	0.00055081	   11.9645	0.000547626	   11.9636	0.000548238	    11.963	0.000548891	    11.963	   13.7223	
   11.9547	0.000556463	   11.9573	0.000553387	   11.9566	0.000553951	   11.9562	 0.0005546	   11.9562	    13.865	
    11.948	0.000562069	   11.9496	0.000559133	   11.9489	0.000559584	   11.9488	0.000560262	   11.9488	   14.0065	
   11.9407	0.000567659	   11.9414	0.000564814	   11.9408	0.000565145	    11.941	0.000565873	    11.941	   14.1468	
    11.933	0.000573269	   11.9327	0.000570419	   11.9322	0.00057068	   11.9326	0.000571456	   11.9326	   14.2864	
   11.9248	0.000578893	   11.9237	0.000575956	   11.9232	0.000576215	   11.9239	0.000577022	   11.9239	   14.4255	
    11.916	0.000584516	   11.9145	0.000581462	   11.9137	0.000581762	   11.9148	0.00058258	   11.9148	   14.5645	
    11.907	0.000590098	   11.9047	0.000586962	   11.9039	0.000587314	   11.9052	0.000588125	   11.9052	   14.7031	
   11.8977	0.000595622	   11.8946	0.000592467	   11.8938	0.000592856	   11.8954	0.000593648	   11.8954	   14.8412	
    11.888	0.000601086	   11.8841	0.000597974	   11.8833	0.000598372	   11.8851	0.000599144	   11.8851	   14.9786	
   11.8775	0.000606506	   11.8729	0.000603455	   11.8721	0.000603845	   11.8742	0.000604602	   11.8742	   15.1151	
   11.8665	0.000611919	   11.8611	0.000608891	   11.8604	0.000609267	   11.8627	0.000610026	   11.8627	   15.2506	
   11.8549	0.000617351	   11.8488	0.000614279	   11.8482	0.000614639	   11.8506	0.000615423	   11.8506	   15.3856	
   11.8427	0.000622804	   11.8361	0.000619617	   11.8355	0.000619974	   11.8381	0.000620798	   11.8381	     15.52	
   11.8301	0.000628322	   11.8229	0.000624922	   11.8225	0.000625309	   11.8252	0.000626184	   11.8252	   15.6546	
   11.8172	0.00063383	   11.8094	0.000630215	   11.8092	0.000630642	    11.812	0.000631562	    11.812	   15.7891	
   11.8039	0.000639278	   11.7958	0.000635504	   11.7955	0.000635978	   11.7984	0.00063692	   11.7984	    15.923	
   11.7902	 0.0006446	   11.7818	0.000640793	   11.7815	0.000641289	   11.7845	0.000642227	   11.7845	   16.0557	
    11.777	0.000649791	    11.767	0.000646063	   11.7668	0.000646555	   11.7703	0.00064747	   11.7703	   16.1867	
   11.7636	0.000654899	   11.7517	0.000651298	   11.7517	0.000651764	   11.7556	0.000652654	   11.7556	   16.3163	
   11.7497	0.000659978	   11.7358	0.000656476	    11.736	0.000656918	   11.7405	0.000657791	   11.7405	   16.4448	
   11.7353	0.000665128	   11.7196	0.000661598	   11.7199	0.00066205	   11.7249	0.000662926	   11.7249	   16.5731	
   11.7199	0.000670394	   11.7029	0.000666678	   11.7035	0.000667177	   11.7088	0.000668083	   11.7088	   16.7021	
   11.7037	0.000675753	   11.6861	0.000671736	   11.6868	0.000672287	   11.6922	0.000673258	   11.6922	   16.8315	
   11.6857	0.000681129	    11.669	0.00067677	   11.6696	0.000677348	   11.6748	0.000678416	   11.6748	   16.9604	
    11.667	0.000686409	   11.6511	0.000681776	   11.6518	0.000682343	   11.6566	0.000683509	   11.6566	   17.0877	
    11.648	0.000691535	   11.6327	0.000686749	   11.6334	0.000687289	    11.638	0.000688525	    11.638	   17.2131	
   11.6286	0.000696505	   11.6137	0.000691702	   11.6145	0.000692236	   11.6189	0.000693481	   11.6189	    17.337	
   11.6088	0.000701408	   11.5944	0.000696669	   11.5951	0.000697225	   11.5995	0.000698434	   11.5995	   17.4609	
   11.5888	0.000706353	   11.5749	0.000701671	   11.5755	0.000702272	   11.5797	0.000703432	   11.5797	   17.5858	
   11.5687	 0.0007114	    11.555	0.000706696	   11.5556	0.000707325	   11.5598	0.000708473	   11.5598	   17.7118	
    11.548	0.000716532	   11.5344	0.000711693	   11.5354	0.000712298	   11.5393	0.000713508	   11.5393	   17.8377	
    11.527	0.000721664	   11.5132	 0.0007166	   11.5145	0.000717127	   11.5182	0.000718464	   11.5182	   17.9616	
   11.5053	0.000726696	   11.4915	0.000721378	   11.4931	0.000721806	   11.4966	0.000723293	   11.4966	   18.0823	
   11.4832	0.000731587	   11.4694	0.000726042	   11.4713	0.000726405	   11.4746	0.000728011	   11.4746	   18.2003	
   11.4604	0.000736353	   11.4469	0.000730656	   11.4491	0.000731006	   11.4522	0.000732672	   11.4522	   18.3168	
   11.4371	0.000741086	   11.4238	0.000735299	   11.4266	0.000735687	   11.4292	0.000737357	   11.4292	   18.4339	
   11.4133	0.000745859	   11.4002	0.000740017	   11.4034	0.000740459	   11.4057	0.000742112	   11.4057	   18.5528	
    11.389	0.000750695	   11.3761	0.000744803	   11.3796	0.000745261	   11.3815	0.00074692	   11.3815	    18.673	
   11.3641	0.000755576	   11.3515	0.000749594	   11.3553	0.000750008	    11.357	0.000751726	    11.357	   18.7931	
    11.339	0.000760434	   11.3266	 0.0007543	   11.3306	0.000754622	   11.3321	0.000756452	   11.3321	   18.9113	
   11.3133	0.000765221	   11.3015	0.000758871	   11.3056	0.000759087	   11.3068	0.00076106	   11.3068	   19.0265	
   11.2875	0.000769923	   11.2758	0.000763312	     11.28	0.000763456	   11.2811	0.000765563	   11.2811	   19.1391	
   11.2609	0.000774555	   11.2495	0.000767687	   11.2539	0.000767809	   11.2548	0.000770017	   11.2548	   19.2504	
   11.2341	0.000779156	   11.2228	0.00077208	   11.2273	0.00077223	   11.2281	0.000774489	   11.2281	   19.3622	
   11.2068	0.00078374	   11.1957	0.00077654	   11.2003	0.000776734	   11.2009	0.000779004	   11.2009	   19.4751	
   11.1793	0.000788305	   11.1683	0.000781047	    11.173	0.000781272	   11.1736	0.000783541	   11.1736	   19.5885	
   11.1515	0.000792838	   11.1404	0.000785528	   11.1455	0.000785766	   11.1458	0.000788044	   11.1458	   19.7011	
   11.1231	0.000797326	   11.1119	0.000789914	   11.1174	0.000790138	   11.1175	0.000792459	   11.1175	   19.8115	
   11.0941	0.000801787	   11.0829	0.000794178	   11.0888	0.000794374	   11.0886	0.00079678	   11.0886	   19.9195	
   11.0647	0.000806237	   11.0536	0.00079836	   11.0598	0.000798519	   11.0594	0.000801039	   11.0594	    20.026	
   11.0348	0.000810697	    11.024	0.000802533	   11.0306	0.000802652	   11.0298	0.000805294	   11.0298	   20.1324	
   11.0042	0.000815151	   10.9938	0.000806768	    11.001	0.000806844	   10.9997	0.000809587	   10.9997	   20.2397	
    10.973	0.000819549	   10.9632	0.000811081	   10.9709	0.000811109	    10.969	0.000813913	    10.969	   20.3478	
   10.9415	0.000823861	   10.9321	0.000815422	   10.9402	0.000815403	    10.938	0.000818229	    10.938	   20.4557	
   10.9098	0.000828089	   10.9008	0.000819711	   10.9092	0.000819653	   10.9066	0.000822484	   10.9066	   20.5621	
    10.878	0.000832253	   10.8693	0.000823872	   10.8778	0.000823794	    10.875	0.00082664	    10.875	    20.666	
   10.8456	0.00083642	   10.8373	0.000827887	   10.8461	0.000827807	    10.843	0.000830705	    10.843	   20.7676	
   10.8128	0.000840601	   10.8048	0.000831792	   10.8137	0.000831733	   10.8105	0.000834709	   10.8105	   20.8677	
   10.7793	0.000844797	    10.772	0.00083566	   10.7809	0.000835642	   10.7774	 0.0008387	   10.7774	   20.9675	
   10.7462	0.000848942	   10.7387	0.000839556	   10.7478	0.000839597	   10.7442	0.000842698	   10.7442	   21.0675	
   10.7124	0.000852986	   10.7051	0.000843514	   10.7144	0.00084362	   10.7106	0.000846706	   10.7106	   21.1677	
   10.6785	0.000856935	   10.6709	0.000847515	   10.6803	0.000847673	   10.6766	0.000850708	   10.6766	   21.2677	
   10.6443	0.000860794	   10.6363	0.000851512	    10.646	0.000851689	   10.6422	0.000854665	   10.6422	   21.3666	
   10.6101	0.000864604	   10.6015	0.00085545	   10.6112	 0.0008556	   10.6076	0.000858551	   10.6076	   21.4638	
    10.575	0.000868407	   10.5663	0.000859293	   10.5763	0.000859379	   10.5726	0.00086236	   10.5726	    21.559	
   10.5391	0.000872213	   10.5306	0.000863043	   10.5408	0.000863056	   10.5368	0.000866104	   10.5368	   21.6526	
   10.5031	0.000876037	   10.4943	0.000866735	   10.5047	0.000866711	   10.5007	0.000869828	   10.5007	   21.7457	
   10.4662	0.00087985	   10.4578	0.000870416	   10.4683	0.000870418	   10.4641	0.000873561	   10.4641	    21.839	
   10.4291	0.000883621	   10.4209	0.000874115	   10.4314	0.000874196	   10.4271	0.000877311	   10.4271	   21.9328	
   10.3914	0.000887329	   10.3834	0.000877828	   10.3943	0.000878011	   10.3897	0.000881056	   10.3897	   22.0264	
   10.3533	0.000890952	   10.3455	0.000881531	   10.3566	0.000881769	   10.3518	0.000884751	   10.3518	   22.1188	
   10.3147	0.000894506	   10.3073	0.000885187	   10.3186	0.000885408	   10.3135	0.000888367	   10.3135	   22.2092	
   10.2757	  0.000898	   10.2687	0.000888774	   10.2803	0.000888914	   10.2749	0.000891896	   10.2749	   22.2974	
   10.2363	0.000901462	   10.2296	0.000892296	   10.2414	0.000892333	   10.2358	0.000895364	   10.2358	   22.3841	
   10.1965	0.000904914	   10.1901	0.000895772	    10.202	0.000895755	   10.1962	0.000898814	   10.1962	   22.4703	
   10.1563	0.000908362	   10.1502	0.000899233	   10.1622	0.000899241	   10.1563	0.000902279	   10.1563	    22.557	
   10.1158	 0.0009118	   10.1101	 0.0009027	   10.1219	0.000902798	   10.1159	0.000905766	   10.1159	   22.6441	
   10.0746	0.000915207	   10.0693	0.00090617	    10.081	0.00090637	    10.075	0.000909249	    10.075	   22.7312	
   10.0331	0.000918563	    10.028	0.000909628	   10.0397	0.000909882	   10.0336	0.000912691	   10.0336	   22.8173	
   9.99123	0.000921855	   9.98657	0.00091304	   9.99805	0.00091328	   9.99195	0.000916058	   9.99195	   22.9015	
   9.94898	0.000925091	   9.94482	0.000916389	   9.95583	0.00091656	   9.94988	0.000919347	   9.94988	   22.9837	
   9.90617	0.000928285	   9.90249	0.00091968	   9.91315	0.00091977	   9.90727	0.000922579	   9.90727	   23.0645	
     9.863	0.000931454	    9.8598	0.000922945	   9.87007	0.000922982	   9.86429	0.000925794	   9.86429	   23.1448	
   9.81965	0.000934607	   9.81692	0.000926215	   9.82677	0.00092624	   9.82111	0.000929021	   9.82111	   23.2255	
   9.77595	0.000937732	   9.77335	0.000929492	   9.78297	0.000929545	   9.77742	0.000932257	   9.77742	   23.3064	
   9.73175	0.000940819	    9.7293	0.000932743	   9.73865	0.000932827	   9.73323	0.000935463	   9.73323	   23.3866	
   9.68726	0.000943857	    9.6851	0.000935916	   9.69388	0.000936028	   9.68875	 0.0009386	   9.68875	    23.465	
   9.64265	0.000946844	   9.64079	0.000938966	   9.64882	0.000939132	   9.64409	0.000941647	   9.64409	   23.5412	
   9.59765	0.000949793	   9.59655	0.000941903	   9.60325	0.000942178	   9.59915	0.000944625	   9.59915	   23.6156	
   9.55221	0.000952711	   9.55198	0.000944789	   9.55688	0.000945223	   9.55369	0.000947574	   9.55369	   23.6894	
   9.50656	0.000955605	   9.50699	0.000947712	   9.50965	0.000948298	   9.50773	0.000950538	   9.50773	   23.7635	
   9.46069	0.000958475	   9.46091	0.000950728	   9.46233	0.000951397	   9.46131	0.000953533	   9.46131	   23.8383	
   9.41428	0.000961314	   9.41398	0.000953827	    9.4147	0.000954479	   9.41432	0.00095654	   9.41432	   23.9135	
   9.36755	0.000964112	   9.36611	0.000956931	   9.36738	0.000957515	   9.36701	0.000959519	   9.36701	    23.988	
   9.32055	0.000966869	   9.31783	0.000959937	    9.3193	0.000960478	   9.31923	0.000962428	   9.31923	   24.0607	
   9.27311	0.000969595	   9.26907	0.000962774	   9.27137	0.000963318	   9.27118	0.000965229	   9.27118	   24.1307	
   9.22525	0.000972315	   9.22027	0.000965446	   9.22296	0.000966047	   9.22283	0.000967936	   9.22283	   24.1984	
    9.1772	0.000975019	    9.1714	0.000968057	   9.17413	0.000968687	   9.17424	0.000970588	   9.17424	   24.2647	
   9.12886	0.000977683	   9.12263	0.000970691	   9.12549	0.000971268	   9.12566	0.000973214	   9.12566	   24.3304	
   9.08003	0.000980279	   9.07344	0.000973411	   9.07623	0.000973835	   9.07657	0.000975841	   9.07657	    24.396	
   9.03092	0.000982801	   9.02383	0.000976181	    9.0273	0.000976415	   9.02735	0.000978466	   9.02735	   24.4616	
   8.98161	0.000985262	   8.97355	0.000978911	   8.97679	0.000979038	   8.97732	0.000981071	   8.97732	   24.5268	
   8.93173	0.000987694	   8.92285	0.000981519	   8.92678	0.00098166	   8.92712	0.000983624	   8.92712	   24.5906	
   8.88152	0.000990122	   8.87194	0.000983961	   8.87511	0.000984252	   8.87619	0.000986112	   8.87619	   24.6528	
   8.83096	0.000992561	    8.8209	0.000986289	   8.82368	0.000986751	   8.82518	0.000988534	   8.82518	   24.7133	
   8.77994	0.000994994	   8.76938	0.000988592	   8.77107	0.000989142	   8.77346	0.000990909	   8.77346	   24.7727	
   8.72856	0.000997389	   8.71759	0.000990931	   8.71935	0.000991445	   8.72183	0.000993255	   8.72183	   24.8314	
   8.67703	0.000999731	   8.66575	0.000993344	   8.66582	0.000993714	   8.66953	0.000995597	   8.66953	   24.8899	
   8.62498	0.00100202	   8.61347	0.000995785	   8.61267	0.000995996	   8.61704	0.000997932	   8.61704	   24.9483	
   8.57253	0.00100427	   8.56088	0.000998186	   8.55883	0.000998298	   8.56408	0.00100025	   8.56408	   25.0063	
    8.5199	0.00100651	   8.50791	0.00100049	   8.50498	0.00100058	   8.51093	0.00100253	   8.51093	   25.0632	
   8.46661	0.00100876	   8.45473	0.00100269	   8.45028	 0.0010028	   8.45721	0.00100475	   8.45721	   25.1187	
   8.41292	0.00101099	   8.40119	0.00100483	   8.39592	0.00100492	   8.40334	0.00100691	   8.40334	   25.1728	
   8.35905	0.00101318	   8.34739	0.00100694	   8.34082	0.00100695	   8.34909	0.00100902	   8.34909	   25.2256	
   8.30467	0.00101531	   8.29313	0.00100905	   8.28564	0.00100893	   8.29448	 0.0010111	   8.29448	   25.2775	
   8.24988	0.00101737	   8.23852	0.00101114	   8.22984	0.00101091	   8.23941	0.00101314	   8.23941	   25.3285	
   8.19491	0.00101938	   8.18378	0.00101316	   8.17402	0.00101289	   8.18424	0.00101515	   8.18424	   25.3786	
   8.13957	0.00102137	    8.1287	0.00101509	   8.11783	0.00101486	    8.1287	0.00101711	    8.1287	   25.4277	
   8.08382	0.00102336	   8.07326	0.00101693	   8.06165	0.00101678	   8.07291	0.00101902	   8.07291	   25.4755	
    8.0279	0.00102533	   8.01768	 0.0010187	    8.0054	0.00101862	   8.01699	0.00102089	   8.01699	   25.5222	
   7.97167	0.00102729	   7.96182	0.00102046	   7.94907	0.00102039	   7.96086	0.00102271	   7.96086	   25.5678	
   7.91504	0.00102919	   7.90558	0.00102223	   7.89242	0.00102209	   7.90435	 0.0010245	   7.90435	   25.6125	
   7.85823	0.00103102	   7.84919	0.00102402	   7.83567	0.00102374	    7.8477	0.00102626	    7.8477	   25.6564	
    7.8013	0.00103278	   7.79236	0.00102579	   7.77836	0.00102536	   7.79067	0.00102798	   7.79067	   25.6994	
   7.74395	0.00103448	   7.73515	 0.0010275	   7.72086	0.00102698	   7.73332	0.00102965	   7.73332	   25.7413	
   7.68628	0.00103615	   7.67781	0.00102909	   7.66313	0.00102858	   7.67574	0.00103127	   7.67574	   25.7817	
   7.62813	0.00103781	   7.62001	0.00103057	   7.60527	0.00103015	   7.61781	0.00103284	   7.61781	    25.821	
   7.56961	0.00103947	   7.56186	0.00103198	    7.5471	0.00103166	   7.55952	0.00103437	   7.55952	   25.8592	
   7.51085	0.00104111	   7.50337	0.00103337	   7.48884	0.00103311	   7.50102	0.00103586	   7.50102	   25.8966	
   7.45165	0.00104271	   7.44434	 0.0010348	   7.43018	0.00103449	   7.44206	0.00103733	   7.44206	   25.9333	
   7.39213	0.00104424	   7.38501	0.00103627	   7.37122	0.00103582	   7.38279	0.00103878	   7.38279	   25.9694	
   7.33252	0.00104569	   7.32564	 0.0010378	   7.31203	0.00103714	    7.3234	0.00104021	    7.3234	   26.0053	
   7.27261	0.00104708	   7.26586	0.00103932	   7.25233	0.00103845	    7.2636	0.00104162	    7.2636	   26.0404	
   7.21225	0.00104843	   7.20582	0.00104074	   7.19239	0.00103974	   7.20349	0.00104297	   7.20349	   26.0743	
   7.15158	0.00104977	   7.14562	  0.001042	    7.1323	0.00104097	   7.14317	0.00104425	   7.14317	   26.1062	
   7.09043	0.00105111	   7.08648	 0.0010431	   7.07174	0.00104214	   7.08289	0.00104545	   7.08289	   26.1362	
   7.02907	0.00105243	   7.02699	0.00104411	   7.01098	0.00104325	   7.02235	0.00104659	   7.02235	   26.1649	
   6.96773	0.00105371	   6.96834	0.00104513	   6.94998	0.00104434	   6.96202	0.00104773	   6.96202	   26.1932	
   6.90595	0.00105492	   6.90768	0.00104626	   6.88857	0.00104546	   6.90073	0.00104888	   6.90073	    26.222	
   6.84399	0.00105605	   6.84745	0.00104752	   6.82701	 0.0010466	   6.83948	0.00105006	   6.83948	   26.2515	
   6.78164	 0.0010571	   6.78577	0.00104886	    6.7653	0.00104774	   6.77757	0.00105123	   6.77757	   26.2808	
   6.71893	0.00105808	   6.72369	0.00105016	   6.70324	0.00104882	   6.71528	0.00105235	   6.71528	   26.3088	
   6.65584	0.00105902	   6.66049	0.00105131	   6.64106	0.00104978	   6.65247	0.00105337	   6.65247	   26.3343	
    6.5924	0.00105996	   6.59747	0.00105229	    6.5785	0.00105063	   6.58946	0.00105429	   6.58946	   26.3574	
   6.52858	0.00106093	   6.53403	0.00105312	   6.51565	0.00105141	   6.52609	0.00105515	   6.52609	   26.3789	
   6.46421	0.00106192	   6.47057	 0.0010539	   6.45248	0.00105218	   6.46242	  0.001056	   6.46242	      26.4	
   6.39916	0.00106288	   6.40675	0.00105473	   6.38897	0.00105298	   6.39829	0.00105686	   6.39829	   26.4216	
   6.33399	0.00106377	   6.34339	0.00105565	   6.32525	0.00105381	   6.33421	0.00105774	   6.33421	   26.4436	
   6.26862	0.00106453	   6.27943	0.00105663	   6.26146	0.00105466	   6.26984	0.00105861	   6.26984	   26.4651	
   6.20349	0.00106517	   6.21558	0.00105758	   6.19725	0.00105546	   6.20544	 0.0010594	   6.20544	   26.4851	
   6.13788	0.00106572	   6.15111	0.00105842	    6.1329	0.00105619	   6.14063	0.00106011	   6.14063	   26.5028	
   6.07246	0.00106625	   6.08671	0.00105914	   6.06832	0.00105681	   6.07583	0.00106073	   6.07583	   26.5184	
   6.00689	0.00106681	   6.02182	0.00105975	   6.00341	0.00105734	   6.01071	 0.0010613	   6.01071	   26.5326	
   5.94117	 0.0010674	   5.95683	0.00106032	    5.9383	0.00105783	   5.94543	0.00106185	   5.94543	   26.5463	
   5.87514	0.00106799	   5.89143	0.00106089	   5.87297	0.00105833	   5.87985	 0.0010624	   5.87985	   26.5601	
   5.80961	0.00106853	   5.82576	0.00106147	    5.8074	0.00105886	   5.81426	0.00106295	   5.81426	   26.5738	
   5.74353	0.00106898	   5.75985	0.00106204	   5.74174	 0.0010594	   5.74837	0.00106347	   5.74837	   26.5869	
   5.67801	0.00106935	   5.69364	0.00106258	   5.67621	0.00105988	   5.68262	0.00106394	   5.68262	   26.5984	
   5.61122	0.00106969	   5.62727	0.00106306	   5.61063	0.00106021	   5.61637	0.00106432	   5.61637	   26.6079	
   5.54543	0.00107001	   5.56047	0.00106346	   5.54543	0.00106042	   5.55044	0.00106463	   5.55044	   26.6157	
   5.47836	0.00107031	   5.49334	0.00106381	    5.4798	0.00106054	   5.48384	0.00106489	   5.48384	   26.6222	
   5.41181	0.00107061	   5.42603	0.00106409	   5.41389	 0.0010607	   5.41724	0.00106513	   5.41724	   26.6283	
   5.34435	0.00107086	   5.35825	0.00106431	   5.34685	0.00106097	   5.34982	0.00106538	   5.34982	   26.6345	
   5.27789	0.00107106	   5.29029	0.00106451	   5.27924	0.00106137	   5.28247	0.00106565	   5.28247	   26.6411	
   5.21038	0.00107119	   5.22194	0.00106469	   5.21101	0.00106183	   5.21444	 0.0010659	   5.21444	   26.6476	
   5.14304	0.00107126	   5.15327	0.00106488	   5.14259	0.00106219	    5.1463	0.00106611	    5.1463	   26.6527	
     5.075	0.00107128	   5.08455	0.00106503	    5.0741	0.00106235	   5.07788	0.00106622	   5.07788	   26.6554	
   5.00712	0.00107126	   5.01569	0.00106515	   5.00581	0.00106227	   5.00954	0.00106623	   5.00954	   26.6557	
    4.9386	0.00107121	   4.94649	0.00106522	   4.93749	0.00106205	   4.94086	0.00106616	   4.94086	    26.654	
   4.87036	0.00107113	   4.87694	 0.0010652	   4.86902	0.00106185	    4.8721	0.00106606	    4.8721	   26.6515	
   4.80167	0.00107104	   4.80718	0.00106513	   4.80011	0.00106174	   4.80299	0.00106597	   4.80299	   26.6492	
   4.73315	0.00107089	   4.73735	0.00106501	   4.73106	0.00106178	   4.73386	0.00106589	   4.73386	   26.6473	
   4.66414	0.00107068	   4.66737	0.00106489	   4.66156	0.00106186	   4.66436	0.00106581	   4.66436	   26.6452	
   4.59521	0.00107039	   4.59716	0.00106477	   4.59178	0.00106185	   4.59472	0.00106567	   4.59472	   26.6418	
   4.52579	0.00107001	   4.52686	0.00106464	   4.52201	0.00106167	   4.52488	0.00106544	   4.52488	   26.6359	
   4.45641	0.00106956	   4.45635	0.00106447	   4.45197	0.00106129	   4.45491	0.00106511	   4.45491	   26.6276	
   4.38681	0.00106911	   4.38574	0.00106422	   4.38179	0.00106077	   4.38478	 0.0010647	   4.38478	   26.6175	
   4.31699	0.00106871	   4.31502	0.00106389	   4.31157	0.00106025	   4.31453	0.00106428	   4.31453	   26.6071	
   4.24681	0.00106837	   4.24404	0.00106346	   4.24105	 0.0010598	   4.24397	0.00106388	   4.24397	    26.597	
   4.17655	0.00106803	   4.17309	0.00106299	   4.17049	0.00105946	   4.17338	0.00106349	   4.17338	   26.5873	
   4.10579	0.00106762	   4.10196	0.00106251	    4.0997	0.00105918	   4.10248	 0.0010631	   4.10248	   26.5775	
   4.03484	0.00106707	   4.03069	0.00106204	   4.02873	0.00105882	   4.03142	0.00106265	   4.03142	   26.5661	
   3.96354	0.00106639	   3.95929	0.00106159	   3.95771	0.00105832	   3.96018	 0.0010621	   3.96018	   26.5524	
   3.89193	0.00106562	   3.88761	 0.0010611	   3.88637	0.00105761	   3.88863	0.00106144	   3.88863	   26.5361	
   3.82028	0.00106482	   3.81583	0.00106054	   3.81498	0.00105677	   3.81703	0.00106071	   3.81703	   26.5177	
   3.74845	0.00106406	   3.74377	0.00105987	   3.74326	 0.0010559	   3.74516	0.00105994	   3.74516	   26.4986	
   3.67644	0.00106332	    3.6716	 0.0010591	   3.67137	0.00105508	   3.67314	0.00105917	   3.67314	   26.4792	
   3.60452	0.00106259	    3.5994	0.00105829	   3.59941	0.00105436	   3.60111	0.00105841	   3.60111	   26.4603	
   3.53238	0.00106178	   3.52693	0.00105748	   3.52724	0.00105369	   3.52885	0.00105765	   3.52885	   26.4412	
   3.46005	0.00106085	   3.45448	 0.0010567	   3.45503	0.00105297	   3.45652	0.00105684	   3.45652	    26.421	
    3.3874	0.00105982	   3.38175	0.00105592	   3.38263	0.00105209	   3.38393	0.00105594	   3.38393	   26.3986	
   3.31457	0.00105872	   3.30891	0.00105511	   3.31006	0.00105102	   3.31118	0.00105495	   3.31118	   26.3738	
   3.24163	0.00105762	   3.23598	0.00105422	   3.23747	0.00104982	   3.23836	0.00105389	   3.23836	   26.3471	
   3.16839	0.00105655	    3.1628	0.00105324	    3.1647	0.00104858	    3.1653	0.00105279	    3.1653	   26.3197	
   3.09514	 0.0010555	   3.08966	0.00105219	   3.09189	0.00104742	   3.09223	 0.0010517	   3.09223	   26.2925	
    3.0218	0.00105442	   3.01646	0.00105109	   3.01896	0.00104637	   3.01907	0.00105063	   3.01907	   26.2656	
   2.94832	0.00105326	   2.94324	0.00104997	   2.94586	0.00104538	   2.94581	0.00104954	   2.94581	   26.2385	
   2.87455	0.00105201	    2.8699	0.00104883	   2.87271	0.00104434	   2.87239	0.00104839	   2.87239	   26.2098	
   2.80078	0.00105065	    2.7963	0.00104768	   2.79924	0.00104315	   2.79878	0.00104716	   2.79878	   26.1791	
   2.72702	0.00104925	   2.72272	 0.0010465	   2.72576	0.00104177	   2.72517	0.00104584	   2.72517	   26.1459	
   2.65307	0.00104783	   2.64886	0.00104525	   2.65206	0.00104024	   2.65133	0.00104444	   2.65133	    26.111	
   2.57899	0.00104644	    2.5749	0.00104394	    2.5782	0.00103868	   2.57736	0.00104302	   2.57736	   26.0755	
   2.50491	0.00104507	   2.50097	0.00104254	   2.50433	0.00103718	   2.50341	 0.0010416	   2.50341	     26.04	
   2.43057	0.00104368	   2.42681	0.00104109	   2.43018	0.00103578	   2.42919	0.00104018	   2.42919	   26.0046	
   2.35626	0.00104221	   2.35269	 0.0010396	   2.35604	0.00103444	   2.35499	0.00103875	   2.35499	   25.9687	
   2.28183	0.00104061	   2.27846	0.00103808	   2.28189	0.00103305	   2.28073	0.00103725	   2.28073	   25.9312	
   2.20729	0.00103892	   2.20415	0.00103656	   2.20761	0.00103152	   2.20635	0.00103567	   2.20635	   25.8917	
   2.13274	0.00103718	   2.12984	0.00103503	   2.13329	0.00102982	   2.13196	0.00103401	   2.13196	   25.8502	
   2.05806	0.00103544	   2.05542	0.00103345	    2.0587	  0.001028	   2.05739	 0.0010323	   2.05739	   25.8075	
   1.98328	0.00103375	   1.98104	 0.0010318	   1.98399	0.00102615	   1.98277	0.00103057	   1.98277	   25.7642	
   1.90841	0.00103207	   1.90642	0.00103006	   1.90945	0.00102435	   1.90809	0.00102883	   1.90809	   25.7207	
   1.83344	0.00103036	   1.83173	0.00102825	   1.83479	0.00102263	   1.83332	0.00102708	   1.83332	    25.677	
   1.75856	0.00102856	   1.75711	0.00102639	   1.76027	0.00102095	   1.75865	 0.0010253	   1.75865	   25.6326	
   1.68344	0.00102666	   1.68228	0.00102453	   1.68563	0.00101922	   1.68378	0.00102347	   1.68378	   25.5868	
    1.6084	0.00102469	   1.60751	0.00102266	     1.611	0.00101737	   1.60897	0.00102157	   1.60897	   25.5393	
     1.533	0.00102268	    1.5324	0.00102075	   1.53631	0.00101537	    1.5339	 0.0010196	    1.5339	     25.49	
   1.45756	0.00102067	   1.45724	0.00101879	    1.4615	0.00101326	   1.45877	0.00101757	   1.45877	   25.4393	
   1.38222	0.00101869	    1.3819	0.00101677	   1.38671	0.00101112	   1.38361	0.00101553	   1.38361	   25.3881	
   1.30669	0.00101669	    1.3064	0.00101471	   1.31194	0.00100901	   1.30834	0.00101347	   1.30834	   25.3368	
   1.23126	0.00101464	   1.23068	0.00101262	   1.23718	0.00100697	   1.23304	0.00101141	   1.23304	   25.2853	
   1.15585	0.00101249	   1.15469	0.00101052	   1.16236	0.00100494	   1.15763	0.00100932	   1.15763	    25.233	
    1.0804	0.00101026	   1.07873	0.00100837	   1.08742	0.00100286	   1.08218	0.00100716	   1.08218	   25.1791	
   1.00518	0.00100796	   1.00307	0.00100615	   1.01236	0.00100067	   1.00687	0.00100493	   1.00687	   25.1231	
  0.929754	0.00100563	   0.92745	0.00100385	  0.937568	0.000998351	  0.931591	0.00100261	  0.931591	   25.0653	
  0.854311	0.00100328	  0.852195	 0.0010015	  0.862781	0.000995938	  0.856429	0.00100024	  0.856429	    25.006	
  0.778826	0.00100093	  0.776912	0.000999125	  0.787725	0.000993499	  0.781154	0.00099785	  0.781154	   24.9462	
  0.703302	0.000998547	  0.701602	0.000996751	  0.712557	0.000991081	   0.70582	0.00099546	   0.70582	   24.8865	
  0.627845	0.000996134	  0.625856	0.000994381	  0.637557	0.00098869	  0.630419	0.000993068	  0.630419	   24.8267	
  0.552211	0.000993675	  0.550329	0.000991975	  0.562414	0.000986287	  0.554985	0.000990646	  0.554985	   24.7661	
  0.476687	0.000991158	  0.475206	0.000989476	  0.487298	0.000983817	   0.47973	0.00098815	   0.47973	   24.7038	
  0.401128	0.000988581	  0.399767	0.000986904	  0.412343	0.000981237	  0.404413	0.000985574	  0.404413	   24.6394	
  0.325538	0.000985953	  0.324825	0.000984251	  0.337258	0.000978534	  0.329207	0.000982913	  0.329207	   24.5728	
   0.25008	0.00098328	  0.249417	0.000981571	  0.262327	0.000975746	  0.253941	0.000980199	  0.253941	    24.505	
  0.174444	0.000980577	  0.174399	0.000978915	  0.187263	0.000972947	  0.178702	0.00097748	  0.178702	    24.437	
 0.0987855	0.000977862	  0.098782	0.000976288	   0.11221	0.000970193	  0.103259	0.000974781	  0.103259	   24.3695	
 0.0230039	0.000975127	 0.0235704	0.000973681	 0.0370992	0.000967494	 0.0278912	0.000972101	 0.0278912	   24.3025	
-0.0527861	0.000972371	-0.0519036	0.000971021	-0.0381329	0.000964795	-0.0476075	0.000969396	-0.0476075	   24.2349	
 -0.128445	0.000969576	 -0.126846	0.000968244	  -0.11334	0.000962019	 -0.122877	0.000966613	 -0.122877	   24.1653	
  -0.20412	0.000966736	 -0.201987	0.000965327	 -0.188798	0.000959111	 -0.198302	0.000963725	 -0.198302	   24.0931	
 -0.279673	0.000963819	 -0.277038	0.000962283	 -0.264214	0.000956057	 -0.273642	0.00096072	 -0.273642	    24.018	
 -0.355183	0.000960837	 -0.352304	0.000959216	 -0.339545	0.000952925	  -0.34901	0.000957659	  -0.34901	   23.9415	
 -0.430721	0.000957808	 -0.427469	0.000956186	 -0.414981	0.000949775	 -0.424391	0.000954589	 -0.424391	   23.8647	
 -0.506013	0.000954768	 -0.502954	0.000953234	 -0.490242	0.000946673	 -0.499736	0.000951559	 -0.499736	    23.789	
  -0.58149	0.000951742	 -0.578085	0.000950307	 -0.565752	0.000943618	 -0.575109	0.000948556	 -0.575109	   23.7139	
 -0.656974	0.000948702	 -0.653242	0.000947318	 -0.641218	0.000940556	 -0.650478	0.000945525	 -0.650478	   23.6381	
 -0.732487	0.000945623	 -0.728313	0.000944188	 -0.716505	0.00093742	 -0.725769	0.00094241	 -0.725769	   23.5603	
 -0.808027	0.000942458	 -0.803442	0.000940898	 -0.791764	0.00093416	 -0.801078	0.000939172	 -0.801078	   23.4793	
 -0.883489	0.000939209	 -0.878351	0.000937533	 -0.867032	0.000930791	 -0.876291	0.000935844	 -0.876291	   23.3961	
  -0.95889	0.000935884	 -0.953358	0.000934183	 -0.942434	0.00092736	 -0.951561	0.000932476	 -0.951561	   23.3119	
  -1.03419	0.000932525	  -1.02843	0.000930923	   -1.0178	0.000923932	  -1.02681	0.000929127	  -1.02681	   23.2282	
  -1.10954	0.000929166	  -1.10343	0.000927723	    -1.093	0.000920537	  -1.10199	0.000925809	  -1.10199	   23.1452	
  -1.18493	0.000925827	  -1.17851	0.000924503	  -1.16832	0.000917167	  -1.17725	0.000922499	  -1.17725	   23.0625	
  -1.26031	0.000922491	  -1.25337	0.000921163	  -1.24348	0.000913775	  -1.25239	0.000919143	  -1.25239	   22.9786	
   -1.3356	0.000919111	  -1.32805	0.000917665	  -1.31876	0.000910309	  -1.32747	0.000915695	  -1.32747	   22.8924	
   -1.4108	0.000915652	   -1.4027	0.000914051	  -1.39402	0.000906737	  -1.40251	0.000912147	  -1.40251	   22.8037	
  -1.48564	 0.0009121	  -1.47706	0.000910397	  -1.46916	0.000903074	  -1.47729	0.000908524	  -1.47729	   22.7131	
  -1.56058	0.000908479	  -1.55155	0.000906793	  -1.54431	0.000899361	  -1.55215	0.000904878	  -1.55215	   22.6219	
  -1.63532	0.000904829	  -1.62604	0.000903254	  -1.61932	0.000895649	  -1.62689	0.000901244	  -1.62689	   22.5311	
  -1.71003	0.000901187	  -1.70052	0.00089974	  -1.69419	0.000891962	  -1.70158	0.00089763	  -1.70158	   22.4407	
  -1.78471	0.000897554	    -1.775	0.000896172	  -1.76909	0.000888297	  -1.77627	0.000894008	  -1.77627	   22.3502	
  -1.85932	0.000893915	  -1.84934	0.00089249	  -1.84373	0.000884617	   -1.8508	0.000890341	   -1.8508	   22.2585	
  -1.93405	0.000890227	  -1.92369	0.000888674	  -1.91855	0.000880877	  -1.92543	0.000886593	  -1.92543	   22.1648	
  -2.00863	0.000886467	  -1.99793	0.00088476	  -1.99327	0.000877056	  -1.99994	0.000882761	  -1.99994	    22.069	
  -2.08312	0.000882627	  -2.07231	0.000880813	  -2.06779	0.000873151	  -2.07441	0.000878863	  -2.07441	   21.9716	
   -2.1574	0.000878728	  -2.14672	0.00087689	  -2.14237	0.000869189	  -2.14883	0.000874936	  -2.14883	   21.8734	
  -2.23143	0.000874803	  -2.22117	0.000873005	  -2.21688	0.000865202	  -2.22316	0.000871003	  -2.22316	   21.7751	
  -2.30551	0.000870878	  -2.29564	0.000869104	  -2.29132	0.000861218	  -2.29749	0.000867067	  -2.29749	   21.6767	
   -2.3795	0.000866957	  -2.37001	0.000865145	   -2.3657	0.000857248	  -2.37174	0.000863117	  -2.37174	   21.5779	
  -2.45343	0.00086302	  -2.44416	0.000861111	  -2.43976	0.00085327	  -2.44578	0.000859133	  -2.44578	   21.4783	
  -2.52715	0.000859034	  -2.51837	0.00085702	   -2.5138	0.000849259	  -2.51978	0.000855104	  -2.51978	   21.3776	
  -2.60071	0.000854983	  -2.59292	0.000852905	   -2.5877	0.000845186	  -2.59378	0.000851025	  -2.59378	   21.2756	
  -2.67397	0.000850859	  -2.66779	0.000848784	  -2.66147	0.000841038	  -2.66774	0.000846894	  -2.66774	   21.1723	
  -2.74725	0.000846683	  -2.74254	0.000844666	  -2.73526	0.000836833	  -2.74168	0.000842728	  -2.74168	   21.0682	
  -2.82029	0.000842485	  -2.81732	0.000840526	  -2.80881	0.000832603	  -2.81547	0.000838538	  -2.81547	   20.9635	
  -2.89338	0.000838282	  -2.89131	0.000836321	  -2.88228	0.000828381	  -2.88899	0.000834328	  -2.88899	   20.8582	
  -2.96639	0.000834074	  -2.96554	0.000832064	  -2.95568	0.000824174	  -2.96254	0.000830104	  -2.96254	   20.7526	
  -3.03933	0.000829842	  -3.03918	0.000827736	   -3.0289	0.000819967	   -3.0358	0.000825848	   -3.0358	   20.6462	
  -3.11223	0.000825564	  -3.11282	0.000823372	  -3.10195	0.000815722	    -3.109	0.000821553	    -3.109	   20.5388	
  -3.18495	0.000821223	  -3.18647	0.000818975	  -3.17485	0.000811408	  -3.18209	0.000817202	  -3.18209	   20.4301	
  -3.25766	0.000816816	  -3.25932	0.000814548	  -3.24763	0.000807007	  -3.25487	0.000812791	  -3.25487	   20.3198	
  -3.33037	0.000812348	  -3.33214	0.000810091	  -3.32031	0.000802534	  -3.32761	0.000808324	  -3.32761	   20.2081	
  -3.40282	0.000807827	   -3.4041	0.000805589	  -3.39291	0.000798027	  -3.39994	0.000803814	  -3.39994	   20.0953	
  -3.47531	0.000803279	  -3.47708	0.000801074	  -3.46544	0.000793523	  -3.47261	0.000799292	  -3.47261	   19.9823	
  -3.54771	0.000798737	  -3.54894	0.000796551	  -3.53792	0.000789041	  -3.54486	0.000794777	  -3.54486	   19.8694	
  -3.62004	0.000794225	  -3.62198	0.000792011	  -3.61023	0.000784568	  -3.61742	0.000790268	  -3.61742	   19.7567	
  -3.69219	0.000789738	   -3.6942	0.000787429	  -3.68253	0.000780052	  -3.68964	0.00078574	  -3.68964	   19.6435	
  -3.76418	0.000785262	   -3.7669	0.000782782	   -3.7547	0.000775449	  -3.76193	0.000781164	  -3.76193	   19.5291	
  -3.83576	0.000780727	  -3.83829	0.000778064	  -3.82676	0.000770757	   -3.8336	0.000776516	   -3.8336	   19.4129	
   -3.9074	0.000776076	  -3.91039	0.000773295	  -3.89887	0.000766013	  -3.90555	0.000771795	  -3.90555	   19.2949	
  -3.97882	0.000771265	   -3.9818	0.00076851	  -3.97089	0.00076128	  -3.97717	0.000767018	  -3.97717	   19.1755	
  -4.05006	0.000766319	  -4.05368	0.000763735	  -4.04286	0.000756595	  -4.04886	0.000762216	  -4.04886	   19.0554	
  -4.12128	0.000761318	  -4.12491	0.000758964	  -4.11478	0.000751951	  -4.12032	0.000757411	  -4.12032	   18.9353	
  -4.19237	0.000756336	  -4.19665	0.000754167	   -4.1864	0.00074727	  -4.19181	0.000752591	  -4.19181	   18.8148	
  -4.26336	0.000751445	  -4.26751	0.000749317	  -4.25762	0.000742423	  -4.26283	0.000747728	  -4.26283	   18.6932	
  -4.33426	0.00074662	   -4.3384	0.000744404	  -4.32863	0.000737437	  -4.33377	0.00074282	  -4.33377	   18.5705	
  -4.40484	0.000741811	  -4.40879	0.00073945	  -4.39879	0.000732359	  -4.40414	0.000737874	  -4.40414	   18.4468	
  -4.47513	0.000736938	  -4.47928	0.000734483	  -4.46899	0.000727354	  -4.47447	0.000732925	  -4.47447	   18.3231	
  -4.54532	0.000731943	  -4.54921	0.000729517	  -4.53898	0.000722491	   -4.5445	0.000727983	   -4.5445	   18.1996	
  -4.61516	0.000726839	  -4.61904	0.000724533	  -4.60895	0.000717763	  -4.61438	0.000723045	  -4.61438	   18.0761	
  -4.68497	0.000721665	   -4.6884	0.000719502	  -4.67876	0.000713095	  -4.68404	0.000718087	  -4.68404	   17.9522	
  -4.75463	0.000716493	  -4.75762	0.000714403	  -4.74805	0.000708291	  -4.75343	0.000713062	  -4.75343	   17.8266	
  -4.82405	0.000711366	   -4.8266	0.000709237	  -4.81729	0.000703278	  -4.82265	0.00070796	  -4.82265	    17.699	
   -4.8934	0.000706275	  -4.89552	0.000704036	  -4.88569	0.000698036	  -4.89154	0.000702783	  -4.89154	   17.5696	
  -4.96258	0.00070118	  -4.96428	0.000698836	  -4.95445	0.000692677	  -4.96043	0.000697564	  -4.96043	   17.4391	
  -5.03149	0.000696031	   -5.0329	0.000693651	  -5.02272	0.000687365	  -5.02904	0.000692349	  -5.02904	   17.3087	
  -5.10016	0.000690796	  -5.10102	0.000688473	   -5.0914	0.000682189	  -5.09753	0.000687153	  -5.09753	   17.1788	
  -5.16866	0.000685486	  -5.16898	0.000683268	  -5.15939	0.00067717	  -5.16568	0.000681975	  -5.16568	   17.0494	
  -5.23715	0.000680133	  -5.23655	0.000678008	  -5.22759	0.000672216	  -5.23376	0.000676786	  -5.23376	   16.9196	
  -5.30539	0.00067478	   -5.3042	0.000672675	  -5.29533	0.000667184	  -5.30164	0.000671546	  -5.30164	   16.7887	
  -5.37342	0.000669441	  -5.37168	0.000667276	  -5.36295	0.00066198	  -5.36935	0.000666232	  -5.36935	   16.6558	
  -5.44102	0.000664119	  -5.43875	0.000661837	  -5.43022	0.000656571	  -5.43667	0.000660842	  -5.43667	   16.5211	
  -5.50853	0.000658804	  -5.50563	0.00065639	  -5.49773	0.000651045	  -5.50396	0.000655413	  -5.50396	   16.3853	
  -5.57583	0.000653453	  -5.57234	0.000650957	  -5.56468	0.000645521	  -5.57095	0.000649977	  -5.57095	   16.2494	
  -5.64272	0.000648029	  -5.63868	0.000645519	  -5.63183	0.000640094	  -5.63774	0.000644547	  -5.63774	   16.1137	
  -5.70924	0.000642505	  -5.70484	0.000640044	  -5.69851	0.000634783	   -5.7042	0.000639111	   -5.7042	   15.9778	
  -5.77561	0.000636893	  -5.77086	0.00063451	  -5.76506	0.000629508	  -5.77051	0.000633637	  -5.77051	   15.8409	
  -5.84174	0.00063125	  -5.83653	0.000628916	  -5.83139	0.000624156	  -5.83655	0.000628107	  -5.83655	   15.7027	
   -5.9078	0.000625614	   -5.9019	0.000623293	   -5.8977	0.000618634	  -5.90247	0.000622514	  -5.90247	   15.5628	
  -5.97372	0.000620026	  -5.96718	0.000617682	  -5.96386	0.000612959	  -5.96825	0.000616889	  -5.96825	   15.4222	
  -6.03939	0.000614467	  -6.03214	0.000612107	  -6.02967	0.000607223	  -6.03373	0.000611266	  -6.03373	   15.2816	
   -6.1046	0.000608884	  -6.09684	0.000606549	  -6.09505	0.000601564	  -6.09883	0.000605666	  -6.09883	   15.1416	
   -6.1697	0.000603234	  -6.16147	0.000600961	  -6.16035	0.000596031	  -6.16384	0.000600075	  -6.16384	   15.0019	
  -6.23447	0.000597491	  -6.22582	0.000595289	  -6.22533	0.000590589	  -6.22854	0.000594456	  -6.22854	   14.8614	
  -6.29883	0.000591685	  -6.28968	0.000589507	  -6.29007	0.000585112	  -6.29286	0.000588768	  -6.29286	   14.7192	
  -6.36313	0.000585869	  -6.35339	0.000583638	  -6.35447	0.000579466	    -6.357	0.000582991	    -6.357	   14.5748	
  -6.42715	0.000580067	  -6.41688	0.000577753	  -6.41862	0.000573605	  -6.42088	0.000577142	  -6.42088	   14.4285	
  -6.49094	0.00057429	  -6.47993	0.000571916	   -6.4823	0.000567614	  -6.48439	0.000571273	  -6.48439	   14.2818	
  -6.55457	0.000568498	  -6.54291	0.00056616	  -6.54559	0.000561623	  -6.54769	0.000565427	  -6.54769	   14.1357	
   -6.6181	0.000562668	  -6.60572	0.000560455	   -6.6087	0.000555761	  -6.61084	0.000559628	  -6.61084	   13.9907	
  -6.68117	0.000556783	  -6.66815	0.000554722	  -6.67157	0.00055003	  -6.67363	0.000553845	  -6.67363	   13.8461	
  -6.74399	0.000550833	  -6.73056	0.000548885	  -6.73398	0.000544328	  -6.73618	0.000548015	  -6.73618	   13.7004	
  -6.80665	0.000544851	  -6.79286	0.000542913	  -6.79629	0.00053854	   -6.7986	0.000542101	   -6.7986	   13.5525	
  -6.86892	0.000538852	  -6.85483	0.000536844	  -6.85829	0.00053256	  -6.86068	0.000536085	  -6.86068	   13.4021	
  -6.93088	0.000532847	  -6.91641	0.000530766	  -6.91992	0.000526418	   -6.9224	0.000530011	   -6.9224	   13.2503	
  -6.99261	0.000526829	  -6.97797	0.000524761	  -6.98125	0.000520215	  -6.98394	0.000523935	  -6.98394	   13.0984	
  -7.05404	0.000520793	  -7.03927	0.000518859	  -7.04236	0.000514068	  -7.04523	0.000517906	  -7.04523	   12.9477	
  -7.11512	0.000514757	  -7.10026	0.000513027	  -7.10306	0.000508058	  -7.10615	0.000511947	  -7.10615	   12.7987	
  -7.17552	0.000508743	  -7.16087	0.000507177	  -7.16356	0.000502148	  -7.16665	0.000506023	  -7.16665	   12.6506	
  -7.23574	0.000502756	  -7.22133	0.00050122	  -7.22393	0.000496248	    -7.227	0.000500075	    -7.227	   12.5019	
   -7.2956	0.000496771	  -7.28144	0.000495116	  -7.28398	0.000490248	  -7.28701	0.000494045	  -7.28701	   12.3511	
  -7.35518	0.000490732	  -7.34127	0.000488897	  -7.34377	0.000484088	  -7.34674	0.000487906	  -7.34674	   12.1976	
   -7.4147	0.000484594	  -7.40077	0.000482653	  -7.40339	0.000477796	  -7.40629	0.000481681	  -7.40629	    12.042	
  -7.47394	0.00047834	  -7.46003	0.00047649	  -7.46277	0.00047146	  -7.46558	0.00047543	  -7.46558	   11.8858	
  -7.53272	0.000472003	  -7.51885	0.000470454	  -7.52173	0.000465176	  -7.52443	0.000469211	  -7.52443	   11.7303	
  -7.59114	0.00046565	  -7.57761	 0.0004645	  -7.58049	0.000459004	  -7.58308	0.000463051	  -7.58308	   11.5763	
  -7.64928	0.000459342	  -7.63609	0.000458505	  -7.63899	0.000452918	  -7.64145	0.000456922	  -7.64145	    11.423	
  -7.70711	0.000453113	  -7.69425	0.000452359	  -7.69718	0.000446845	  -7.69951	0.000450772	  -7.69951	   11.2693	
  -7.76443	0.000446942	  -7.75217	0.000446029	  -7.75488	0.000440683	  -7.75716	0.000444551	  -7.75716	   11.1138	
  -7.82162	0.000440762	  -7.80981	0.000439561	  -7.81232	0.000434373	  -7.81459	0.000438232	  -7.81459	   10.9558	
  -7.87864	0.000434504	  -7.86725	0.000433078	  -7.86947	0.000427933	  -7.87179	0.000431838	  -7.87179	    10.796	
  -7.93528	0.000428128	  -7.92429	 0.0004267	  -7.92627	0.000421439	  -7.92862	0.000425422	  -7.92862	   10.6356	
  -7.99138	0.000421649	  -7.98105	0.000420478	  -7.98255	0.000414992	    -7.985	0.00041904	    -7.985	    10.476	
  -8.04732	0.000415131	  -8.03734	0.000414365	   -8.0387	0.000408648	  -8.04112	0.000412714	  -8.04112	   10.3179	
  -8.10291	0.000408645	   -8.0934	0.000408232	  -8.09465	0.000402393	  -8.09699	0.000406423	  -8.09699	   10.1606	
  -8.15812	0.000402235	  -8.14905	0.000401961	  -8.15022	0.000396148	  -8.15247	0.000400114	  -8.15247	   10.0029	
  -8.21278	0.000395883	  -8.20454	0.000395499	  -8.20525	0.000389821	  -8.20752	0.000393734	  -8.20752	   9.84336	
  -8.26742	0.000389527	  -8.25967	0.000388891	  -8.25999	0.000383355	  -8.26236	0.000387258	  -8.26236	   9.68144	
  -8.32185	0.000383104	  -8.31456	0.000382253	  -8.31453	0.000376771	  -8.31698	0.000380709	  -8.31698	   9.51773	
  -8.37589	0.00037658	  -8.36901	0.000375697	  -8.36871	0.000370139	   -8.3712	0.000374139	   -8.3712	   9.35346	
  -8.42937	0.000369973	  -8.42329	0.000369269	  -8.42249	0.00036355	  -8.42505	0.000367597	  -8.42505	   9.18993	
  -8.48284	0.00036334	  -8.47735	0.000362925	  -8.47612	0.000357051	  -8.47877	0.000361105	  -8.47877	   9.02764	
  -8.53609	0.000356741	  -8.53114	0.000356562	  -8.52941	0.00035063	  -8.53221	0.000354645	  -8.53221	   8.86612	
   -8.5891	0.000350209	   -8.5845	0.000350086	  -8.58235	0.000344218	  -8.58531	0.000348171	  -8.58531	   8.70428	
  -8.64155	0.00034375	   -8.6374	0.000343466	  -8.63476	0.000337743	   -8.6379	0.000341653	   -8.6379	   8.54133	
  -8.69384	0.000337301	  -8.69011	0.000336744	  -8.68679	0.000331157	  -8.69025	0.000335067	  -8.69025	   8.37668	
  -8.74595	0.000330796	  -8.74258	0.000330012	  -8.73867	0.000324477	   -8.7424	0.000328428	   -8.7424	   8.21071	
  -8.79769	0.000324177	  -8.79465	0.000323356	  -8.79025	0.000317762	   -8.7942	0.000321765	   -8.7942	   8.04412	
  -8.84892	0.000317447	  -8.84616	 0.0003168	  -8.84135	0.000311087	  -8.84547	0.000315111	  -8.84547	   7.87778	
  -8.89989	0.000310658	  -8.89724	0.00031031	  -8.89196	 0.0003045	  -8.89637	0.00030849	  -8.89637	   7.71224	
  -8.95044	0.000303878	  -8.94816	0.000303816	  -8.94237	0.000297991	  -8.94699	0.000301895	  -8.94699	   7.54737	
   -9.0007	0.000297179	  -8.99875	0.000297244	  -8.99252	0.000291501	  -8.99733	0.000295308	  -8.99733	   7.38269	
  -9.05052	0.000290577	  -9.04884	0.000290557	  -9.04228	0.000284954	  -9.04721	0.000288696	  -9.04721	    7.2174	
  -9.09988	0.00028404	  -9.09858	0.000283761	  -9.09162	0.000278305	  -9.09669	0.000282035	  -9.09669	   7.05088	
  -9.14906	0.000277493	  -9.14808	0.000276919	  -9.14053	0.000271571	  -9.14589	0.000275328	  -9.14589	   6.88319	
  -9.19802	0.00027086	  -9.19733	0.000270104	  -9.18916	0.000264808	  -9.19484	0.000268591	  -9.19484	   6.71477	
  -9.24662	0.000264117	  -9.24616	0.000263351	  -9.23749	0.000258088	  -9.24342	0.000261852	  -9.24342	   6.54629	
  -9.29471	0.000257293	  -9.29458	0.000256664	  -9.28536	0.000251446	  -9.29155	0.000255134	  -9.29155	   6.37835	
  -9.34228	0.000250457	  -9.34244	0.000250011	  -9.33306	0.000244868	  -9.33926	0.000248445	  -9.33926	   6.21113	
  -9.38963	0.000243679	  -9.39003	0.000243349	  -9.38015	0.000238298	   -9.3866	0.000241775	   -9.3866	   6.04438	
  -9.43674	0.000236981	  -9.43733	0.000236636	  -9.42706	0.000231674	  -9.43371	0.000235097	  -9.43371	   5.87742	
  -9.48346	0.000230331	   -9.4842	0.000229854	  -9.47363	0.000224958	  -9.48043	0.000228381	  -9.48043	   5.70953	
  -9.52979	0.000223669	  -9.53064	0.00022303	  -9.51974	0.000218173	  -9.52672	0.000221624	  -9.52672	   5.54059	
  -9.57559	0.000216943	  -9.57639	0.00021619	  -9.56524	0.00021137	   -9.5724	0.000214834	   -9.5724	   5.37086	
  -9.62115	0.000210142	  -9.62187	0.000209368	  -9.61043	0.000204612	  -9.61782	0.000208041	  -9.61782	   5.20101	
  -9.66647	0.000203289	   -9.6671	0.000202565	  -9.65546	0.000197934	  -9.66301	0.000201263	  -9.66301	   5.03157	
   -9.7114	0.000196421	  -9.71192	0.000195777	  -9.70017	0.00019131	  -9.70783	0.000194503	  -9.70783	   4.86257	
  -9.75582	0.000189566	  -9.75621	0.000188985	  -9.74443	0.000184689	  -9.75215	0.000187747	  -9.75215	   4.69367	
  -9.79974	0.000182728	      -9.8	0.000182193	  -9.78812	0.000178009	  -9.79595	0.000180976	  -9.79595	   4.52441	
  -9.84331	0.000175892	  -9.84329	0.000175402	  -9.83152	0.000171246	  -9.83937	0.00017418	  -9.83937	    4.3545	
  -9.88669	0.000169046	  -9.88611	0.000168612	  -9.87466	0.00016443	  -9.88248	0.000167363	  -9.88248	   4.18407	
  -9.92973	0.000162188	  -9.92848	0.000161815	  -9.91752	0.000157614	  -9.92524	0.000160539	  -9.92524	   4.01347	
   -9.9723	0.000155322	  -9.97057	0.000154999	  -9.95998	0.000150854	  -9.96762	0.000153725	  -9.96762	   3.84312	
  -10.0144	0.000148462	  -10.0121	0.000148151	  -10.0019	0.000144173	  -10.0095	0.000146929	  -10.0095	   3.67321	
  -10.0561	0.000141607	  -10.0534	0.00014128	  -10.0432	0.000137544	  -10.0509	0.000140143	  -10.0509	   3.50359	
  -10.0974	0.00013475	  -10.0942	0.000134396	  -10.0841	0.000130914	  -10.0919	0.000133353	  -10.0919	   3.33383	
  -10.1385	0.000127879	  -10.1347	0.00012753	  -10.1247	0.000124229	  -10.1326	0.000126546	  -10.1326	   3.16365	
  -10.1792	0.000120983	  -10.1747	0.000120697	   -10.165	0.000117469	   -10.173	0.000119716	   -10.173	   2.99291	
  -10.2194	0.000114062	  -10.2145	0.000113894	  -10.2049	0.00011066	  -10.2129	0.000112872	  -10.2129	    2.8218	
   -10.259	0.000107122	  -10.2537	0.000107107	  -10.2444	0.000103856	  -10.2524	0.000106029	  -10.2524	   2.65071	
  -10.2984	0.000100163	  -10.2927	0.000100302	  -10.2835	9.71118e-05	  -10.2915	9.91924e-05	  -10.2915	   2.47981	
  -10.3373	9.32072e-05	  -10.3313	9.34576e-05	  -10.3223	9.04438e-05	  -10.3303	9.23695e-05	  -10.3303	   2.30924	
   -10.376	8.62654e-05	  -10.3695	8.6579e-05	  -10.3611	8.38184e-05	  -10.3689	8.55543e-05	  -10.3689	   2.13886	
  -10.4143	7.93581e-05	  -10.4072	7.96823e-05	  -10.3995	7.7186e-05	   -10.407	7.87421e-05	   -10.407	   1.96855	
  -10.4521	7.24803e-05	  -10.4446	7.28064e-05	  -10.4375	7.04956e-05	  -10.4447	7.19275e-05	  -10.4447	   1.79819	
  -10.4895	6.56102e-05	  -10.4817	6.59684e-05	  -10.4752	6.37365e-05	  -10.4821	6.5105e-05	  -10.4821	   1.62763	
  -10.5264	5.8719e-05	  -10.5184	5.91648e-05	  -10.5122	 5.694e-05	   -10.519	5.82746e-05	   -10.519	   1.45686	
  -10.5628	 5.179e-05	  -10.5547	5.23801e-05	  -10.5487	5.01555e-05	  -10.5554	5.14418e-05	  -10.5554	   1.28605	
  -10.5988	4.48137e-05	  -10.5906	4.55801e-05	  -10.5847	4.34236e-05	  -10.5914	4.46058e-05	  -10.5914	   1.11514	
  -10.6345	3.78126e-05	   -10.626	3.87534e-05	  -10.6204	3.67646e-05	   -10.627	3.77769e-05	   -10.627	  0.944421	
  -10.6698	3.08095e-05	   -10.661	3.18943e-05	  -10.6558	3.01504e-05	  -10.6622	3.09514e-05	  -10.6622	  0.773785	
  -10.7046	2.38294e-05	  -10.6953	2.50205e-05	  -10.6908	2.35695e-05	  -10.6969	2.41398e-05	  -10.6969	  0.603495	
   -10.739	1.68872e-05	  -10.7291	1.81649e-05	  -10.7253	1.69508e-05	  -10.7311	1.73343e-05	  -10.7311	  0.433358	
  -10.7727	9.97555e-06	  -10.7626	1.13387e-05	  -10.7592	1.0226e-05	  -10.7648	1.05134e-05	  -10.7648	  0.262835	
  -10.8059	3.06688e-06	  -10.7955	4.5512e-06	  -10.7925	3.38911e-06	   -10.798	3.66906e-06	   -10.798	 0.0917266	
  -10.8387	-3.86512e-06	  -10.8278	-2.20982e-06	  -10.8254	-3.52272e-06	  -10.8307	-3.19922e-06	  -10.8307	-0.0799805	
  -10.8714	-1.08313e-05	  -10.8601	-8.97099e-06	  -10.8578	-1.04084e-05	  -10.8631	-1.00702e-05	  -10.8631	 -0.251756	
  -10.9037	-1.78062e-05	  -10.8918	-1.57484e-05	    -10.89	-1.71927e-05	  -10.8952	-1.69158e-05	  -10.8952	 -0.422894	
  -10.9356	-2.47522e-05	  -10.9233	-2.25484e-05	  -10.9219	-2.3833e-05	  -10.9269	-2.37112e-05	  -10.9269	  -0.59278	
  -10.9671	-3.16494e-05	  -10.9545	-2.93576e-05	  -10.9534	-3.03601e-05	  -10.9583	-3.04557e-05	  -10.9583	 -0.761393	
  -10.9981	-3.84934e-05	  -10.9851	-3.61537e-05	  -10.9845	-3.68684e-05	  -10.9892	-3.71718e-05	  -10.9892	 -0.929296	
  -11.0285	-4.53172e-05	  -11.0154	-4.29184e-05	   -11.015	-4.34468e-05	  -11.0196	-4.38941e-05	  -11.0196	  -1.09735	
  -11.0584	-5.21708e-05	  -11.0451	-4.96413e-05	  -11.0451	-5.01436e-05	  -11.0495	-5.06519e-05	  -11.0495	   -1.2663	
  -11.0878	-5.90903e-05	  -11.0741	-5.63318e-05	  -11.0746	-5.69434e-05	  -11.0788	-5.74552e-05	  -11.0788	  -1.43638	
  -11.1166	-6.60691e-05	  -11.1028	-6.30211e-05	  -11.1035	-6.37951e-05	  -11.1076	-6.42951e-05	  -11.1076	  -1.60738	
  -11.1454	-7.30505e-05	  -11.1312	-6.97321e-05	  -11.1319	-7.0627e-05	  -11.1362	-7.11365e-05	  -11.1362	  -1.77841	
  -11.1737	-7.99803e-05	  -11.1593	-7.64768e-05	  -11.1598	-7.73815e-05	  -11.1643	-7.79462e-05	  -11.1643	  -1.94865	
  -11.2017	-8.68371e-05	  -11.1871	-8.32444e-05	  -11.1875	-8.40512e-05	  -11.1921	-8.47109e-05	  -11.1921	  -2.11777	
  -11.2294	-9.36302e-05	  -11.2146	-8.99954e-05	  -11.2148	-9.06686e-05	  -11.2196	-9.14314e-05	  -11.2196	  -2.28579	
  -11.2566	-0.000100436	  -11.2416	-9.67037e-05	  -11.2417	-9.72914e-05	  -11.2466	-9.81438e-05	  -11.2466	   -2.4536	
  -11.2833	-0.000107291	  -11.2682	-0.00010336	  -11.2682	-0.000103959	  -11.2732	-0.00010487	  -11.2732	  -2.62175	
  -11.3095	-0.00011421	  -11.2943	-0.000109976	  -11.2942	-0.000110696	  -11.2993	-0.000111627	  -11.2993	  -2.79068	
   -11.335	-0.000121148	  -11.3198	-0.000116596	  -11.3196	-0.000117487	  -11.3248	-0.00011841	  -11.3248	  -2.96026	
  -11.3599	-0.000128057	  -11.3447	-0.000123238	  -11.3446	-0.000124283	  -11.3497	-0.000125193	  -11.3497	  -3.12982	
  -11.3841	-0.000134884	  -11.3691	-0.000129894	  -11.3693	-0.00013102	  -11.3742	-0.000131933	  -11.3742	  -3.29832	
  -11.4079	-0.000141632	  -11.3927	-0.000136552	  -11.3934	-0.000137678	   -11.398	-0.000138621	   -11.398	  -3.46552	
  -11.4311	-0.000148348	   -11.416	-0.00014318	   -11.417	-0.00014425	  -11.4214	-0.000145259	  -11.4214	  -3.63148	
  -11.4542	-0.000155087	  -11.4389	-0.000149775	  -11.4402	-0.000150803	  -11.4444	-0.000151888	  -11.4444	  -3.79721	
   -11.477	-0.000161885	  -11.4616	-0.000156323	  -11.4627	-0.000157408	  -11.4671	-0.000158539	  -11.4671	  -3.96348	
  -11.4996	-0.00016873	   -11.484	-0.000162846	  -11.4849	-0.000164113	  -11.4895	-0.000165229	  -11.4895	  -4.13074	
  -11.5218	-0.000175577	  -11.5061	-0.000169356	  -11.5068	-0.000170886	  -11.5116	-0.00017194	  -11.5116	  -4.29849	
  -11.5437	-0.000182375	  -11.5279	-0.000175874	  -11.5283	-0.000177653	  -11.5333	-0.000178634	  -11.5333	  -4.46585	
  -11.5652	-0.000189095	  -11.5494	-0.00018241	  -11.5493	-0.000184348	  -11.5547	-0.000185284	  -11.5547	   -4.6321	
  -11.5863	-0.000195745	  -11.5704	-0.000188946	    -11.57	-0.000190933	  -11.5756	-0.000191875	  -11.5756	  -4.79687	
  -11.6068	-0.000202367	   -11.591	-0.000195454	  -11.5903	-0.000197442	   -11.596	-0.000198421	   -11.596	  -4.96053	
  -11.6268	-0.000209008	   -11.611	-0.000201923	  -11.6102	-0.000203951	   -11.616	-0.000204961	   -11.616	  -5.12402	
  -11.6463	-0.000215699	  -11.6306	-0.000208365	  -11.6296	-0.000210532	  -11.6355	-0.000211532	  -11.6355	   -5.2883	
  -11.6652	-0.000222433	  -11.6496	-0.000214801	  -11.6485	-0.000217195	  -11.6544	-0.000218143	  -11.6544	  -5.45357	
  -11.6835	-0.000229178	  -11.6681	-0.000221251	  -11.6668	-0.000223884	  -11.6728	-0.000224771	  -11.6728	  -5.61928	
  -11.7012	-0.000235883	  -11.6859	-0.00022772	  -11.6846	-0.000230518	  -11.6906	-0.000231374	  -11.6906	  -5.78434	
  -11.7183	-0.000242512	  -11.7032	-0.000234198	  -11.7019	-0.000237049	  -11.7078	-0.000237919	  -11.7078	  -5.94799	
  -11.7348	-0.000249066	  -11.7198	-0.000240662	  -11.7185	-0.000243482	  -11.7244	-0.000244403	  -11.7244	  -6.11008	
  -11.7507	-0.000255582	  -11.7358	-0.000247091	  -11.7346	-0.000249898	  -11.7404	-0.000250857	  -11.7404	  -6.27142	
   -11.766	-0.000262105	  -11.7512	-0.00025349	  -11.7502	-0.000256373	  -11.7558	-0.000257323	  -11.7558	  -6.43307	
  -11.7806	-0.000268666	  -11.7659	-0.000259869	  -11.7652	-0.000262949	  -11.7706	-0.000263828	  -11.7706	   -6.5957	
  -11.7947	-0.000275264	  -11.7801	-0.000266245	  -11.7797	-0.000269583	  -11.7848	-0.000270364	  -11.7848	   -6.7591	
  -11.8082	-0.000281863	  -11.7938	-0.000272629	  -11.7935	-0.0002762	  -11.7985	-0.000276897	  -11.7985	  -6.92243	
  -11.8214	-0.000288417	   -11.807	-0.000279022	  -11.8068	-0.000282716	  -11.8117	-0.000283385	  -11.8117	  -7.08462	
   -11.834	-0.000294897	  -11.8194	-0.000285399	  -11.8194	-0.000289095	  -11.8243	-0.000289797	  -11.8243	  -7.24493	
  -11.8464	-0.000301302	  -11.8313	-0.00029176	  -11.8315	-0.000295376	  -11.8364	-0.000296146	  -11.8364	  -7.40365	
  -11.8581	-0.000307656	  -11.8425	-0.000298107	   -11.843	-0.000301635	  -11.8479	-0.000302466	  -11.8479	  -7.56165	
  -11.8696	-0.000314017	  -11.8531	-0.000304439	  -11.8541	-0.000307959	  -11.8589	-0.000308805	  -11.8589	  -7.72013	
  -11.8804	-0.000320426	  -11.8634	-0.000310762	  -11.8645	-0.000314387	  -11.8695	-0.000315192	  -11.8695	  -7.87979	
  -11.8909	-0.000326902	  -11.8734	-0.000317061	  -11.8747	-0.000320893	  -11.8797	-0.000321618	  -11.8797	  -8.04046	
  -11.9009	-0.000333419	   -11.883	-0.000323343	  -11.8843	-0.000327403	  -11.8894	-0.000328055	  -11.8894	  -8.20138	
  -11.9105	-0.000339923	  -11.8923	-0.000329603	  -11.8936	-0.000333838	  -11.8988	-0.000334455	  -11.8988	  -8.36136	
  -11.9197	-0.000346347	   -11.901	-0.000335867	  -11.9025	-0.000340156	  -11.9077	-0.00034079	  -11.9077	  -8.51974	
  -11.9283	-0.000352656	  -11.9091	-0.000342155	  -11.9109	-0.000346382	  -11.9161	-0.000347064	  -11.9161	  -8.67661	
  -11.9365	-0.000358856	  -11.9167	-0.000348453	   -11.919	-0.000352575	  -11.9241	-0.000353295	  -11.9241	  -8.83237	
  -11.9442	-0.000365025	  -11.9237	-0.000354748	  -11.9266	-0.000358796	  -11.9315	-0.000359523	  -11.9315	  -8.98808	
  -11.9515	-0.000371218	  -11.9302	-0.000361003	  -11.9337	-0.000365063	  -11.9385	-0.000365761	  -11.9385	  -9.14403	
  -11.9582	-0.0003775	  -11.9362	-0.000367211	  -11.9403	-0.000371349	  -11.9449	-0.00037202	  -11.9449	   -9.3005	
  -11.9643	-0.000383864	  -11.9418	-0.000373383	  -11.9464	-0.000377614	  -11.9509	-0.000378287	  -11.9509	  -9.45718	
  -11.9701	-0.000390246	  -11.9471	-0.000379544	  -11.9521	-0.000383821	  -11.9564	-0.000384537	  -11.9564	  -9.61343	
  -11.9752	-0.000396574	  -11.9519	-0.00038573	  -11.9573	-0.000389969	  -11.9615	-0.000390758	  -11.9615	  -9.76895	
  -11.9798	-0.000402778	  -11.9563	-0.000391933	   -11.962	-0.00039609	  -11.9661	-0.000396934	  -11.9661	  -9.92334	
   -11.984	-0.000408888	  -11.9604	-0.000398141	  -11.9663	-0.000402224	  -11.9702	-0.000403084	  -11.9702	  -10.0771	
  -11.9877	-0.000414957	   -11.964	-0.000404331	  -11.9701	-0.000408394	  -11.9739	-0.000409227	  -11.9739	  -10.2307	
   -11.991	-0.000421054	  -11.9672	-0.000410492	  -11.9735	-0.000414587	  -11.9772	-0.000415378	  -11.9772	  -10.3844	
  -11.9938	-0.000427227	    -11.97	-0.000416618	  -11.9766	-0.000420762	  -11.9801	-0.000421536	  -11.9801	  -10.5384	
  -11.9961	-0.000433456	  -11.9725	-0.000422706	  -11.9792	-0.00042688	  -11.9826	-0.000427681	  -11.9826	   -10.692	
  -11.9981	-0.000439691	  -11.9746	-0.000428761	  -11.9815	-0.000432922	  -11.9848	-0.000433791	  -11.9848	  -10.8448	
  -11.9998	-0.000445875	  -11.9765	-0.0004348	  -11.9835	-0.000438908	  -11.9866	-0.000439861	  -11.9866	  -10.9965	
  -12.0011	-0.000451971	   -11.978	-0.000440834	  -11.9852	-0.000444882	  -11.9881	-0.000445896	  -11.9881	  -11.1474	
   -12.002	-0.000457995	  -11.9793	-0.00044687	  -11.9866	-0.000450876	  -11.9893	-0.000451914	  -11.9893	  -11.2978	
  -12.0027	-0.000463984	  -11.9803	-0.00045291	  -11.9877	-0.000456909	  -11.9902	-0.000457934	  -11.9902	  -11.4484	
  -12.0032	-0.000469995	   -11.981	-0.000458939	  -11.9886	-0.000462957	  -11.9909	-0.000463964	  -11.9909	  -11.5991	
  -12.0033	-0.000476058	  -11.9816	-0.000464944	  -11.9891	-0.000468978	  -11.9913	-0.000469994	  -11.9913	  -11.7498	
  -12.0033	-0.000482161	  -11.9817	-0.000470912	  -11.9894	-0.000474932	  -11.9915	-0.000476002	  -11.9915	     -11.9	
  -12.0029	-0.000488258	  -11.9816	-0.000476853	  -11.9893	-0.00048081	  -11.9913	-0.000481974	  -11.9913	  -12.0493	
   -12.002	-0.000494294	  -11.9808	-0.00048278	  -11.9889	-0.000486628	  -11.9906	-0.000487901	  -11.9906	  -12.1975	
  -12.0006	-0.000500246	  -11.9794	-0.000488716	  -11.9878	-0.000492434	  -11.9893	-0.000493799	  -11.9893	   -12.345	
  -11.9987	-0.000506125	  -11.9775	-0.000494657	  -11.9861	-0.000498261	  -11.9875	-0.000499681	  -11.9875	   -12.492	
  -11.9963	-0.000511976	  -11.9752	-0.000500585	  -11.9837	-0.000504126	  -11.9851	-0.000505562	  -11.9851	  -12.6391	
  -11.9933	-0.000517858	  -11.9722	-0.000506475	  -11.9807	  -0.00051	  -11.9821	-0.000511444	  -11.9821	  -12.7861	
  -11.9897	-0.000523781	  -11.9686	-0.000512315	  -11.9772	-0.000515846	  -11.9785	-0.000517314	  -11.9785	  -12.9328	
  -11.9855	-0.000529721	  -11.9646	-0.000518123	  -11.9733	-0.000521628	  -11.9745	-0.000523157	  -11.9745	  -13.0789	
  -11.9809	-0.000535615	  -11.9601	-0.00052392	  -11.9689	-0.000527339	    -11.97	-0.000528958	    -11.97	   -13.224	
  -11.9759	-0.000541421	  -11.9553	-0.000529732	  -11.9642	-0.000533004	  -11.9651	-0.000534719	  -11.9651	   -13.368	
  -11.9705	-0.000547135	  -11.9501	-0.000535555	  -11.9591	-0.000538663	  -11.9599	-0.000540451	  -11.9599	  -13.5113	
  -11.9647	-0.000552795	  -11.9446	-0.000541365	  -11.9537	-0.000544341	  -11.9544	-0.000546167	  -11.9544	  -13.6542	
  -11.9586	-0.000558459	  -11.9389	-0.000547138	  -11.9481	-0.00055005	  -11.9485	-0.000551882	  -11.9485	  -13.7971	
   -11.952	-0.000564168	  -11.9329	-0.000552864	  -11.9421	-0.00055577	  -11.9423	-0.000557601	  -11.9423	    -13.94	
  -11.9448	-0.000569902	  -11.9263	-0.000558548	  -11.9354	-0.00056147	  -11.9355	-0.000563307	  -11.9355	  -14.0827	
  -11.9372	-0.000575634	  -11.9191	-0.000564215	  -11.9281	-0.000567121	  -11.9281	-0.00056899	  -11.9281	  -14.2247	
   -11.929	-0.000581306	  -11.9112	-0.000569889	  -11.9201	-0.000572711	  -11.9201	-0.000574635	  -11.9201	  -14.3659	
  -11.9201	-0.000586899	  -11.9027	-0.000575592	  -11.9115	-0.000578254	  -11.9114	-0.000580248	  -11.9114	  -14.5062	
  -11.9108	-0.000592414	  -11.8937	-0.000581328	  -11.9024	-0.000583777	  -11.9023	-0.000585839	  -11.9023	   -14.646	
   -11.901	-0.000597895	  -11.8842	-0.000587052	  -11.8929	-0.000589303	  -11.8927	-0.000591417	  -11.8927	  -14.7854	
  -11.8908	-0.000603384	  -11.8744	-0.000592697	   -11.883	-0.000594846	  -11.8827	-0.000596976	  -11.8827	  -14.9244	
  -11.8804	-0.000608895	  -11.8643	-0.00059821	  -11.8727	-0.000600393	  -11.8724	-0.000602499	  -11.8724	  -15.0625	
  -11.8694	-0.000614415	  -11.8538	-0.000603593	  -11.8618	-0.000605917	  -11.8617	-0.000607975	  -11.8617	  -15.1994	
  -11.8578	-0.000619905	  -11.8429	-0.000608899	  -11.8503	-0.000611393	  -11.8503	-0.000613399	  -11.8503	   -15.335	
  -11.8456	-0.00062534	  -11.8313	-0.00061421	  -11.8381	-0.000616814	  -11.8384	-0.000618788	  -11.8384	  -15.4697	
  -11.8328	-0.000630707	  -11.8191	-0.000619591	  -11.8253	-0.0006222	  -11.8257	-0.000624166	  -11.8257	  -15.6041	
  -11.8194	-0.00063602	  -11.8063	-0.000625083	  -11.8119	-0.000627574	  -11.8125	-0.000629559	  -11.8125	   -15.739	
  -11.8056	-0.000641309	   -11.793	-0.000630637	  -11.7981	-0.00063295	  -11.7989	-0.000634965	  -11.7989	  -15.8741	
  -11.7914	-0.000646603	  -11.7793	-0.000636176	   -11.784	-0.00063833	  -11.7849	-0.00064037	  -11.7849	  -16.0092	
  -11.7769	-0.000651907	  -11.7653	-0.000641607	  -11.7696	-0.000643694	  -11.7706	-0.000645736	  -11.7706	  -16.1434	
  -11.7621	-0.000657199	   -11.751	-0.000646901	  -11.7548	-0.000649015	   -11.756	-0.000651038	   -11.756	   -16.276	
  -11.7468	-0.000662448	  -11.7361	-0.000652071	  -11.7394	-0.000654283	  -11.7408	-0.000656267	  -11.7408	  -16.4067	
  -11.7308	-0.000667627	  -11.7205	-0.000657199	  -11.7236	-0.000659502	  -11.7249	-0.000661443	  -11.7249	  -16.5361	
  -11.7143	-0.000672745	  -11.7042	-0.000662351	  -11.7071	-0.000664695	  -11.7085	-0.000666597	  -11.7085	  -16.6649	
  -11.6973	-0.000677831	  -11.6875	-0.000667564	  -11.6902	-0.000669885	  -11.6916	-0.00067176	  -11.6916	   -16.794	
  -11.6799	-0.000682925	  -11.6703	-0.000672814	  -11.6729	-0.000675081	  -11.6744	-0.00067694	  -11.6744	  -16.9235	
  -11.6622	-0.000688041	  -11.6529	-0.000678038	  -11.6553	-0.000680276	  -11.6568	-0.000682118	  -11.6568	   -17.053	
  -11.6441	-0.000693177	  -11.6351	-0.000683192	  -11.6373	-0.000685446	  -11.6389	-0.000687272	  -11.6389	  -17.1818	
  -11.6257	-0.000698284	  -11.6168	-0.000688244	  -11.6187	-0.000690567	  -11.6204	-0.000692365	  -11.6204	  -17.3091	
  -11.6067	-0.000703339	  -11.5979	-0.00069322	  -11.5994	-0.00069563	  -11.6014	-0.000697397	  -11.6014	  -17.4349	
  -11.5872	-0.000708326	  -11.5785	-0.000698165	  -11.5796	-0.00070064	  -11.5818	-0.000702377	  -11.5818	  -17.5594	
  -11.5672	-0.000713264	  -11.5586	-0.000703119	  -11.5594	-0.000705614	  -11.5617	-0.000707332	  -11.5617	  -17.6833	
  -11.5468	-0.000718197	  -11.5383	-0.000708109	  -11.5389	-0.000710577	  -11.5414	-0.000712294	  -11.5414	  -17.8074	
  -11.5262	-0.000723128	  -11.5175	-0.000713112	  -11.5181	-0.000715534	  -11.5206	-0.000717258	  -11.5206	  -17.9315	
  -11.5051	-0.000728067	  -11.4963	-0.000718088	  -11.4966	-0.000720481	  -11.4993	-0.000722212	  -11.4993	  -18.0553	
  -11.4832	-0.000732989	  -11.4743	-0.000722993	  -11.4745	-0.000725393	  -11.4773	-0.000727125	  -11.4773	  -18.1781	
  -11.4609	-0.00073787	  -11.4518	-0.000727803	  -11.4519	-0.000730256	  -11.4549	-0.000731976	  -11.4549	  -18.2994	
  -11.4382	-0.000742705	  -11.4288	-0.000732541	  -11.4289	-0.000735058	   -11.432	-0.000736768	   -11.432	  -18.4192	
  -11.4151	-0.000747487	  -11.4054	-0.000737248	  -11.4055	-0.000739803	  -11.4087	-0.000741513	  -11.4087	  -18.5378	
  -11.3915	-0.000752225	  -11.3817	-0.000741974	  -11.3817	-0.000744511	   -11.385	-0.000746237	   -11.385	  -18.6559	
  -11.3674	-0.000756937	  -11.3574	-0.000746738	  -11.3573	-0.000749203	  -11.3607	-0.000750959	  -11.3607	   -18.774	
  -11.3427	-0.000761639	  -11.3325	-0.000751517	  -11.3323	-0.00075389	  -11.3359	-0.000755682	  -11.3359	  -18.8921	
  -11.3175	-0.000766352	  -11.3072	-0.000756269	  -11.3069	-0.000758563	  -11.3105	-0.000760395	  -11.3105	  -19.0099	
   -11.292	-0.000771063	  -11.2815	-0.000760955	  -11.2812	-0.000763199	  -11.2849	-0.000765072	  -11.2849	  -19.1268	
  -11.2659	-0.000775743	  -11.2554	-0.000765558	  -11.2552	-0.00076779	  -11.2588	-0.000769697	  -11.2588	  -19.2424	
  -11.2395	-0.00078036	   -11.229	-0.0007701	  -11.2285	-0.000772341	  -11.2323	-0.000774267	  -11.2323	  -19.3567	
  -11.2127	-0.000784897	  -11.2021	-0.000774613	  -11.2013	-0.000776859	  -11.2054	-0.000778789	  -11.2054	  -19.4697	
  -11.1853	-0.000789365	  -11.1746	-0.000779132	  -11.1736	-0.000781346	  -11.1779	-0.000783281	  -11.1779	   -19.582	
  -11.1576	-0.000793799	  -11.1468	-0.000783668	  -11.1457	-0.000785797	    -11.15	-0.000787755	    -11.15	  -19.6939	
  -11.1295	-0.000798219	  -11.1186	-0.000788198	  -11.1173	-0.000790219	  -11.1218	-0.000792212	  -11.1218	  -19.8053	
  -11.1012	-0.00080264	    -11.09	-0.000792685	  -11.0887	-0.000794624	  -11.0933	-0.000796649	  -11.0933	  -19.9162	
  -11.0723	-0.000807041	  -11.0609	-0.000797103	  -11.0595	-0.000799005	  -11.0642	-0.00080105	  -11.0642	  -20.0262	
  -11.0428	-0.000811389	  -11.0312	-0.000801445	  -11.0298	-0.000803349	  -11.0346	-0.000805395	  -11.0346	  -20.1349	
   -11.013	-0.000815678	  -11.0013	-0.000805739	  -10.9998	-0.000807646	  -11.0047	-0.000809688	  -11.0047	  -20.2422	
  -10.9828	-0.000819902	  -10.9711	-0.000810013	  -10.9694	-0.000811885	  -10.9744	-0.000813933	  -10.9744	  -20.3483	
  -10.9518	-0.000824094	  -10.9403	-0.000814293	  -10.9385	-0.000816072	  -10.9435	-0.000818153	  -10.9435	  -20.4538	
  -10.9203	-0.00082827	  -10.9089	-0.00081858	  -10.9071	-0.000820224	  -10.9121	-0.000822358	  -10.9121	  -20.5589	
  -10.8883	-0.000832438	  -10.8771	-0.000822849	  -10.8753	-0.000824361	  -10.8802	-0.000826549	  -10.8802	  -20.6637	
   -10.856	-0.000836573	   -10.845	-0.000827071	  -10.8433	-0.000828485	  -10.8481	-0.00083071	  -10.8481	  -20.7677	
  -10.8231	-0.000840662	  -10.8124	-0.000831221	   -10.811	-0.000832605	  -10.8155	-0.00083483	  -10.8155	  -20.8707	
  -10.7898	-0.000844705	  -10.7793	-0.000835297	   -10.778	-0.000836695	  -10.7824	-0.000838899	  -10.7824	  -20.9725	
   -10.756	-0.000848735	  -10.7456	-0.000839317	  -10.7446	-0.000840746	  -10.7487	-0.000842933	  -10.7487	  -21.0733	
  -10.7218	-0.000852773	  -10.7116	-0.000843306	  -10.7109	-0.000844741	  -10.7148	-0.00084694	  -10.7148	  -21.1735	
  -10.6873	-0.000856822	  -10.6775	-0.00084729	   -10.677	-0.0008487	  -10.6806	-0.000850937	  -10.6806	  -21.2734	
  -10.6521	-0.000860857	  -10.6427	-0.000851275	  -10.6424	-0.000852641	  -10.6457	-0.000854924	  -10.6457	  -21.3731	
  -10.6164	-0.000864827	  -10.6074	-0.000855252	  -10.6072	-0.000856556	  -10.6104	-0.000858878	  -10.6104	   -21.472	
  -10.5804	-0.000868702	  -10.5718	-0.000859194	  -10.5717	-0.000860444	  -10.5746	-0.00086278	  -10.5746	  -21.5695	
   -10.544	-0.00087248	  -10.5359	-0.000863068	   -10.536	-0.000864284	  -10.5386	-0.000866611	  -10.5386	  -21.6653	
  -10.5073	-0.00087619	  -10.4994	-0.00086685	  -10.4997	-0.000868082	  -10.5022	-0.000870374	  -10.5022	  -21.7594	
  -10.4703	-0.000879883	  -10.4624	-0.000870544	  -10.4629	-0.000871838	  -10.4652	-0.000874088	  -10.4652	  -21.8522	
  -10.4328	-0.00088359	   -10.425	-0.000874176	  -10.4257	-0.000875563	  -10.4278	-0.000877776	  -10.4278	  -21.9444	
  -10.3951	-0.000887315	  -10.3872	-0.000877795	  -10.3883	-0.000879267	  -10.3902	-0.000881459	  -10.3902	  -22.0365	
  -10.3571	-0.000891037	  -10.3491	-0.000881434	  -10.3503	-0.000882942	  -10.3522	-0.000885138	  -10.3522	  -22.1285	
  -10.3185	-0.000894719	  -10.3105	-0.0008851	  -10.3117	-0.000886587	  -10.3136	-0.000888802	  -10.3136	  -22.2201	
  -10.2795	-0.00089833	  -10.2715	-0.000888774	  -10.2728	-0.000890197	  -10.2746	-0.000892434	  -10.2746	  -22.3108	
  -10.2402	-0.000901857	  -10.2322	-0.000892417	  -10.2335	-0.000893791	  -10.2353	-0.000896022	  -10.2353	  -22.4005	
  -10.2004	-0.000905315	  -10.1924	-0.000896004	  -10.1936	-0.000897353	  -10.1955	-0.000899557	  -10.1955	  -22.4889	
  -10.1601	-0.000908729	  -10.1523	-0.000899533	  -10.1532	-0.000900871	  -10.1552	-0.000903044	  -10.1552	  -22.5761	
  -10.1194	-0.000912127	  -10.1119	-0.000903013	  -10.1124	-0.00090432	  -10.1146	-0.000906486	  -10.1146	  -22.6622	
  -10.0785	-0.000915524	  -10.0711	-0.000906462	  -10.0714	-0.000907687	  -10.0737	-0.000909891	  -10.0737	  -22.7473	
  -10.0369	-0.000918913	  -10.0297	-0.000909903	  -10.0297	-0.000910991	  -10.0321	-0.000913269	  -10.0321	  -22.8317	
  -9.99493	-0.000922264	  -9.98776	-0.000913337	  -9.98762	-0.000914255	  -9.99011	-0.000916619	  -9.99011	  -22.9155	
  -9.95264	-0.000925549	  -9.94554	-0.000916748	  -9.94527	-0.000917524	  -9.94781	-0.00091994	  -9.94781	  -22.9985	
  -9.90996	-0.000928759	  -9.90292	-0.000920101	   -9.9027	-0.000920801	  -9.90519	-0.00092322	  -9.90519	  -23.0805	
  -9.86668	-0.000931902	   -9.8597	-0.000923378	  -9.85955	-0.000924075	  -9.86197	-0.000926452	  -9.86197	  -23.1613	
  -9.82299	-0.000935006	  -9.81607	-0.000926581	  -9.81601	-0.000927316	  -9.81836	-0.000929634	  -9.81836	  -23.2409	
   -9.7791	-0.000938093	  -9.77224	-0.000929727	  -9.77215	-0.000930484	   -9.7745	-0.000932768	   -9.7745	  -23.3192	
  -9.73476	-0.00094118	   -9.7281	-0.000932858	  -9.72774	-0.000933579	   -9.7302	-0.000935872	   -9.7302	  -23.3968	
  -9.68991	-0.000944251	  -9.68342	-0.000936012	  -9.68285	-0.000936611	  -9.68539	-0.000938958	  -9.68539	   -23.474	
  -9.64447	-0.000947286	  -9.63843	-0.000939197	  -9.63768	-0.000939592	  -9.64019	-0.000942025	  -9.64019	  -23.5506	
  -9.59881	-0.000950259	  -9.59316	-0.000942392	  -9.59243	-0.000942553	   -9.5948	-0.000945068	   -9.5948	  -23.6267	
  -9.55282	-0.000953157	   -9.5474	-0.000945547	  -9.54657	-0.000945483	  -9.54893	-0.000948063	  -9.54893	  -23.7016	
  -9.50643	-0.000956002	  -9.50122	-0.000948627	  -9.50034	-0.000948385	  -9.50266	-0.000951005	  -9.50266	  -23.7751	
  -9.45985	-0.000958825	  -9.45483	-0.000951613	  -9.45392	-0.000951261	   -9.4562	-0.000953899	   -9.4562	  -23.8475	
  -9.41298	-0.000961655	  -9.40786	-0.000954521	  -9.40696	-0.000954115	  -9.40926	-0.000956764	  -9.40926	  -23.9191	
  -9.36561	-0.000964497	  -9.36053	-0.000957394	  -9.35953	-0.000956964	  -9.36189	-0.000959618	  -9.36189	  -23.9905	
  -9.31796	-0.000967331	   -9.3129	-0.000960273	  -9.31171	-0.00095979	  -9.31419	-0.000962465	  -9.31419	  -24.0616	
  -9.27008	-0.000970119	  -9.26491	-0.000963167	  -9.26357	-0.00096258	  -9.26619	-0.000965289	  -9.26619	  -24.1322	
  -9.22175	-0.000972831	  -9.21648	-0.000966063	  -9.21504	-0.000965308	  -9.21776	-0.000968068	  -9.21776	  -24.2017	
  -9.17306	-0.000975459	  -9.16769	-0.00096893	  -9.16619	-0.000967963	  -9.16898	-0.000970784	  -9.16898	  -24.2696	
  -9.12407	-0.000978039	  -9.11861	-0.000971731	  -9.11722	-0.000970561	  -9.11997	-0.000973443	  -9.11997	  -24.3361	
  -9.07471	-0.000980595	  -9.06916	-0.000974457	  -9.06791	-0.000973142	  -9.07059	-0.000976064	  -9.07059	  -24.4016	
  -9.02493	-0.000983166	  -9.01929	-0.000977117	   -9.0182	-0.000975713	   -9.0208	-0.000978665	   -9.0208	  -24.4666	
  -8.97479	-0.000985749	  -8.96908	-0.000979745	  -8.96829	-0.000978293	  -8.97072	-0.000981262	  -8.97072	  -24.5316	
  -8.92437	-0.000988306	  -8.91859	-0.000982367	  -8.91798	-0.000980852	  -8.92031	-0.000983842	  -8.92031	   -24.596	
  -8.87348	-0.000990795	  -8.86763	-0.000984984	  -8.86722	-0.000983365	  -8.86944	-0.000986381	  -8.86944	  -24.6595	
  -8.82233	-0.000993181	  -8.81643	-0.000987588	  -8.81622	-0.000985807	  -8.81833	-0.000988859	  -8.81833	  -24.7215	
  -8.77101	-0.000995489	  -8.76477	-0.000990149	  -8.76505	-0.000988171	  -8.76694	-0.00099127	  -8.76694	  -24.7817	
  -8.71929	-0.000997755	  -8.71275	-0.00099265	  -8.71337	-0.000990481	  -8.71514	-0.000993629	  -8.71514	  -24.8407	
  -8.66726	-0.00100003	  -8.66045	-0.000995083	  -8.66141	-0.00099275	  -8.66304	-0.000995955	  -8.66304	  -24.8989	
  -8.61514	-0.00100234	  -8.60781	-0.000997454	  -8.60923	-0.000994995	  -8.61073	-0.000998262	  -8.61073	  -24.9566	
  -8.56258	-0.00100465	  -8.55491	-0.000999781	  -8.55665	-0.000997217	  -8.55805	-0.00100055	  -8.55805	  -25.0138	
  -8.50967	-0.00100694	   -8.5017	-0.00100206	  -8.50374	-0.000999411	  -8.50504	-0.0010028	  -8.50504	    -25.07	
  -8.45635	-0.00100914	  -8.44839	-0.0010043	  -8.45073	-0.00100158	  -8.45182	-0.00100501	  -8.45182	  -25.1252	
  -8.40272	-0.00101125	  -8.39463	-0.00100653	  -8.39726	-0.00100373	  -8.39821	-0.00100717	  -8.39821	  -25.1793	
  -8.34873	-0.0010133	  -8.34053	-0.00100875	  -8.34345	-0.00100587	  -8.34424	-0.00100931	  -8.34424	  -25.2326	
   -8.2946	-0.00101532	  -8.28617	-0.00101097	   -8.2895	-0.00100798	  -8.29009	-0.00101142	  -8.29009	  -25.2855	
  -8.23999	-0.00101735	  -8.23149	-0.00101316	  -8.23523	-0.00101005	  -8.23557	-0.00101352	  -8.23557	   -25.338	
  -8.18501	-0.00101941	  -8.17646	-0.00101533	  -8.18057	-0.00101206	  -8.18068	-0.0010156	  -8.18068	    -25.39	
  -8.12974	-0.00102144	   -8.1213	-0.00101744	  -8.12576	-0.00101401	   -8.1256	-0.00101763	   -8.1256	  -25.4408	
  -8.07402	-0.00102341	  -8.06568	-0.00101948	  -8.07075	-0.00101591	  -8.07015	-0.0010196	  -8.07015	    -25.49	
  -8.01793	-0.00102526	  -8.00969	-0.00102141	  -8.01533	-0.00101779	  -8.01431	-0.00102149	  -8.01431	  -25.5372	
  -7.96172	-0.00102699	  -7.95357	-0.00102327	  -7.95974	-0.00101966	  -7.95834	-0.00102331	  -7.95834	  -25.5827	
  -7.90491	-0.00102867	  -7.89713	-0.00102509	  -7.90378	-0.00102154	  -7.90194	-0.0010251	  -7.90194	  -25.6275	
  -7.84776	-0.00103038	  -7.84033	-0.0010269	  -7.84742	-0.00102339	  -7.84517	-0.00102689	  -7.84517	  -25.6723	
  -7.79036	-0.00103216	   -7.7834	-0.00102873	  -7.79063	-0.00102521	  -7.78813	-0.0010287	  -7.78813	  -25.7174	
  -7.73255	-0.00103399	  -7.72601	-0.00103056	  -7.73336	-0.00102695	  -7.73064	-0.0010305	  -7.73064	  -25.7626	
  -7.67442	-0.00103582	  -7.66827	-0.00103237	  -7.67574	-0.00102863	  -7.67281	-0.00103227	  -7.67281	  -25.8068	
  -7.61608	-0.00103755	  -7.61028	-0.00103413	  -7.61773	-0.00103025	   -7.6147	-0.00103398	   -7.6147	  -25.8494	
  -7.55735	-0.00103911	  -7.55187	-0.0010358	  -7.55956	-0.00103186	  -7.55626	-0.00103559	  -7.55626	  -25.8897	
  -7.49833	-0.00104049	  -7.49329	-0.00103738	  -7.50107	-0.00103346	  -7.49756	-0.00103711	  -7.49756	  -25.9277	
  -7.43914	-0.00104178	  -7.43448	-0.00103889	  -7.44248	-0.00103507	   -7.4387	-0.00103858	   -7.4387	  -25.9645	
  -7.37944	-0.00104307	  -7.37555	-0.00104037	  -7.38333	-0.00103665	  -7.37944	-0.00104003	  -7.37944	  -26.0008	
  -7.31951	-0.00104447	   -7.3163	-0.00104184	  -7.32375	-0.00103819	  -7.31985	-0.0010415	  -7.31985	  -26.0374	
   -7.2593	-0.00104596	  -7.25685	-0.00104328	  -7.26372	-0.00103964	  -7.25995	-0.00104296	  -7.25995	   -26.074	
  -7.19865	-0.00104749	  -7.19687	-0.0010447	  -7.20322	-0.00104102	  -7.19958	-0.0010444	  -7.19958	    -26.11	
  -7.13781	-0.00104893	  -7.13664	-0.00104606	  -7.14251	-0.00104234	  -7.13898	-0.00104578	  -7.13898	  -26.1444	
  -7.07661	-0.00105021	  -7.07625	-0.00104733	  -7.08155	-0.00104363	  -7.07813	-0.00104706	  -7.07813	  -26.1764	
  -7.01502	-0.00105131	  -7.01538	-0.0010485	  -7.02017	-0.00104492	  -7.01686	-0.00104824	  -7.01686	   -26.206	
  -6.95331	-0.0010523	  -6.95431	-0.0010496	  -6.95864	-0.00104619	  -6.95542	-0.00104937	  -6.95542	  -26.2342	
   -6.8913	-0.00105329	  -6.89299	-0.0010507	  -6.89692	-0.00104744	  -6.89374	-0.00105048	  -6.89374	  -26.2619	
  -6.82897	-0.00105435	  -6.83127	-0.00105182	  -6.83483	-0.00104858	  -6.83169	-0.00105159	  -6.83169	  -26.2896	
  -6.76657	-0.0010555	  -6.76939	-0.00105297	  -6.77263	-0.00104962	  -6.76953	-0.0010527	  -6.76953	  -26.3174	
  -6.70378	-0.00105666	  -6.70732	-0.00105408	  -6.71016	-0.00105058	  -6.70709	-0.00105378	  -6.70709	  -26.3444	
  -6.64074	-0.00105775	   -6.6449	-0.00105512	  -6.64737	-0.00105152	  -6.64434	-0.0010548	  -6.64434	    -26.37	
   -6.5774	-0.00105871	  -6.58237	-0.00105602	  -6.58427	-0.00105249	  -6.58135	-0.00105574	  -6.58135	  -26.3935	
  -6.51377	-0.0010595	  -6.51957	-0.0010568	  -6.52081	-0.0010535	  -6.51805	-0.0010566	  -6.51805	   -26.415	
  -6.44995	-0.00106019	  -6.45647	-0.00105756	  -6.45714	-0.0010545	  -6.45452	-0.00105741	  -6.45452	  -26.4354	
  -6.38592	-0.00106086	  -6.39306	-0.00105831	  -6.39323	-0.00105542	  -6.39073	-0.0010582	  -6.39073	  -26.4549	
  -6.32165	-0.00106158	  -6.32917	-0.00105912	  -6.32891	-0.0010562	  -6.32657	-0.00105897	  -6.32657	  -26.4742	
  -6.25726	-0.00106238	  -6.26508	-0.00105993	  -6.26446	-0.00105683	  -6.26227	-0.00105971	  -6.26227	  -26.4928	
  -6.19259	-0.00106321	  -6.20063	-0.00106069	   -6.1997	-0.00105737	  -6.19764	-0.00106042	  -6.19764	  -26.5105	
  -6.12763	-0.00106397	  -6.13582	-0.00106134	  -6.13464	-0.00105788	   -6.1327	-0.00106106	   -6.1327	  -26.5266	
  -6.06262	-0.00106461	  -6.07077	-0.00106188	  -6.06953	-0.00105844	  -6.06764	-0.00106164	  -6.06764	   -26.541	
  -5.99727	-0.00106511	  -6.00532	-0.00106234	  -6.00406	-0.00105906	  -6.00222	-0.00106217	  -6.00222	  -26.5542	
  -5.93171	-0.00106551	  -5.93961	-0.0010628	  -5.93836	-0.0010597	  -5.93656	-0.00106267	  -5.93656	  -26.5668	
  -5.86604	-0.0010659	  -5.87364	-0.00106329	  -5.87256	-0.00106028	  -5.87075	-0.00106316	  -5.87075	  -26.5789	
  -5.79998	-0.00106633	  -5.80737	-0.0010638	  -5.80649	-0.00106075	  -5.80462	-0.00106363	  -5.80462	  -26.5907	
  -5.73379	-0.00106683	  -5.74095	-0.00106429	  -5.74028	-0.00106108	  -5.73834	-0.00106406	  -5.73834	  -26.6016	
  -5.66719	-0.00106734	  -5.67422	-0.0010647	  -5.67391	-0.0010613	  -5.67177	-0.00106445	  -5.67177	  -26.6111	
   -5.6003	-0.00106781	  -5.60717	 -0.001065	  -5.60721	-0.00106149	  -5.60489	-0.00106477	  -5.60489	  -26.6192	
  -5.53339	-0.00106818	  -5.53994	-0.00106522	  -5.54047	-0.00106171	  -5.53793	-0.00106504	  -5.53793	  -26.6259	
  -5.46617	-0.00106842	  -5.47237	-0.00106539	  -5.47337	-0.00106197	  -5.47064	-0.00106526	  -5.47064	  -26.6315	
  -5.39877	-0.00106858	   -5.4046	-0.00106556	  -5.40606	-0.00106224	  -5.40315	-0.00106546	  -5.40315	  -26.6365	
  -5.33118	-0.00106872	  -5.33677	-0.00106575	  -5.33866	-0.00106246	  -5.33554	-0.00106564	  -5.33554	   -26.641	
  -5.26324	-0.00106889	   -5.2687	-0.00106594	  -5.27088	-0.00106257	  -5.26761	-0.0010658	  -5.26761	  -26.6449	
  -5.19523	-0.00106911	  -5.20053	-0.00106609	    -5.203	-0.00106256	  -5.19958	-0.00106592	  -5.19958	  -26.6481	
  -5.12685	-0.00106936	  -5.13224	-0.00106617	  -5.13471	-0.00106247	  -5.13127	 -0.001066	  -5.13127	    -26.65	
  -5.05839	-0.00106956	  -5.06369	-0.00106617	  -5.06618	-0.00106234	  -5.06275	-0.00106602	  -5.06275	  -26.6506	
  -4.98983	-0.00106968	  -4.99513	-0.00106609	  -4.99738	-0.00106222	  -4.99411	 -0.001066	  -4.99411	    -26.65	
  -4.92101	-0.0010697	  -4.92628	-0.00106597	  -4.92819	-0.00106213	  -4.92516	-0.00106593	  -4.92516	  -26.6483	
  -4.85206	-0.00106964	  -4.85726	-0.00106585	   -4.8589	-0.00106203	  -4.85607	-0.00106584	  -4.85607	  -26.6461	
  -4.78285	-0.00106955	  -4.78808	-0.00106575	  -4.78961	-0.00106191	  -4.78684	-0.00106574	  -4.78684	  -26.6434	
  -4.71336	-0.00106948	  -4.71858	-0.00106565	  -4.72004	-0.00106173	  -4.71733	-0.00106562	  -4.71733	  -26.6405	
  -4.64389	-0.00106944	  -4.64891	-0.00106553	  -4.65046	-0.00106148	  -4.64775	-0.00106548	  -4.64775	  -26.6371	
  -4.57425	-0.0010694	  -4.57906	-0.00106534	  -4.58058	-0.00106118	  -4.57797	-0.0010653	  -4.57797	  -26.6326	
  -4.50446	-0.00106931	  -4.50903	-0.00106506	  -4.51054	-0.00106082	  -4.50801	-0.00106506	  -4.50801	  -26.6266	
  -4.43449	-0.00106914	  -4.43895	-0.00106469	  -4.44034	-0.00106041	  -4.43793	-0.00106475	  -4.43793	  -26.6187	
  -4.36435	-0.00106888	  -4.36853	-0.00106428	  -4.37011	-0.00105995	  -4.36766	-0.00106437	  -4.36766	  -26.6093	
  -4.29417	-0.00106855	  -4.29805	-0.00106387	  -4.29941	-0.00105945	  -4.29721	-0.00106396	  -4.29721	   -26.599	
  -4.22379	-0.00106819	  -4.22751	-0.00106348	  -4.22882	-0.00105892	  -4.22671	-0.00106353	  -4.22671	  -26.5882	
  -4.15322	-0.00106781	  -4.15674	-0.00106308	   -4.1579	-0.00105838	  -4.15595	-0.00106309	  -4.15595	  -26.5772	
  -4.08258	-0.00106741	  -4.08604	-0.00106265	  -4.08707	-0.00105781	  -4.08523	-0.00106262	  -4.08523	  -26.5656	
   -4.0116	-0.00106698	  -4.01496	-0.00106215	  -4.01591	-0.00105723	  -4.01416	-0.00106212	  -4.01416	   -26.553	
  -3.94057	-0.00106653	   -3.9438	-0.00106156	  -3.94469	-0.00105661	  -3.94302	-0.00106157	  -3.94302	  -26.5392	
  -3.86919	-0.00106606	  -3.87255	-0.0010609	  -3.87327	-0.00105594	  -3.87167	-0.00106097	  -3.87167	  -26.5242	
  -3.79748	-0.00106562	  -3.80119	-0.0010602	  -3.80165	-0.00105521	  -3.80011	-0.00106034	  -3.80011	  -26.5085	
  -3.72518	-0.00106519	  -3.72987	-0.00105948	  -3.72957	-0.00105441	  -3.72821	-0.00105969	  -3.72821	  -26.4923	
  -3.65261	-0.00106471	  -3.65815	-0.00105877	  -3.65759	-0.00105357	  -3.65612	-0.00105902	  -3.65612	  -26.4754	
  -3.58019	-0.00106411	  -3.58633	-0.00105805	  -3.58556	-0.0010527	  -3.58403	-0.00105829	  -3.58403	  -26.4572	
  -3.50803	-0.00106334	  -3.51426	-0.00105729	  -3.51346	-0.00105183	  -3.51192	-0.00105749	  -3.51192	  -26.4372	
  -3.43636	-0.00106243	  -3.44195	-0.00105646	  -3.44117	-0.00105097	  -3.43983	-0.00105662	  -3.43983	  -26.4155	
    -3.365	-0.00106145	  -3.36956	-0.00105553	  -3.36881	-0.0010501	  -3.36779	-0.00105569	  -3.36779	  -26.3924	
  -3.29349	-0.00106052	  -3.29693	-0.00105453	  -3.29611	-0.00104917	  -3.29551	-0.00105474	  -3.29551	  -26.3685	
  -3.22184	-0.0010597	  -3.22422	-0.00105349	  -3.22336	-0.00104814	  -3.22314	-0.00105378	  -3.22314	  -26.3444	
  -3.14977	-0.00105896	  -3.15142	-0.00105247	  -3.15042	-0.00104699	  -3.15054	-0.00105281	  -3.15054	  -26.3202	
   -3.0773	-0.0010582	   -3.0784	-0.00105146	   -3.0773	-0.00104576	  -3.07767	-0.00105181	  -3.07767	  -26.2952	
  -3.00446	-0.00105732	  -3.00543	-0.00105046	  -3.00414	-0.0010445	  -3.00468	-0.00105076	  -3.00468	   -26.269	
  -2.93127	-0.00105625	  -2.93224	-0.0010494	  -2.93094	-0.00104327	  -2.93148	-0.00104964	  -2.93148	   -26.241	
  -2.85803	-0.00105502	  -2.85897	-0.00104825	  -2.85768	-0.00104209	  -2.85823	-0.00104845	  -2.85823	  -26.2114	
  -2.78472	-0.00105373	  -2.78561	 -0.001047	  -2.78438	-0.00104094	   -2.7849	-0.00104722	   -2.7849	  -26.1806	
  -2.71149	-0.00105247	  -2.71217	-0.00104567	  -2.71088	-0.00103976	  -2.71151	-0.00104597	  -2.71151	  -26.1491	
  -2.63831	-0.00105128	  -2.63878	-0.00104432	  -2.63747	-0.00103848	  -2.63819	-0.00104469	  -2.63819	  -26.1173	
  -2.56518	-0.00105014	  -2.56516	-0.00104301	  -2.56386	-0.00103705	  -2.56473	-0.0010434	  -2.56473	   -26.085	
  -2.49195	-0.00104897	  -2.49146	-0.00104171	  -2.49021	-0.00103551	  -2.49121	-0.00104206	  -2.49121	  -26.0515	
  -2.41848	-0.00104768	  -2.41796	-0.00104039	  -2.41663	-0.00103392	  -2.41769	-0.00104066	  -2.41769	  -26.0166	
  -2.34493	-0.00104621	  -2.34435	 -0.001039	  -2.34313	-0.00103238	  -2.34413	-0.0010392	  -2.34413	    -25.98	
  -2.27142	-0.00104462	  -2.27077	-0.0010375	  -2.26968	-0.00103091	  -2.27062	-0.00103768	  -2.27062	  -25.9419	
  -2.19768	-0.00104296	  -2.19695	-0.00103591	  -2.19587	-0.00102946	  -2.19683	-0.00103611	  -2.19683	  -25.9027	
  -2.12386	-0.00104133	  -2.12303	-0.00103424	  -2.12199	-0.00102797	  -2.12296	-0.00103451	  -2.12296	  -25.8629	
  -2.05022	-0.00103976	  -2.04915	-0.00103256	  -2.04818	-0.00102637	  -2.04918	-0.0010329	  -2.04918	  -25.8224	
  -1.97648	-0.00103805	  -1.97503	-0.00103087	  -1.97429	-0.00102457	  -1.97527	-0.00103116	  -1.97527	   -25.779	
   -1.9025	-0.00103628	  -1.90082	-0.00102913	  -1.90046	-0.00102267	  -1.90126	-0.00102936	  -1.90126	   -25.734	
  -1.82816	-0.00103448	  -1.82639	-0.00102736	   -1.8264	-0.00102077	  -1.82698	-0.00102754	  -1.82698	  -25.6884	
  -1.75376	-0.00103266	  -1.75189	-0.00102555	  -1.75228	-0.00101892	  -1.75264	-0.00102571	  -1.75264	  -25.6428	
