# User: ACHyster
# File name: C:/ACHYSTER/ACHyster SENS/SHAMS/CoFe2O4-1gl-water-32 Glycerol-Sens-07-03-2023/CoFe2O4-1gl-water-32 Glycerol- 10_100F- 12 kAm -Sens-07-03-20230003#1.txt
# Saved at: ma. mar. 7 16:00:37 2023
# Hyster Loop (3 iterations). Intensity: 12.0 kA/m; Tuned frequency: 41.9 kHz
# Units x axis: (kA/m)
# Units y axis: "Repeats y" & "Average y" (10^(-3)Am^2); "Mass avg y" (Am^2/kg)
# Magnetic mass: 4e-05 g
# Parameter      	Repeat   1	Repeat   2	Repeat   3	Average   	Sigma     
# H_C (kA/m)     	      10.7	      10.8	      10.7	      10.7	       0.1
# M_R (Am^2/kg)  	      27.5	      26.8	      26.9	      27.1	       0.3
# M_max (Am^2/kg)	      14.0	      12.9	      14.0	      13.6	       0.5
# Area (mJ/kg)   	    1292.9	    1256.5	    1267.2	    1272.2	      15.3
# SAR (W/g)      	      54.2	      52.7	      53.1	      53.3	       0.6
#Repeat 1 x	Repeat 1 y	Repeat 2 x	Repeat 2 y	Repeat 3 x	Repeat 3 y	Average x 	Average y 	Mass avg x 	Mass avg y 
  -1.74749	-0.00116781	   -1.7389	-0.00112634	    -1.744	-0.00114695	  -1.74346	-0.00114703	  -1.74346	  -28.6759	
  -1.67275	-0.00116539	  -1.66456	-0.00112425	  -1.66919	-0.00114472	  -1.66884	-0.00114479	  -1.66884	  -28.6197	
   -1.5981	-0.00116299	  -1.59028	-0.00112212	  -1.59436	-0.00114254	  -1.59425	-0.00114255	  -1.59425	  -28.5637	
  -1.52324	-0.00116057	  -1.51588	-0.00111994	  -1.51955	-0.00114023	  -1.51956	-0.00114024	  -1.51956	  -28.5061	
  -1.44835	-0.00115807	  -1.44141	-0.00111772	  -1.44469	-0.00113767	  -1.44482	-0.00113782	  -1.44482	  -28.4455	
  -1.37347	-0.00115546	  -1.36703	-0.00111547	  -1.36973	-0.00113491	  -1.37008	-0.00113528	  -1.37008	  -28.3821	
  -1.29854	-0.00115275	  -1.29244	-0.00111321	  -1.29461	-0.00113213	  -1.29519	-0.0011327	  -1.29519	  -28.3174	
   -1.2237	  -0.00115	  -1.21781	-0.00111089	  -1.21958	-0.00112946	  -1.22037	-0.00113012	  -1.22037	  -28.2529	
  -1.14878	-0.00114727	  -1.14309	-0.00110847	   -1.1447	-0.00112691	  -1.14553	-0.00112755	  -1.14553	  -28.1888	
  -1.07383	-0.00114454	  -1.06832	-0.00110598	  -1.06978	-0.00112435	  -1.07064	-0.00112496	  -1.07064	   -28.124	
   -0.9989	-0.00114177	 -0.993746	-0.00110344	 -0.994864	-0.00112166	 -0.995837	-0.00112229	 -0.995837	  -28.0572	
 -0.923917	-0.0011389	 -0.918987	-0.00110088	 -0.919782	-0.00111877	 -0.920895	-0.00111952	 -0.920895	   -27.988	
 -0.849035	-0.00113597	 -0.844305	-0.00109833	 -0.844595	-0.00111577	 -0.845978	-0.00111669	 -0.845978	  -27.9172	
 -0.774078	 -0.001133	 -0.769526	-0.00109575	 -0.769458	-0.00111276	 -0.771021	-0.00111384	 -0.771021	  -27.8459	
 -0.699094	-0.00113003	 -0.694698	-0.00109307	 -0.694304	-0.00110985	 -0.696032	-0.00111099	 -0.696032	  -27.7746	
 -0.624129	-0.00112709	 -0.619974	-0.0010903	 -0.619072	-0.00110698	 -0.621058	-0.00110813	 -0.621058	  -27.7031	
 -0.549011	-0.00112412	 -0.545069	-0.00108746	 -0.543705	-0.00110407	 -0.545928	-0.00110522	 -0.545928	  -27.6305	
 -0.474005	-0.00112107	  -0.47025	-0.00108459	 -0.468364	-0.00110102	 -0.470873	-0.00110223	 -0.470873	  -27.5557	
  -0.39883	-0.00111792	 -0.395342	-0.00108173	  -0.39288	-0.0010978	 -0.395684	-0.00109915	 -0.395684	  -27.4788	
 -0.323645	-0.00111471	 -0.320392	-0.00107885	 -0.317411	-0.0010945	 -0.320483	-0.00109602	 -0.320483	  -27.4005	
 -0.248392	-0.00111148	 -0.245449	-0.00107589	 -0.241897	-0.00109123	 -0.245246	-0.00109287	 -0.245246	  -27.3216	
 -0.173014	-0.00110825	 -0.170343	-0.00107283	 -0.166281	-0.00108803	 -0.169879	-0.0010897	 -0.169879	  -27.2426	
-0.0977761	-0.00110503	-0.0953415	-0.00106968	-0.0908255	-0.00108486	-0.0946477	-0.00108652	-0.0946477	  -27.1631	
-0.0222878	-0.00110178	-0.0202677	-0.00106651	-0.0151407	-0.00108162	-0.0192321	-0.0010833	-0.0192321	  -27.0825	
 0.0531757	-0.00109843	 0.0548309	-0.00106337	 0.0604998	-0.00107822	 0.0561688	-0.00108001	 0.0561688	  -27.0002	
  0.128677	-0.00109499	  0.130014	-0.00106026	  0.135845	-0.00107467	  0.131512	-0.00107664	  0.131512	   -26.916	
  0.204275	-0.00109147	  0.205338	-0.00105712	  0.211297	-0.00107105	   0.20697	-0.00107321	   0.20697	  -26.8303	
  0.279708	-0.00108792	  0.280663	-0.00105388	  0.286592	-0.00106745	  0.282321	-0.00106975	  0.282321	  -26.7438	
  0.355155	-0.0010844	   0.35603	-0.00105053	  0.362016	-0.00106392	  0.357734	-0.00106628	  0.357734	   -26.657	
  0.430573	-0.0010809	  0.431394	-0.00104712	  0.437411	-0.00106038	  0.433126	-0.0010628	  0.433126	  -26.5699	
  0.505918	-0.00107736	  0.506709	-0.00104372	  0.512732	-0.00105674	  0.508453	-0.00105927	  0.508453	  -26.4818	
  0.581363	-0.00107373	  0.582041	-0.00104035	  0.588048	-0.00105295	  0.583817	-0.00105568	  0.583817	  -26.3919	
  0.656646	  -0.00107	   0.65724	-0.00103698	  0.663313	-0.00104905	  0.659066	-0.00105201	  0.659066	  -26.3002	
  0.731947	-0.00106619	  0.732483	-0.00103353	  0.738807	-0.00104513	  0.734412	-0.00104828	  0.734412	  -26.2071	
  0.807221	-0.00106236	  0.807726	-0.00102999	  0.814257	-0.00104126	  0.809735	-0.00104454	  0.809735	  -26.1134	
  0.882427	-0.00105855	  0.882714	-0.00102636	  0.889515	-0.00103744	  0.884885	-0.00104078	  0.884885	  -26.0195	
  0.957739	-0.00105474	  0.957848	-0.00102267	  0.964872	-0.00103357	  0.960153	-0.00103699	  0.960153	  -25.9248	
     1.033	-0.0010509	   1.03286	-0.00101892	   1.04017	-0.00102958	   1.03534	-0.00103313	   1.03534	  -25.8283	
   1.10827	-0.00104699	   1.10793	-0.00101516	   1.11569	-0.00102544	   1.11063	-0.0010292	   1.11063	  -25.7299	
   1.18352	-0.00104301	   1.18302	-0.0010114	   1.19126	-0.00102122	   1.18593	-0.00102521	   1.18593	  -25.6303	
   1.25869	-0.00103897	   1.25807	-0.00100763	   1.26662	-0.00101702	   1.26113	-0.00102121	   1.26113	  -25.5301	
   1.33387	-0.00103489	   1.33315	-0.00100381	   1.34206	-0.00101288	   1.33636	-0.00101719	   1.33636	  -25.4298	
   1.40889	-0.00103079	   1.40811	-0.000999915	   1.41742	-0.00100875	   1.41147	-0.00101315	   1.41147	  -25.3288	
   1.48383	-0.00102667	   1.48303	-0.000995923	   1.49278	-0.00100454	   1.48655	-0.00100904	   1.48655	  -25.2261	
   1.55877	-0.00102251	   1.55797	-0.00099187	   1.56809	-0.00100019	   1.56161	-0.00100486	   1.56161	  -25.1214	
   1.63355	-0.00101831	   1.63278	-0.000987807	    1.6431	-0.000995723	   1.63648	-0.00100061	   1.63648	  -25.0153	
   1.70847	-0.00101405	   1.70764	-0.000983755	   1.71821	-0.000991231	   1.71144	-0.000996347	   1.71144	  -24.9087	
   1.78326	-0.00100976	    1.7824	-0.000979693	   1.79317	-0.000986782	   1.78628	-0.000992077	   1.78628	  -24.8019	
   1.85789	-0.00100542	   1.85713	-0.000975562	   1.86805	-0.000982381	   1.86102	-0.000987789	   1.86102	  -24.6947	
   1.93254	-0.00100106	    1.9319	-0.000971333	   1.94291	-0.00097796	   1.93579	-0.000983451	   1.93579	  -24.5863	
   2.00697	-0.000996668	   2.00646	-0.000967018	   2.01762	-0.000973439	   2.01035	-0.000979042	   2.01035	   -24.476	
   2.08134	-0.000992236	   2.08099	-0.000962665	   2.09245	-0.000968785	   2.08493	-0.000974562	   2.08493	   -24.364	
   2.15564	-0.000987753	   2.15545	-0.000958308	   2.16716	-0.000964038	   2.15941	-0.000970033	   2.15941	  -24.2508	
   2.22983	-0.000983214	    2.2298	-0.000953947	   2.24169	-0.000959278	   2.23377	-0.00096548	   2.23377	   -24.137	
   2.30408	-0.000978637	    2.3041	-0.000949548	   2.31625	-0.000954564	   2.30814	-0.000960916	   2.30814	  -24.0229	
   2.37814	-0.000974045	   2.37823	-0.000945079	   2.39057	-0.000949881	   2.38232	-0.000956335	   2.38232	  -23.9084	
   2.45199	-0.000969442	   2.45227	-0.000940529	   2.46485	-0.00094516	   2.45637	-0.00095171	   2.45637	  -23.7928	
   2.52582	-0.000964807	    2.5263	-0.000935921	   2.53905	-0.000940333	   2.53039	-0.00094702	   2.53039	  -23.6755	
   2.59938	-0.000960112	   2.60016	-0.000931286	   2.61293	-0.000935388	   2.60416	-0.000942262	   2.60416	  -23.5566	
   2.67276	-0.00095535	   2.67384	-0.000926646	   2.68678	-0.000930377	    2.6778	-0.000937458	    2.6778	  -23.4364	
   2.74605	-0.000950538	   2.74742	-0.000921992	   2.76048	-0.000925374	   2.75132	-0.000932635	   2.75132	  -23.3159	
    2.8192	-0.000945714	   2.82066	-0.000917314	   2.83399	-0.000920414	   2.82462	-0.000927814	   2.82462	  -23.1953	
   2.89232	-0.000940891	   2.89386	-0.000912582	   2.90739	-0.000915463	   2.89786	-0.000922979	   2.89786	  -23.0745	
   2.96525	-0.000936026	   2.96689	-0.000907779	   2.98056	-0.000910453	    2.9709	-0.000918086	    2.9709	  -22.9522	
   3.03818	-0.000931054	   3.03972	-0.000902906	   3.05347	-0.000905337	   3.04379	-0.000913099	   3.04379	  -22.8275	
   3.11109	-0.000926006	   3.11254	 -0.000898	   3.12633	-0.000900127	   3.11665	-0.000908044	   3.11665	  -22.7011	
   3.18382	-0.000920975	   3.18512	-0.000893097	   3.19888	-0.000894887	   3.18928	-0.000902986	   3.18928	  -22.5747	
   3.25753	-0.000916015	   3.25775	-0.000888205	   3.27134	-0.00088967	   3.26221	-0.000897963	   3.26221	  -22.4491	
   3.33093	-0.000911121	    3.3303	-0.000883296	   3.34367	-0.000884488	   3.33497	-0.000892968	   3.33497	  -22.3242	
   3.40433	-0.000906203	   3.40262	-0.000878323	   3.41565	-0.000879285	   3.40753	-0.000887937	   3.40753	  -22.1984	
   3.47705	-0.000901127	   3.47491	-0.000873271	   3.48769	-0.000874002	   3.47988	-0.0008828	   3.47988	    -22.07	
   3.54892	-0.000895857	   3.54704	-0.000868177	   3.55954	-0.000868626	   3.55183	-0.000877553	   3.55183	  -21.9388	
   3.62049	-0.000890482	   3.61899	-0.000863084	   3.63119	-0.000863203	   3.62356	-0.000872256	   3.62356	  -21.8064	
   3.69154	-0.000885136	   3.69084	-0.000858013	   3.70284	-0.000857801	   3.69507	-0.000866984	   3.69507	  -21.6746	
   3.76284	-0.000879898	   3.76247	-0.000852938	   3.77423	-0.000852454	   3.76651	-0.000861763	   3.76651	  -21.5441	
   3.83422	-0.000874732	   3.83407	-0.000847792	   3.84568	-0.000847121	   3.83799	-0.000856548	   3.83799	  -21.4137	
   3.90543	-0.000869516	   3.90562	-0.000842541	   3.91705	-0.000841716	   3.90937	-0.000851258	   3.90937	  -21.2814	
   3.97678	-0.000864139	   3.97698	-0.000837223	    3.9881	-0.000836178	   3.98062	-0.000845847	   3.98062	  -21.1462	
    4.0478	-0.000858604	   4.04835	-0.000831922	   4.05904	-0.000830519	   4.05173	-0.000840348	   4.05173	  -21.0087	
    4.1188	-0.000852988	    4.1197	-0.000826715	   4.12986	-0.000824816	   4.12279	-0.000834839	   4.12279	   -20.871	
   4.18966	-0.000847398	   4.19121	-0.000821608	   4.20032	-0.000819158	   4.19373	-0.000829388	   4.19373	  -20.7347	
   4.26006	-0.000841883	   4.26273	-0.0008165	   4.27084	-0.000813576	   4.26455	-0.000823986	   4.26455	  -20.5997	
   4.33042	-0.000836394	   4.33403	-0.000811261	   4.34119	-0.000808014	   4.33521	-0.000818557	   4.33521	  -20.4639	
   4.40039	-0.000830833	   4.40455	-0.00080584	   4.41125	-0.000802373	    4.4054	-0.000813015	    4.4054	  -20.3254	
   4.47041	-0.000825135	   4.47446	-0.000800307	   4.48132	-0.000796594	   4.47539	-0.000807345	   4.47539	  -20.1836	
   4.54022	-0.000819322	   4.54386	-0.000794799	   4.55118	-0.000790708	   4.54509	-0.00080161	   4.54509	  -20.0402	
   4.60994	-0.000813475	     4.613	-0.000789418	    4.6208	-0.000784806	   4.61458	-0.0007959	   4.61458	  -19.8975	
   4.67954	-0.000807665	   4.68219	-0.000784138	   4.69041	-0.000778968	   4.68405	-0.000790257	   4.68405	  -19.7564	
    4.7489	-0.000801914	   4.75129	-0.000778835	   4.75977	-0.000773195	   4.75332	-0.000784648	   4.75332	  -19.6162	
   4.81823	-0.000796157	   4.82029	-0.000773382	   4.82897	-0.000767407	    4.8225	-0.000778982	    4.8225	  -19.4746	
   4.88719	-0.0007903	   4.88907	-0.000767757	   4.89802	-0.000761516	   4.89143	-0.000773191	   4.89143	  -19.3298	
    4.9559	-0.000784287	   4.95763	-0.00076205	   4.96678	-0.000755496	    4.9601	-0.000767278	    4.9601	  -19.1819	
   5.02457	-0.000778169	   5.02575	-0.00075639	   5.03528	-0.000749402	   5.02853	-0.000761321	   5.02853	   -19.033	
   5.09318	-0.000772039	   5.09378	-0.000750842	   5.10371	-0.000743326	   5.09689	-0.000755402	   5.09689	  -18.8851	
   5.16161	-0.000765968	   5.16158	-0.000745353	   5.17196	-0.000737315	   5.16505	-0.000749545	   5.16505	  -18.7386	
   5.22995	-0.000759941	   5.22927	-0.0007398	   5.23992	-0.000731339	   5.23305	-0.000743693	   5.23305	  -18.5923	
    5.2981	-0.000753869	   5.29684	-0.000734097	   5.30781	-0.000725314	   5.30092	-0.00073776	   5.30092	   -18.444	
   5.36593	-0.000747676	   5.36418	-0.000728257	   5.37539	-0.000719176	    5.3685	-0.000731703	    5.3685	  -18.2926	
   5.43357	-0.000741373	   5.43128	-0.000722385	   5.44289	-0.000712928	   5.43591	-0.000725562	   5.43591	  -18.1391	
   5.50111	-0.000735026	   5.49837	-0.000716576	    5.5103	-0.000706636	   5.50326	-0.000719412	   5.50326	  -17.9853	
   5.56845	-0.000728716	   5.56521	-0.000710848	    5.5774	-0.000700374	   5.57035	-0.000713313	   5.57035	  -17.8328	
   5.63548	-0.000722471	   5.63181	-0.00070513	    5.6442	-0.000694161	   5.63716	-0.000707254	   5.63716	  -17.6814	
   5.70241	-0.000716238	   5.69829	-0.000699318	   5.71092	-0.000687952	   5.70387	-0.000701169	   5.70387	  -17.5292	
   5.76904	-0.000709923	   5.76453	-0.000693359	   5.77734	-0.000681672	    5.7703	-0.000694985	    5.7703	  -17.3746	
   5.83547	-0.000703462	   5.83044	-0.000687299	   5.84347	-0.000675275	   5.83646	-0.000688679	   5.83646	   -17.217	
   5.90182	-0.000696879	   5.89624	-0.000681251	   5.90953	-0.000668788	   5.90253	-0.000682306	   5.90253	  -17.0576	
   5.96787	-0.000690257	   5.96182	-0.000675289	   5.97532	-0.000662272	   5.96834	-0.000675939	   5.96834	  -16.8985	
   6.03353	-0.000683683	    6.0272	-0.000669399	   6.04073	-0.000655793	   6.03382	-0.000669625	   6.03382	  -16.7406	
   6.09913	-0.000677194	   6.09234	-0.000663467	   6.10596	-0.000649353	   6.09914	-0.000663338	   6.09914	  -16.5834	
   6.16445	-0.000670747	   6.15728	-0.000657408	   6.17095	-0.000642902	   6.16423	-0.000657019	   6.16423	  -16.4255	
    6.2293	-0.000664247	   6.22183	-0.000651219	    6.2356	-0.000636375	   6.22891	-0.000650614	   6.22891	  -16.2653	
   6.29403	-0.000657627	   6.28632	-0.000644995	   6.30004	-0.000629744	   6.29346	-0.000644122	   6.29346	   -16.103	
   6.35853	-0.000650897	   6.35066	-0.00063885	   6.36427	-0.000623026	   6.35782	-0.000637591	   6.35782	  -15.9398	
   6.42271	-0.000644126	   6.41463	-0.000632815	    6.4281	-0.000616299	   6.42181	-0.00063108	   6.42181	   -15.777	
   6.48679	-0.000637386	   6.47837	-0.000626803	   6.49176	-0.000609638	   6.48564	-0.000624609	   6.48564	  -15.6152	
   6.55069	-0.000630698	   6.54199	-0.000620683	   6.55527	-0.000603061	   6.54932	-0.000618147	   6.54932	  -15.4537	
   6.61419	-0.000624021	    6.6053	-0.000614391	   6.61843	-0.000596493	   6.61264	-0.000611635	   6.61264	  -15.2909	
   6.67722	-0.000617283	    6.6683	-0.000607998	   6.68125	-0.000589843	   6.67559	-0.000605041	   6.67559	   -15.126	
   6.74013	-0.000610441	   6.73114	-0.000601634	   6.74398	-0.00058306	   6.73842	-0.000598378	   6.73842	  -14.9595	
   6.80273	-0.000603524	   6.79373	-0.000595384	   6.80642	-0.000576189	   6.80096	-0.000591699	   6.80096	  -14.7925	
   6.86503	-0.000596597	   6.85596	-0.000589198	   6.86848	-0.000569339	   6.86316	-0.000585045	   6.86316	  -14.6261	
   6.92727	-0.000589704	   6.91788	-0.000582942	    6.9305	-0.000562571	   6.92522	-0.000578406	   6.92522	  -14.4601	
   6.98925	-0.000582842	   6.97961	-0.000576504	   6.99229	-0.000555846	   6.98705	-0.000571731	   6.98705	  -14.2933	
   7.05078	-0.00057596	   7.04097	-0.0005699	   7.05366	-0.000549078	   7.04847	-0.000564979	   7.04847	  -14.1245	
    7.1121	-0.000569009	   7.10199	-0.000563297	   7.11506	-0.000542178	   7.10971	-0.000558161	   7.10971	   -13.954	
   7.17324	-0.000561979	   7.16279	-0.000556812	   7.17618	-0.000535156	   7.17074	-0.000551316	   7.17074	  -13.7829	
   7.23402	-0.000554911	   7.22332	-0.000550442	   7.23704	-0.000528121	   7.23146	-0.000544491	   7.23146	  -13.6123	
   7.29435	-0.000547859	   7.28348	-0.000544016	   7.29757	-0.00052117	    7.2918	-0.000537682	    7.2918	   -13.442	
   7.35449	-0.00054084	   7.34342	-0.000537389	    7.3578	-0.000514316	    7.3519	-0.000530848	    7.3519	  -13.2712	
   7.41436	-0.000533834	   7.40317	-0.000530539	   7.41776	-0.000507485	   7.41176	-0.000523953	   7.41176	  -13.0988	
   7.47379	-0.000526793	   7.46254	-0.000523624	   7.47728	-0.000500568	    7.4712	-0.000516995	    7.4712	  -12.9249	
   7.53303	-0.000519672	   7.52146	-0.000516837	   7.53671	-0.000493502	    7.5304	-0.000510004	    7.5304	  -12.7501	
   7.59199	-0.000512466	   7.58031	-0.00051028	   7.59587	-0.000486329	   7.58939	-0.000503025	   7.58939	  -12.5756	
   7.65062	-0.00050522	   7.63889	-0.000503865	   7.65468	-0.000479158	   7.64806	-0.000496081	   7.64806	   -12.402	
   7.70905	-0.000498013	   7.69703	-0.000497379	   7.71318	-0.000472086	   7.70642	-0.000489159	   7.70642	   -12.229	
   7.76742	-0.000490902	   7.75469	-0.00049066	   7.77124	-0.000465126	   7.76445	-0.000482229	   7.76445	  -12.0557	
   7.82554	-0.00048387	   7.81222	-0.000483725	   7.82908	-0.000458183	   7.82228	-0.000475259	   7.82228	  -11.8815	
   7.88322	-0.000476823	   7.86943	-0.000476741	   7.88642	-0.000451116	   7.87969	-0.000468227	   7.87969	  -11.7057	
   7.94043	-0.000469657	   7.92617	-0.000469893	   7.94331	-0.000443857	   7.93664	-0.000461136	   7.93664	  -11.5284	
   7.99689	-0.000462342	    7.9828	-0.000463228	   7.99982	-0.000436479	   7.99317	-0.000454017	   7.99317	  -11.3504	
   8.05248	-0.000454944	   8.03914	-0.000456636	   8.05609	-0.000429153	   8.04924	-0.000446911	   8.04924	  -11.1728	
   8.10762	-0.000447582	   8.09513	-0.000449926	   8.11217	-0.000422007	   8.10497	-0.000439838	   8.10497	   -10.996	
   8.16246	-0.000440327	   8.15062	 -0.000443	   8.16778	-0.000415015	   8.16029	-0.000432781	   8.16029	  -10.8195	
   8.21716	-0.000433161	   8.20577	-0.000435921	   8.22309	-0.000408011	   8.21534	-0.000425698	   8.21534	  -10.6424	
   8.27166	-0.000425983	   8.26063	-0.00042886	   8.27814	-0.000400818	   8.27014	-0.000418554	   8.27014	  -10.4638	
   8.32579	-0.000418694	   8.31515	-0.000421952	   8.33278	-0.000393396	   8.32457	-0.000411347	   8.32457	  -10.2837	
   8.37939	-0.000411269	   8.36917	-0.000415191	   8.38695	-0.000385884	    8.3785	-0.000404115	    8.3785	  -10.1029	
   8.43276	-0.000403773	   8.42276	-0.000408418	   8.44072	-0.000378476	   8.43208	-0.000396889	   8.43208	  -9.92222	
   8.48562	-0.000396302	    8.4761	-0.000401471	   8.49427	-0.000371257	   8.48533	-0.000389677	   8.48533	  -9.74192	
   8.53815	-0.000388923	   8.52912	-0.000394322	   8.54742	-0.000364143	   8.53823	-0.000382463	   8.53823	  -9.56157	
   8.59041	-0.000381619	   8.58189	-0.000387098	   8.60004	-0.000356955	   8.59078	-0.000375224	   8.59078	   -9.3806	
   8.64257	-0.000374287	   8.63404	-0.000379952	   8.65241	-0.00034956	   8.64301	-0.000367933	   8.64301	  -9.19832	
   8.69456	-0.00036685	   8.68597	-0.000372966	   8.70458	-0.000341985	   8.69504	-0.0003606	   8.69504	  -9.01501	
   8.74623	-0.000359297	   8.73763	-0.000366059	   8.75639	-0.000334379	   8.74675	-0.000353245	   8.74675	  -8.83112	
   8.79741	-0.000351692	   8.78886	-0.000359065	    8.8077	-0.000326894	   8.79799	-0.000345884	   8.79799	  -8.64709	
   8.84841	-0.000344132	   8.83974	-0.000351895	   8.85858	-0.000319558	   8.84891	-0.000338528	   8.84891	  -8.46321	
   8.89927	-0.000336664	   8.89043	-0.000344597	   8.90922	-0.000312264	   8.89964	-0.000331175	   8.89964	  -8.27937	
   8.94984	-0.000329237	    8.9409	-0.000337298	   8.95957	-0.000304856	    8.9501	-0.000323797	    8.9501	  -8.09493	
   8.99996	-0.000321756	   8.99099	-0.000330108	   9.00949	-0.00029726	   9.00015	-0.000316375	   9.00015	  -7.90937	
   9.04972	-0.000314158	   9.04056	-0.00032304	   9.05894	-0.000289531	   9.04974	-0.00030891	   9.04974	  -7.72275	
    9.0993	-0.000306446	   9.08991	-0.000316003	   9.10801	-0.000281808	   9.09907	-0.000301419	   9.09907	  -7.53548	
   9.14865	-0.000298694	    9.1391	-0.000308876	   9.15688	-0.000274208	   9.14821	-0.000293926	   9.14821	  -7.34815	
   9.19761	-0.000290981	   9.18798	-0.000301604	    9.2054	-0.000266737	     9.197	-0.000286441	     9.197	  -7.16103	
   9.24617	-0.00028333	   9.23641	-0.000294238	   9.25345	-0.000259288	   9.24534	-0.000278952	   9.24534	   -6.9738	
    9.2944	-0.000275687	   9.28426	-0.000286878	   9.30088	-0.000251731	   9.29318	-0.000271432	   9.29318	   -6.7858	
   9.34227	-0.000267982	   9.33152	-0.000279606	   9.34813	-0.000244026	   9.34064	-0.000263871	   9.34064	  -6.59678	
   9.38986	-0.00026018	   9.37862	-0.000272421	   9.39516	-0.000236247	   9.38788	-0.000256283	   9.38788	  -6.40707	
   9.43704	-0.000252313	    9.4254	-0.000265244	   9.44181	-0.000228517	   9.43475	-0.000248691	   9.43475	  -6.21728	
   9.48378	-0.000244447	   9.47173	-0.000257992	   9.48798	-0.000220903	   9.48116	-0.000241114	   9.48116	  -6.02784	
   9.52996	-0.000236633	   9.51749	-0.000250637	   9.53385	-0.000213362	    9.5271	-0.000233544	    9.5271	   -5.8386	
   9.57599	-0.000228859	   9.56279	-0.000243215	   9.57919	-0.000205786	   9.57266	-0.000225953	   9.57266	  -5.64884	
   9.62164	-0.000221073	   9.60783	-0.000235792	   9.62431	-0.000198092	   9.61793	-0.000218319	   9.61793	  -5.45797	
   9.66687	-0.000213243	   9.65258	-0.00022841	   9.66908	-0.000190291	   9.66284	-0.000210648	   9.66284	   -5.2662	
   9.71169	-0.000205345	   9.69691	-0.000221063	   9.71337	-0.000182469	   9.70732	-0.000202959	   9.70732	  -5.07398	
   9.75596	-0.000197383	   9.74071	-0.000213703	   9.75728	-0.000174723	   9.75132	-0.00019527	   9.75132	  -4.88174	
   9.79938	-0.000189398	   9.78408	-0.000206286	   9.80113	-0.000167057	   9.79486	-0.00018758	   9.79486	   -4.6895	
   9.84229	-0.00018144	   9.82723	-0.000198807	   9.84476	-0.000159404	    9.8381	-0.000179884	    9.8381	   -4.4971	
   9.88491	-0.000173536	   9.87004	-0.000191299	   9.88805	-0.000151694	     9.881	-0.000172176	     9.881	  -4.30441	
   9.92763	-0.000165666	   9.91248	-0.000183804	   9.93088	-0.000143921	   9.92367	-0.000164464	   9.92367	  -4.11159	
    9.9699	-0.000157772	   9.95446	-0.000176339	   9.97315	-0.000136132	   9.96583	-0.000156748	   9.96583	  -3.91869	
   10.0119	-0.000149813	   9.99607	-0.000168882	   10.0152	-0.000128399	   10.0077	-0.000149031	   10.0077	  -3.72578	
   10.0535	-0.000141802	   10.0373	-0.000161392	   10.0568	-0.000120737	   10.0492	-0.00014131	   10.0492	  -3.53276	
   10.0947	-0.00013381	   10.0784	-0.000153852	   10.0981	-0.000113086	   10.0904	-0.000133582	   10.0904	  -3.33956	
   10.1359	-0.000125892	   10.1192	-0.000146269	    10.139	-0.000105349	   10.1314	-0.000125837	   10.1314	  -3.14592	
   10.1769	-0.000118036	   10.1596	-0.000138687	   10.1795	-9.74936e-05	    10.172	-0.000118072	    10.172	   -2.9518	
    10.217	-0.000110167	   10.1996	-0.000131138	   10.2194	-8.95784e-05	    10.212	-0.000110295	    10.212	  -2.75736	
   10.2573	-0.000102219	   10.2392	-0.000123629	   10.2591	-8.17121e-05	   10.2518	-0.00010252	   10.2518	    -2.563	
   10.2963	-9.41728e-05	   10.2783	-0.000116124	   10.2985	-7.39701e-05	    10.291	-9.47555e-05	    10.291	  -2.36889	
   10.3353	-8.6106e-05	   10.3171	-0.000108574	   10.3377	-6.63383e-05	     10.33	-8.70062e-05	     10.33	  -2.17515	
   10.3743	-7.8085e-05	   10.3555	-0.000100958	   10.3765	-5.87176e-05	   10.3688	-7.92535e-05	   10.3688	  -1.98134	
   10.4125	-7.01306e-05	   10.3936	-9.33004e-05	   10.4149	-5.10125e-05	    10.407	-7.14812e-05	    10.407	  -1.78703	
   10.4507	-6.22008e-05	   10.4311	-8.56625e-05	   10.4527	-4.32119e-05	   10.4448	-6.36917e-05	   10.4448	  -1.59229	
   10.4879	-5.42201e-05	   10.4682	-7.80835e-05	   10.4899	-3.53789e-05	    10.482	-5.58942e-05	    10.482	  -1.39735	
   10.5249	-4.61575e-05	   10.5046	-7.05495e-05	   10.5266	-2.75994e-05	   10.5187	-4.81021e-05	   10.5187	  -1.20255	
   10.5615	-3.80522e-05	   10.5403	-6.30058e-05	   10.5631	-1.99265e-05	   10.5549	-4.03281e-05	   10.5549	   -1.0082	
   10.5976	-2.99708e-05	   10.5755	-5.54209e-05	   10.5991	-1.23261e-05	   10.5907	-3.25726e-05	   10.5907	 -0.814315	
   10.6334	-2.19589e-05	   10.6105	-4.78038e-05	   10.6348	-4.7133e-06	   10.6262	-2.48253e-05	   10.6262	 -0.620633	
   10.6685	-1.39999e-05	   10.6453	-4.01825e-05	     10.67	2.96804e-06	   10.6613	-1.70715e-05	   10.6613	 -0.426786	
   10.7033	-6.03765e-06	     10.68	-3.26006e-05	   10.7047	1.07202e-05	    10.696	-9.30601e-06	    10.696	  -0.23265	
   10.7379	1.97984e-06	   10.7142	-2.5036e-05	   10.7389	1.84878e-05	   10.7303	-1.52278e-06	   10.7303	-0.0380695	
   10.7719	1.00574e-05	    10.748	-1.74732e-05	   10.7727	2.6196e-05	   10.7642	6.26008e-06	   10.7642	  0.156502	
   10.8056	1.81527e-05	   10.7816	-9.92012e-06	   10.8061	3.38177e-05	   10.7978	1.40167e-05	   10.7978	  0.350419	
   10.8387	2.62171e-05	   10.8149	-2.36309e-06	   10.8393	4.14029e-05	    10.831	2.17523e-05	    10.831	  0.543808	
   10.8713	3.42275e-05	   10.8476	5.21775e-06	   10.8723	4.90235e-05	   10.8637	2.94896e-05	   10.8637	  0.737239	
   10.9035	4.21995e-05	   10.8802	1.28041e-05	   10.9048	5.67393e-05	   10.8962	3.72476e-05	   10.8962	  0.931191	
   10.9353	5.01622e-05	    10.912	2.03983e-05	   10.9368	6.45115e-05	    10.928	4.5024e-05	    10.928	    1.1256	
   10.9665	5.81391e-05	    10.943	2.79989e-05	   10.9683	7.22457e-05	   10.9593	5.27946e-05	   10.9593	   1.31986	
   10.9971	6.61454e-05	    10.974	3.55822e-05	   10.9992	7.98747e-05	   10.9901	6.05341e-05	   10.9901	   1.51335	
   11.0273	7.41614e-05	   11.0042	4.31416e-05	   11.0295	8.74116e-05	   11.0203	6.82382e-05	   11.0203	   1.70596	
    11.057	8.21642e-05	   11.0341	5.07029e-05	   11.0594	9.49377e-05	   11.0502	7.59349e-05	   11.0502	   1.89837	
   11.0867	9.01359e-05	   11.0636	5.82825e-05	   11.0889	0.000102554	   11.0797	8.36574e-05	   11.0797	   2.09143	
    11.116	9.80842e-05	   11.0923	6.58874e-05	    11.118	0.00011029	   11.1088	9.14206e-05	   11.1088	   2.28551	
   11.1451	0.000106022	   11.1207	7.35003e-05	   11.1469	0.000118079	   11.1376	9.92006e-05	   11.1376	   2.48002	
   11.1738	0.000113967	   11.1488	8.10928e-05	   11.1753	0.000125818	    11.166	0.000106959	    11.166	   2.67398	
    11.202	0.000121918	   11.1764	8.86328e-05	   11.2034	0.000133435	   11.1939	0.000114662	   11.1939	   2.86655	
   11.2296	0.000129858	   11.2035	9.6137e-05	    11.231	0.000140948	   11.2214	0.000122314	   11.2214	   3.05785	
   11.2568	0.00013781	   11.2302	0.000103642	    11.258	0.000148452	   11.2483	0.000129968	   11.2483	    3.2492	
   11.2833	0.000145751	   11.2565	0.000111173	   11.2844	0.000156031	   11.2747	0.000137652	   11.2747	   3.44129	
   11.3092	0.000153672	   11.2822	0.000118732	   11.3103	0.00016369	   11.3006	0.000145365	   11.3006	   3.63413	
   11.3345	0.000161546	   11.3075	0.000126284	   11.3358	0.000171363	    11.326	0.000153064	    11.326	   3.82661	
   11.3593	0.000169368	   11.3323	0.000133795	   11.3607	0.000178953	   11.3508	0.000160705	   11.3508	   4.01763	
   11.3837	0.000177158	   11.3564	0.000141262	   11.3853	0.000186449	   11.3752	0.00016829	   11.3752	   4.20725	
   11.4077	0.000184985	     11.38	0.000148716	   11.4094	0.000193911	    11.399	0.000175871	    11.399	   4.39676	
   11.4312	0.000192875	   11.4032	0.000156191	   11.4329	0.000201434	   11.4225	 0.0001835	   11.4225	    4.5875	
   11.4546	0.000200804	    11.426	0.000163696	   11.4563	0.000209052	   11.4456	0.000191184	   11.4456	    4.7796	
   11.4775	0.000208701	   11.4486	0.000171197	   11.4789	0.000216713	   11.4683	0.00019887	   11.4683	   4.97176	
   11.5001	0.00021649	   11.4707	0.000178679	   11.5014	0.00022432	   11.4907	0.000206496	   11.4907	   5.16241	
   11.5223	0.000224158	   11.4925	0.000186135	   11.5231	0.000231809	   11.5126	0.000214034	   11.5126	   5.35086	
    11.544	0.000231776	    11.514	0.000193573	   11.5444	0.000239211	   11.5341	0.00022152	   11.5341	     5.538	
   11.5652	0.000239437	   11.5352	0.000201007	   11.5655	0.000246631	   11.5553	0.000229025	   11.5553	   5.72563	
   11.5859	0.000247183	   11.5559	0.000208449	   11.5857	0.000254153	   11.5759	0.000236595	   11.5759	   5.91488	
    11.606	0.000254973	   11.5762	0.000215945	   11.6059	0.000261779	    11.596	0.000244232	    11.596	   6.10581	
   11.6255	0.000262716	   11.5961	0.000223489	   11.6255	0.000269418	   11.6157	0.000251874	   11.6157	   6.29686	
   11.6445	0.000270348	   11.6154	0.000231021	   11.6445	0.000276968	   11.6348	0.000259446	   11.6348	   6.48614	
   11.6628	0.000277883	   11.6348	0.000238425	   11.6633	0.000284397	   11.6536	0.000266902	   11.6536	   6.67254	
   11.6805	0.000285404	   11.6541	0.000245675	   11.6813	0.000291766	   11.6719	0.000274281	   11.6719	   6.85704	
   11.6976	0.000292988	   11.6736	0.000252847	    11.699	0.000299178	   11.6901	0.000281671	   11.6901	   7.04178	
   11.7141	0.000300643	   11.6919	0.000260093	   11.7163	0.000306689	   11.7074	0.000289142	   11.7074	   7.22854	
   11.7302	0.000308309	   11.7098	0.000267517	   11.7331	0.000314264	   11.7244	0.000296697	   11.7244	   7.41742	
   11.7457	0.000315903	   11.7263	0.000275063	   11.7497	0.000321804	   11.7406	0.000304257	   11.7406	   7.60642	
   11.7608	0.00032339	   11.7418	0.000282589	   11.7654	0.000329213	    11.756	0.000311731	    11.756	   7.79326	
   11.7754	0.000330797	    11.757	0.000289945	   11.7809	0.000336495	   11.7711	0.000319079	   11.7711	   7.97698	
   11.7898	0.000338203	   11.7718	0.000297117	   11.7957	0.000343732	   11.7858	0.000326351	   11.7858	   8.15877	
   11.8036	0.000345671	   11.7863	0.000304227	     11.81	0.000351028	      11.8	0.000333642	      11.8	   8.34105	
   11.8171	0.000353188	   11.8004	0.000311406	   11.8237	0.000358418	   11.8137	0.000341004	   11.8137	    8.5251	
   11.8301	0.000360686	   11.8139	0.000318695	   11.8368	0.000365837	   11.8269	0.000348406	   11.8269	   8.71015	
   11.8426	0.000368108	   11.8272	0.000326009	   11.8497	0.000373169	   11.8398	0.000355762	   11.8398	   8.89406	
   11.8545	0.000375465	   11.8397	0.000333246	   11.8618	0.000380377	    11.852	0.000363029	    11.852	   9.07573	
   11.8658	0.000382806	    11.852	0.00034035	   11.8736	0.000387511	   11.8638	0.000370222	   11.8638	   9.25556	
   11.8763	0.000390178	   11.8634	0.000347381	   11.8848	0.000394649	   11.8748	0.000377403	   11.8748	   9.43507	
   11.8865	0.000397567	   11.8744	0.000354423	   11.8954	0.000401843	   11.8854	0.000384611	   11.8854	   9.61528	
   11.8965	0.000404919	    11.885	0.00036153	   11.9057	0.000409067	   11.8957	0.000391838	   11.8957	   9.79596	
   11.9065	0.000412202	   11.8952	0.00036868	   11.9153	0.000416243	   11.9057	0.000399042	   11.9057	   9.97604	
    11.916	0.000419448	   11.9047	0.000375811	   11.9246	0.000423358	   11.9151	0.000406206	   11.9151	   10.1551	
    11.925	0.000426674	   11.9138	0.000382854	   11.9334	0.000430438	   11.9241	0.000413322	   11.9241	    10.333	
   11.9337	0.000433894	   11.9222	0.000389806	   11.9416	0.000437499	   11.9325	 0.0004204	   11.9325	     10.51	
   11.9419	0.000441122	     11.93	0.000396714	   11.9493	0.000444561	   11.9404	0.000427466	   11.9404	   10.6866	
   11.9495	0.000448325	   11.9372	0.000403644	   11.9564	0.000451631	   11.9477	0.000434533	   11.9477	   10.8633	
    11.957	0.000455493	   11.9439	0.000410628	   11.9632	0.000458671	   11.9547	0.000441597	   11.9547	   11.0399	
   11.9637	0.000462646	     11.95	0.000417645	   11.9695	0.00046569	    11.961	0.00044866	    11.961	   11.2165	
   11.9699	0.000469792	   11.9556	0.000424631	   11.9753	0.000472703	   11.9669	0.000455709	   11.9669	   11.3927	
   11.9759	0.000476914	   11.9606	0.000431543	   11.9804	0.000479689	   11.9723	0.000462715	   11.9723	   11.5679	
   11.9811	0.000484015	   11.9652	0.000438385	    11.985	0.000486644	   11.9771	0.000469682	   11.9771	    11.742	
   11.9862	0.000491087	   11.9693	0.000445206	    11.989	0.000493586	   11.9815	0.000476626	   11.9815	   11.9157	
   11.9909	0.000498113	   11.9728	0.000452031	   11.9924	0.000500523	   11.9854	0.000483556	   11.9854	   12.0889	
    11.995	0.000505092	    11.976	0.000458855	   11.9954	0.000507456	   11.9888	0.000490467	   11.9888	   12.2617	
   11.9985	0.000512045	   11.9787	0.000465641	   11.9979	0.00051438	   11.9917	0.000497355	   11.9917	   12.4339	
   12.0015	0.000518992	   11.9811	0.000472368	        12	0.000521274	   11.9942	0.000504211	   11.9942	   12.6053	
    12.004	0.000525952	   11.9831	0.000479051	   12.0016	0.00052812	   11.9962	0.000511041	   11.9962	    12.776	
   12.0059	0.000532926	   11.9847	0.000485733	   12.0029	0.00053493	   11.9979	0.000517863	   11.9979	   12.9466	
   12.0076	0.000539881	   11.9861	0.000492441	   12.0039	0.000541729	   11.9992	0.000524684	   11.9992	   13.1171	
   12.0089	0.000546777	   11.9871	0.000499156	   12.0045	0.00054852	   12.0001	0.000531485	   12.0001	   13.2871	
   12.0097	0.00055361	   11.9878	0.000505835	   12.0048	0.000555295	   12.0008	0.000538247	   12.0008	   13.4562	
   12.0102	0.000560405	    11.988	0.000512461	   12.0048	0.000562042	    12.001	0.000544969	    12.001	   13.6242	
   12.0104	0.000567195	    11.988	0.000519049	   12.0046	0.000568747	    12.001	0.000551664	    12.001	   13.7916	
   12.0102	0.000574002	   11.9875	0.000525635	    12.004	0.000575412	   12.0005	0.00055835	   12.0005	   13.9587	
   12.0096	0.000580811	   11.9867	0.00053224	    12.003	0.000582059	   11.9998	0.000565036	   11.9998	   14.1259	
   12.0088	0.000587576	   11.9851	0.000538845	   12.0017	0.000588698	   11.9985	0.000571706	   11.9985	   14.2927	
   12.0073	0.000594273	    11.983	0.000545407	        12	0.000595322	   11.9968	0.000578334	   11.9968	   14.4583	
   12.0053	0.000600909	   11.9804	0.000551918	   11.9979	0.000601916	   11.9945	0.000584914	   11.9945	   14.6229	
   12.0029	0.000607518	   11.9773	0.00055839	   11.9952	0.000608471	   11.9918	0.000591459	   11.9918	   14.7865	
   11.9998	0.000614127	   11.9736	0.000564854	   11.9921	0.000614983	   11.9885	0.000597988	   11.9885	   14.9497	
   11.9962	0.000620745	   11.9694	0.000571324	   11.9884	0.000621462	   11.9847	0.00060451	   11.9847	   15.1128	
   11.9921	0.000627346	   11.9648	0.000577803	   11.9843	0.000627927	   11.9804	0.000611025	   11.9804	   15.2756	
   11.9874	0.000633895	   11.9599	0.00058428	   11.9797	0.000634379	   11.9756	0.000617518	   11.9756	    15.438	
   11.9823	0.000640379	   11.9546	0.000590719	   11.9746	0.000640814	   11.9705	0.000623971	   11.9705	   15.5993	
   11.9768	0.000646809	    11.949	0.000597075	   11.9692	0.000647212	    11.965	0.000630365	    11.965	   15.7591	
   11.9709	0.000653219	   11.9432	0.000603354	   11.9635	0.000653562	   11.9592	0.000636711	   11.9592	   15.9178	
   11.9646	0.000659631	    11.937	0.000609579	   11.9573	0.000659866	    11.953	0.000643025	    11.953	   16.0756	
   11.9579	0.000666039	   11.9303	0.000615794	   11.9508	0.00066614	   11.9463	0.000649325	   11.9463	   16.2331	
   11.9507	0.000672414	   11.9229	0.000622045	   11.9435	0.000672404	   11.9391	0.000655621	   11.9391	   16.3905	
    11.943	0.000678731	   11.9149	0.000628341	   11.9356	0.000678663	   11.9312	0.000661912	   11.9312	   16.5478	
   11.9346	0.000684988	   11.9063	0.000634633	    11.927	0.000684891	   11.9226	0.000668171	   11.9226	   16.7043	
   11.9257	0.000691208	   11.8972	0.000640861	   11.9178	0.00069108	   11.9136	0.000674383	   11.9136	   16.8596	
   11.9163	0.000697422	   11.8877	0.000647005	   11.9082	0.000697237	   11.9041	0.000680555	   11.9041	   17.0139	
   11.9065	0.000703644	   11.8776	0.000653078	   11.8982	0.000703386	   11.8941	0.000686703	   11.8941	   17.1676	
   11.8962	0.000709857	   11.8674	0.000659116	   11.8877	0.000709527	   11.8838	0.000692834	   11.8838	   17.3208	
   11.8857	0.000716038	   11.8567	0.000665158	    11.877	0.000715651	   11.8731	0.000698949	   11.8731	   17.4737	
   11.8748	0.000722169	   11.8459	0.000671207	   11.8661	0.000721736	   11.8623	0.000705037	   11.8623	   17.6259	
   11.8635	0.000728255	   11.8346	0.000677237	   11.8547	0.000727781	   11.8509	0.000711091	   11.8509	   17.7773	
   11.8518	0.000734308	   11.8228	0.000683238	   11.8427	0.000733809	   11.8391	0.000717118	   11.8391	    17.928	
   11.8394	0.000740318	   11.8104	0.000689199	   11.8301	0.000739822	   11.8266	0.000723113	   11.8266	   18.0778	
   11.8264	0.000746299	   11.7975	0.000695118	   11.8169	0.000745808	   11.8136	0.000729075	   11.8136	   18.2269	
   11.8129	0.000752267	   11.7843	0.000701003	   11.8033	0.000751756	   11.8002	0.000735009	   11.8002	   18.3752	
    11.799	0.000758247	   11.7706	0.000706876	   11.7894	0.000757665	   11.7863	0.000740929	   11.7863	   18.5232	
   11.7846	0.000764251	   11.7564	0.000712735	   11.7751	0.000763559	    11.772	0.000746848	    11.772	   18.6712	
   11.7698	0.000770251	   11.7417	0.000718581	   11.7603	0.000769466	   11.7573	0.000752766	   11.7573	   18.8192	
   11.7544	0.000776177	   11.7264	0.000724408	   11.7451	0.000775365	    11.742	0.00075865	    11.742	   18.9662	
   11.7384	0.000781985	   11.7106	0.000730189	   11.7294	0.000781224	   11.7261	0.000764466	   11.7261	   19.1117	
   11.7218	0.000787681	   11.6942	0.00073592	   11.7131	0.000787018	   11.7097	0.000770206	   11.7097	   19.2552	
   11.7047	0.000793334	   11.6775	0.000741617	   11.6964	0.000792752	   11.6929	0.000775901	   11.6929	   19.3975	
   11.6872	0.000799018	   11.6605	0.000747292	   11.6793	0.000798461	   11.6757	0.00078159	   11.6757	   19.5398	
   11.6695	0.000804746	   11.6429	0.00075293	   11.6619	0.000804179	   11.6581	0.000787285	   11.6581	   19.6821	
   11.6512	0.00081049	   11.6249	0.000758549	   11.6441	 0.0008099	   11.6401	0.00079298	   11.6401	   19.8245	
   11.6326	0.000816198	   11.6062	0.000764158	   11.6256	0.000815584	   11.6215	0.000798647	   11.6215	   19.9662	
   11.6134	0.000821828	    11.587	0.000769764	   11.6064	0.000821202	   11.6023	0.000804264	   11.6023	   20.1066	
   11.5936	0.000827387	   11.5674	0.000775359	   11.5868	0.000826749	   11.5826	0.000809832	   11.5826	   20.2458	
   11.5734	0.000832924	   11.5475	0.000780931	   11.5668	0.000832257	   11.5625	0.000815371	   11.5625	   20.3843	
   11.5528	0.00083846	   11.5271	0.000786433	   11.5463	0.000837754	   11.5421	0.000820883	   11.5421	   20.5221	
    11.532	0.000843984	   11.5065	0.000791856	   11.5255	0.000843243	   11.5213	0.000826361	   11.5213	    20.659	
   11.5108	0.000849454	   11.4852	0.000797218	   11.5041	0.000848703	      11.5	0.000831792	      11.5	   20.7948	
   11.4889	0.000854831	   11.4634	0.000802555	    11.482	0.000854101	   11.4781	0.000837162	   11.4781	   20.9291	
   11.4665	0.000860128	   11.4411	0.000807898	   11.4595	0.00085942	   11.4557	0.000842482	   11.4557	   21.0621	
   11.4437	0.000865387	   11.4184	0.000813259	   11.4366	0.00086466	   11.4329	0.000847769	   11.4329	   21.1942	
   11.4206	0.000870647	   11.3956	0.000818606	   11.4134	0.000869859	   11.4099	0.000853037	   11.4099	   21.3259	
   11.3971	0.000875906	   11.3724	0.000823904	   11.3898	0.000875067	   11.3864	0.000858292	   11.3864	   21.4573	
   11.3732	0.000881119	   11.3485	0.00082913	   11.3655	0.000880306	   11.3624	0.000863518	   11.3624	    21.588	
   11.3487	0.000886257	   11.3242	0.000834297	   11.3407	0.000885542	   11.3379	0.000868699	   11.3379	   21.7175	
   11.3237	0.000891333	   11.2994	0.000839429	   11.3155	0.000890732	   11.3129	0.000873831	   11.3129	   21.8458	
   11.2984	0.000896367	   11.2745	0.000844548	   11.2899	0.000895814	   11.2876	0.00087891	   11.2876	   21.9727	
   11.2728	0.000901378	    11.249	0.00084966	   11.2641	0.000900768	   11.2619	0.000883936	   11.2619	   22.0984	
   11.2467	0.000906373	   11.2228	0.000854745	   11.2377	0.000905632	   11.2357	0.000888917	   11.2357	   22.2229	
   11.2199	0.000911335	   11.1962	0.000859778	   11.2109	0.000910475	    11.209	0.000893863	    11.209	   22.3466	
   11.1927	0.00091625	   11.1691	0.000864751	   11.1835	0.000915353	   11.1818	0.000898785	   11.1818	   22.4696	
   11.1651	0.000921096	   11.1416	0.000869675	   11.1559	0.000920269	   11.1542	0.00090368	   11.1542	    22.592	
   11.1371	0.000925883	   11.1135	0.00087457	   11.1279	0.000925137	   11.1262	0.00090853	   11.1262	   22.7133	
   11.1087	0.000930629	   11.0849	0.000879451	   11.0996	0.000929884	   11.0977	0.000913322	   11.0977	    22.833	
   11.0796	0.000935349	   11.0558	0.000884314	   11.0706	0.000934493	   11.0687	0.000918052	   11.0687	   22.9513	
   11.0501	0.000940065	   11.0263	0.000889137	   11.0413	0.000939026	   11.0392	0.000922743	   11.0392	   23.0686	
   11.0202	0.000944767	   10.9963	0.000893907	   11.0117	0.00094357	   11.0094	0.000927414	   11.0094	   23.1854	
     10.99	0.000949409	   10.9658	0.000898625	   10.9817	0.00094816	   10.9792	0.000932065	   10.9792	   23.3016	
   10.9594	0.00095398	   10.9348	0.000903303	   10.9511	0.000952755	   10.9485	0.000936679	   10.9485	    23.417	
   10.9283	0.000958488	   10.9033	0.000907959	   10.9201	0.000957282	   10.9172	0.000941243	   10.9172	   23.5311	
   10.8967	0.000962954	   10.8715	0.000912596	   10.8886	0.000961693	   10.8856	0.000945748	   10.8856	   23.6437	
   10.8649	0.000967414	   10.8394	0.000917211	   10.8569	0.000966004	   10.8537	0.00095021	   10.8537	   23.7552	
   10.8327	0.000971882	   10.8067	0.000921787	   10.8245	0.00097029	   10.8213	0.000954653	   10.8213	   23.8663	
   10.7999	0.000976316	   10.7735	0.000926315	   10.7916	 0.0009746	   10.7883	0.000959077	   10.7883	   23.9769	
   10.7666	0.00098068	     10.74	0.00093078	   10.7582	0.000978921	    10.755	0.00096346	    10.755	   24.0865	
    10.733	0.000984975	   10.7058	0.000935184	   10.7245	0.000983204	   10.7211	0.000967787	   10.7211	   24.1947	
    10.699	0.000989215	    10.671	0.000939569	   10.6902	0.000987392	   10.6868	0.000972058	   10.6868	   24.3015	
   10.6644	0.000993442	   10.6355	0.000943982	   10.6555	0.000991471	   10.6518	0.000976299	   10.6518	   24.4075	
   10.6293	0.000997685	    10.599	0.000948418	   10.6203	0.000995476	   10.6162	0.000980526	   10.6162	   24.5132	
   10.5938	0.00100193	    10.562	0.000952824	   10.5849	0.000999459	   10.5802	0.000984737	   10.5802	   24.6184	
    10.558	0.00100613	   10.5248	0.000957135	    10.549	0.00100344	   10.5439	0.000988902	   10.5439	   24.7225	
    10.522	0.00101026	   10.4876	0.000961336	   10.5125	0.00100741	   10.5074	0.000993001	   10.5074	    24.825	
   10.4855	0.00101433	   10.4501	0.000965487	   10.4755	0.00101132	   10.4704	0.000997045	   10.4704	   24.9261	
   10.4486	0.00101837	   10.4121	0.000969651	   10.4383	0.00101515	    10.433	0.00100105	    10.433	   25.0264	
   10.4113	0.00102243	   10.3737	0.000973834	   10.4006	0.00101889	   10.3952	0.00100505	   10.3952	   25.1263	
   10.3734	0.00102651	   10.3355	0.000978003	   10.3623	0.00102258	   10.3571	0.00100903	   10.3571	   25.2257	
    10.335	0.00103056	   10.2967	0.00098208	   10.3237	0.00102626	   10.3184	0.00101297	   10.3184	   25.3241	
   10.2962	 0.0010345	   10.2582	0.000986043	   10.2846	0.00102995	   10.2797	0.00101683	   10.2797	   25.4208	
   10.2571	0.00103833	    10.219	0.000989966	   10.2451	0.00103361	   10.2404	0.00102064	   10.2404	   25.5159	
   10.2174	0.00104208	   10.1789	 0.0009939	    10.205	0.00103721	   10.2004	 0.0010244	   10.2004	     25.61	
   10.1773	0.00104585	   10.1392	0.000997859	   10.1645	0.00104073	   10.1603	0.00102814	   10.1603	   25.7036	
   10.1368	0.00104967	   10.0987	0.00100181	   10.1237	0.00104417	   10.1197	0.00103189	   10.1197	   25.7971	
    10.096	0.00105353	   10.0582	0.00100569	   10.0824	 0.0010476	   10.0789	0.00103561	   10.0789	   25.8903	
   10.0545	0.00105736	   10.0173	0.00100948	   10.0407	0.00105104	   10.0375	0.00103929	   10.0375	   25.9823	
   10.0126	0.00106106	   9.97559	 0.0010132	   9.99867	0.00105448	   9.99563	0.00104291	   9.99563	   26.0728	
   9.97052	0.00106463	     9.934	 0.0010169	   9.95637	0.00105789	   9.95363	0.00104647	   9.95363	   26.1618	
   9.92794	0.00106813	    9.8916	0.00102062	   9.91347	0.00106121	     9.911	0.00104999	     9.911	   26.2497	
   9.88484	0.00107164	   9.84892	0.00102433	   9.87014	0.00106445	   9.86797	0.00105348	   9.86797	   26.3369	
   9.84142	0.00107518	   9.80591	0.00102802	   9.82658	0.00106764	   9.82464	0.00105695	   9.82464	   26.4237	
   9.79773	0.00107872	   9.76244	0.00103164	   9.78273	0.00107082	   9.78097	0.00106039	   9.78097	   26.5099	
   9.75343	 0.0010822	   9.71879	0.00103518	   9.73845	0.00107401	   9.73689	 0.0010638	   9.73689	   26.5949	
   9.70872	0.00108557	   9.67459	0.00103867	   9.69383	 0.0010772	   9.69238	0.00106715	   9.69238	   26.6787	
   9.66377	0.00108884	   9.62995	0.00104213	   9.64894	0.00108037	   9.64755	0.00107044	   9.64755	   26.7611	
   9.61823	0.00109205	   9.58503	0.00104558	   9.60362	0.00108344	   9.60229	0.00107369	   9.60229	   26.8423	
    9.5722	0.00109528	   9.53971	0.00104904	   9.55807	0.00108638	   9.55666	 0.0010769	   9.55666	   26.9225	
   9.52587	0.00109853	   9.49416	0.00105245	   9.51226	 0.0010892	   9.51076	0.00108006	   9.51076	   27.0015	
   9.47932	0.00110178	   9.44804	0.00105578	   9.46635	0.00109197	   9.46457	0.00108318	   9.46457	   27.0794	
   9.43231	0.00110497	   9.40175	0.00105905	   9.41989	0.00109477	   9.41798	0.00108626	   9.41798	   27.1566	
   9.38492	0.00110805	   9.35516	 0.0010623	   9.37265	0.00109764	   9.37091	0.00108933	   9.37091	   27.2332	
   9.33713	  0.001111	   9.30833	0.00106554	   9.32464	0.00110056	   9.32337	0.00109237	   9.32337	   27.3092	
   9.28873	0.00111392	   9.26093	0.00106875	    9.2761	0.00110342	   9.27525	0.00109536	   9.27525	   27.3841	
   9.23992	0.00111685	   9.21315	0.00107191	   9.22722	0.00110614	   9.22676	 0.0010983	   9.22676	   27.4575	
    9.1909	0.00111982	   9.16519	0.00107501	    9.1782	0.00110872	   9.17809	0.00110118	   9.17809	   27.5296	
   9.14153	0.00112276	    9.1168	0.00107806	   9.12911	0.00111123	   9.12915	0.00110402	   9.12915	   27.6004	
    9.0917	0.00112561	   9.06797	0.00108109	    9.0797	0.00111377	   9.07979	0.00110682	   9.07979	   27.6706	
   9.04161	0.00112833	   9.01891	0.00108408	   9.02995	0.00111638	   9.03016	 0.0011096	   9.03016	   27.7399	
   8.99124	0.00113097	   8.96916	0.00108701	   8.97974	0.00111902	   8.98005	0.00111233	   8.98005	   27.8083	
   8.94037	0.00113361	   8.91894	 0.0010899	   8.92907	0.00112159	   8.92946	0.00111503	   8.92946	   27.8758	
    8.8892	0.00113628	   8.86848	0.00109275	   8.87815	0.00112403	   8.87861	0.00111769	   8.87861	   27.9422	
   8.83782	0.00113894	   8.81784	0.00109558	   8.82696	0.00112636	   8.82754	0.00112029	   8.82754	   28.0074	
   8.78591	0.00114154	    8.7667	0.00109838	   8.77548	0.00112864	   8.77603	0.00112285	   8.77603	   28.0714	
   8.73368	0.00114403	   8.71526	0.00110111	   8.72371	0.00113096	   8.72422	0.00112537	   8.72422	   28.1342	
   8.68134	0.00114642	   8.66341	0.00110376	   8.67162	0.00113333	   8.67212	0.00112784	   8.67212	    28.196	
   8.62853	0.00114877	   8.61103	0.00110635	   8.61911	 0.0011357	   8.61956	0.00113027	   8.61956	   28.2568	
   8.57538	0.00115113	   8.55836	0.00110891	   8.56627	0.00113797	   8.56667	0.00113267	   8.56667	   28.3168	
   8.52209	0.00115351	   8.50548	0.00111147	   8.51322	0.00114012	    8.5136	0.00113503	    8.5136	   28.3758	
   8.46853	0.00115585	   8.45217	  0.001114	   8.45973	0.00114216	   8.46014	0.00113734	   8.46014	   28.4334	
    8.4146	0.00115811	   8.39854	0.00111646	    8.4059	0.00114419	   8.40635	0.00113958	   8.40635	   28.4896	
    8.3604	0.00116027	   8.34459	0.00111882	   8.35195	0.00114624	   8.35231	0.00114178	   8.35231	   28.5444	
   8.30591	0.00116234	    8.2902	0.00112113	   8.29753	0.00114833	   8.29788	0.00114394	   8.29788	   28.5984	
   8.25105	0.00116439	   8.23549	0.00112343	   8.24278	 0.0011504	   8.24311	0.00114607	   8.24311	   28.6518	
    8.1958	0.00116644	   8.18036	0.00112573	   8.18779	0.00115237	   8.18798	0.00114818	   8.18798	   28.7045	
   8.14035	0.00116849	   8.12484	0.00112802	   8.13237	0.00115422	   8.13252	0.00115024	   8.13252	   28.7561	
   8.08452	0.00117051	   8.06903	0.00113026	   8.07662	  0.001156	   8.07672	0.00115226	   8.07672	   28.8064	
   8.02853	0.00117246	   8.01302	0.00113242	   8.02075	0.00115776	   8.02076	0.00115421	   8.02076	   28.8553	
   7.97205	0.00117432	    7.9565	 0.0011345	   7.96454	0.00115954	   7.96436	0.00115612	   7.96436	   28.9031	
   7.91522	0.00117612	    7.8997	0.00113655	   7.90799	0.00116134	   7.90764	  0.001158	   7.90764	     28.95	
   7.85825	0.00117787	   7.84262	0.00113858	   7.85112	0.00116308	   7.85066	0.00115984	   7.85066	   28.9961	
   7.80072	0.00117962	   7.78516	0.00114061	   7.79382	0.00116472	   7.79323	0.00116165	   7.79323	   29.0413	
   7.74286	0.00118135	   7.72745	0.00114262	   7.73622	0.00116626	   7.73551	0.00116341	   7.73551	   29.0852	
   7.68489	0.00118306	   7.66969	0.00114455	   7.67843	0.00116774	   7.67767	0.00116512	   7.67767	   29.1279	
    7.6266	0.00118472	   7.61146	0.00114642	   7.62025	0.00116921	   7.61944	0.00116678	   7.61944	   29.1696	
     7.568	0.00118631	   7.55299	0.00114822	   7.56178	 0.0011707	   7.56093	0.00116841	   7.56093	   29.2102	
   7.50921	0.00118782	   7.49408	0.00114998	   7.50316	0.00117218	   7.50215	0.00116999	   7.50215	   29.2499	
   7.45013	0.00118931	   7.43485	0.00115172	   7.44406	0.00117359	   7.44301	0.00117154	   7.44301	   29.2885	
   7.39077	0.00119078	   7.37542	0.00115346	   7.38472	0.00117489	   7.38364	0.00117305	   7.38364	   29.3261	
   7.33125	0.00119225	   7.31581	0.00115519	   7.32516	0.00117612	   7.32407	0.00117452	   7.32407	    29.363	
   7.27136	0.00119368	   7.25581	0.00115687	   7.26517	0.00117731	   7.26411	0.00117595	   7.26411	   29.3989	
   7.21122	0.00119504	   7.19554	0.00115846	   7.20498	0.00117853	   7.20391	0.00117734	   7.20391	   29.4336	
   7.15075	0.00119631	   7.13481	0.00115997	    7.1443	0.00117974	   7.14329	0.00117867	   7.14329	   29.4668	
   7.08986	0.00119752	   7.07376	 0.0011614	   7.08325	0.00118091	   7.08229	0.00117994	   7.08229	   29.4985	
   7.02879	0.00119873	   7.01241	0.00116279	   7.02208	0.00118196	   7.02109	0.00118116	   7.02109	   29.5289	
   6.96733	0.00119994	   6.95077	0.00116415	   6.96058	 0.0011829	   6.95956	0.00118233	   6.95956	   29.5582	
   6.90553	0.00120114	   6.88888	0.00116548	   6.89877	0.00118379	   6.89773	0.00118347	   6.89773	   29.5868	
    6.8435	0.00120229	   6.82664	0.00116677	    6.8369	0.00118472	   6.83568	0.00118459	   6.83568	   29.6148	
   6.78106	0.00120335	   6.76398	0.00116803	   6.77463	0.00118569	   6.77322	0.00118569	   6.77322	   29.6423	
   6.71834	0.00120434	   6.70104	0.00116926	   6.71213	0.00118668	    6.7105	0.00118676	    6.7105	   29.6689	
   6.65559	0.00120528	   6.63773	0.00117046	   6.64929	0.00118758	   6.64754	0.00118777	   6.64754	   29.6944	
   6.59238	0.00120621	    6.5741	0.00117162	   6.58614	0.00118834	   6.58421	0.00118873	   6.58421	   29.7181	
   6.52896	0.00120714	   6.51025	0.00117271	    6.5227	0.00118898	   6.52064	0.00118961	   6.52064	   29.7402	
   6.46535	0.00120805	   6.44601	0.00117372	   6.45901	0.00118956	   6.45679	0.00119044	   6.45679	   29.7611	
   6.40137	 0.0012089	   6.38164	0.00117469	   6.39499	0.00119019	   6.39267	0.00119126	   6.39267	   29.7814	
   6.33726	0.00120968	   6.31726	0.00117563	   6.33088	0.00119085	   6.32847	0.00119205	   6.32847	   29.8014	
   6.27303	 0.0012104	   6.25267	0.00117657	    6.2666	0.00119151	    6.2641	0.00119283	    6.2641	   29.8206	
   6.20849	0.00121109	   6.18789	0.00117748	   6.20205	0.00119206	   6.19947	0.00119354	   6.19947	   29.8385	
   6.14388	0.00121175	   6.12293	0.00117832	   6.13748	0.00119248	   6.13476	0.00119418	   6.13476	   29.8545	
    6.0788	0.00121239	   6.05763	0.00117908	   6.07247	 0.0011928	   6.06963	0.00119475	   6.06963	   29.8689	
    6.0135	0.00121299	   5.99212	0.00117977	   6.00728	0.00119311	    6.0043	0.00119529	    6.0043	   29.8823	
   5.94812	0.00121354	   5.92631	0.00118043	   5.94184	0.00119348	   5.93876	0.00119582	   5.93876	   29.8954	
   5.88236	0.00121401	   5.86026	0.00118108	   5.87605	0.00119389	   5.87289	0.00119633	   5.87289	   29.9083	
   5.81647	0.00121444	   5.79409	0.00118172	   5.81008	0.00119426	   5.80688	0.00119681	   5.80688	   29.9201	
   5.75036	0.00121484	   5.72762	 0.0011823	   5.74383	0.00119447	   5.74061	 0.0011972	   5.74061	   29.9301	
   5.68397	0.00121521	   5.66099	0.00118283	   5.67735	0.00119453	    5.6741	0.00119752	    5.6741	    29.938	
   5.61722	0.00121555	   5.59422	0.00118328	   5.61067	0.00119452	   5.60737	0.00119778	   5.60737	   29.9446	
   5.55015	0.00121584	   5.52714	0.00118368	   5.54371	0.00119458	   5.54034	0.00119803	   5.54034	   29.9508	
   5.48292	0.00121606	   5.45989	0.00118405	   5.47662	0.00119471	   5.47314	0.00119828	   5.47314	   29.9569	
   5.41544	0.00121627	   5.39239	 0.0011844	   5.40921	0.00119482	   5.40568	 0.0011985	   5.40568	   29.9624	
   5.34766	0.00121644	   5.32468	0.00118472	   5.34153	 0.0011948	   5.33796	0.00119865	   5.33796	   29.9663	
   5.27982	0.00121657	   5.25681	0.00118499	   5.27362	0.00119462	   5.27008	0.00119873	   5.27008	   29.9682	
   5.21163	0.00121664	   5.18858	 0.0011852	    5.2053	0.00119435	   5.20184	0.00119873	   5.20184	   29.9682	
   5.14325	0.00121661	   5.12026	0.00118533	   5.13684	0.00119411	   5.13345	0.00119868	   5.13345	   29.9671	
   5.07481	0.00121651	   5.05176	0.00118541	   5.06826	0.00119396	   5.06495	0.00119863	   5.06495	   29.9657	
   5.00603	0.00121639	   4.98303	0.00118547	    4.9994	0.00119379	   4.99615	0.00119855	   4.99615	   29.9637	
   4.93706	0.00121629	    4.9142	0.00118549	    4.9305	0.00119354	   4.92725	0.00119844	   4.92725	    29.961	
   4.86782	0.00121622	    4.8451	0.00118547	   4.86138	0.00119315	    4.8581	0.00119828	    4.8581	   29.9569	
   4.79837	0.00121611	   4.77587	0.00118539	   4.79207	0.00119264	   4.78877	0.00119805	   4.78877	   29.9511	
   4.72871	0.00121592	    4.7065	0.00118523	   4.72246	0.00119211	   4.71922	0.00119776	   4.71922	   29.9439	
   4.65881	0.00121562	   4.63697	0.00118501	   4.65264	 0.0011916	   4.64947	0.00119741	   4.64947	   29.9352	
   4.58882	0.00121524	   4.56742	0.00118474	   4.58278	0.00119107	   4.57967	0.00119702	   4.57967	   29.9255	
   4.51868	0.00121483	   4.49755	0.00118444	   4.51279	0.00119049	   4.50967	0.00119659	   4.50967	   29.9146	
   4.44831	0.00121443	   4.42754	0.00118411	    4.4426	0.00118981	   4.43948	0.00119611	   4.43948	   29.9029	
   4.37787	0.00121403	   4.35762	0.00118373	   4.37236	0.00118903	   4.36928	 0.0011956	   4.36928	   29.8899	
   4.30707	0.00121358	   4.28739	0.00118328	     4.302	 0.0011882	   4.29882	0.00119502	   4.29882	   29.8755	
   4.23618	0.00121303	   4.21711	0.00118273	   4.23155	0.00118735	   4.22828	0.00119437	   4.22828	   29.8592	
   4.16513	0.00121238	    4.1466	0.00118208	   4.16104	0.00118648	   4.15759	0.00119365	   4.15759	   29.8412	
   4.09385	0.00121167	   4.07591	0.00118139	    4.0903	0.00118558	   4.08669	0.00119288	   4.08669	    29.822	
   4.02251	0.00121096	   4.00508	 0.0011807	   4.01938	0.00118462	   4.01566	0.00119209	   4.01566	   29.8023	
   3.95092	0.00121025	   3.93404	0.00118003	   3.94821	0.00118357	   3.94439	0.00119128	   3.94439	   29.7821	
   3.87925	0.00120952	   3.86285	0.00117933	   3.87695	0.00118246	   3.87302	0.00119044	   3.87302	   29.7609	
   3.80732	 0.0012087	   3.79175	0.00117856	   3.80553	 0.0011813	   3.80153	0.00118952	   3.80153	    29.738	
   3.73518	0.00120778	   3.72045	0.00117767	   3.73389	0.00118013	   3.72984	0.00118853	   3.72984	   29.7131	
   3.66299	0.00120678	   3.64922	0.00117669	   3.66218	0.00117895	   3.65813	0.00118747	   3.65813	   29.6868	
   3.59068	0.00120574	   3.57764	0.00117567	   3.59023	0.00117774	   3.58618	0.00118638	   3.58618	   29.6596	
    3.5183	 0.0012047	   3.50599	0.00117465	   3.51819	0.00117645	   3.51416	0.00118527	   3.51416	   29.6317	
   3.44587	0.00120363	   3.43399	0.00117365	   3.44601	 0.0011751	   3.44196	0.00118413	   3.44196	   29.6032	
   3.37324	0.00120251	    3.3618	 0.0011726	   3.37361	0.00117371	   3.36955	0.00118294	   3.36955	   29.5735	
   3.30044	0.00120129	   3.28948	0.00117148	   3.30116	0.00117232	   3.29703	 0.0011817	   3.29703	   29.5424	
   3.22743	    0.0012	   3.21697	0.00117027	   3.22838	0.00117093	   3.22426	 0.0011804	   3.22426	   29.5101	
   3.15436	0.00119868	   3.14431	0.00116899	   3.15555	0.00116951	    3.1514	0.00117906	    3.1514	   29.4765	
   3.08107	0.00119733	   3.07144	0.00116769	   3.08248	  0.001168	   3.07833	0.00117767	   3.07833	   29.4418	
    3.0076	0.00119595	   2.99842	0.00116638	   3.00924	0.00116639	   3.00509	0.00117624	   3.00509	    29.406	
   2.93412	0.00119452	    2.9253	0.00116506	   2.93598	 0.0011647	    2.9318	0.00117476	    2.9318	    29.369	
   2.86034	0.00119302	   2.85191	 0.0011637	   2.86252	  0.001163	   2.85826	0.00117324	   2.85826	    29.331	
   2.78655	0.00119146	   2.77852	0.00116227	   2.78904	 0.0011614	    2.7847	0.00117171	    2.7847	   29.2927	
   2.71277	0.00118985	   2.70505	0.00116075	   2.71535	0.00115986	   2.71106	0.00117015	   2.71106	   29.2539	
   2.63884	0.00118822	   2.63146	0.00115918	   2.64151	0.00115827	   2.63727	0.00116856	   2.63727	   29.2139	
   2.56502	0.00118656	   2.55778	0.00115757	   2.56841	0.00115652	   2.56374	0.00116688	   2.56374	   29.1721	
   2.49091	0.00118488	   2.48385	0.00115596	   2.49498	0.00115454	   2.48991	0.00116513	   2.48991	   29.1283	
    2.4168	0.00118317	   2.40984	0.00115433	   2.42212	0.00115246	   2.41625	0.00116332	   2.41625	    29.083	
   2.34272	0.00118139	    2.3359	0.00115265	   2.34782	0.00115046	   2.34214	 0.0011615	   2.34214	   29.0375	
   2.26849	0.00117952	   2.26184	0.00115088	   2.27329	0.00114863	   2.26787	0.00115968	   2.26787	    28.992	
   2.19438	0.00117758	   2.18784	0.00114905	   2.19807	0.00114691	   2.19343	0.00115785	   2.19343	   28.9462	
    2.1202	 0.0011756	   2.11359	0.00114716	   2.12236	0.00114511	   2.11872	0.00115596	   2.11872	   28.8989	
   2.04601	0.00117362	   2.03937	0.00114525	    2.0474	0.00114309	   2.04426	0.00115399	   2.04426	   28.8496	
   1.97174	0.00117165	   1.96512	0.00114332	   1.97222	0.00114088	   1.96969	0.00115195	   1.96969	   28.7988	
   1.89732	0.00116967	   1.89077	0.00114136	     1.897	0.00113861	   1.89503	0.00114988	   1.89503	   28.7471	
   1.82292	0.00116762	   1.81637	0.00113934	    1.8223	0.00113641	   1.82053	0.00114779	   1.82053	   28.6947	
   1.74836	0.00116547	   1.74176	0.00113724	   1.74739	 0.0011343	   1.74584	0.00114567	   1.74584	   28.6417	
   1.67381	0.00116323	   1.66719	0.00113507	   1.67244	0.00113221	   1.67115	 0.0011435	   1.67115	   28.5876	
   1.59931	0.00116093	   1.59241	0.00113287	    1.5979	0.00113002	   1.59654	0.00114128	   1.59654	   28.5319	
   1.52467	0.00115863	   1.51757	0.00113065	   1.52274	0.00112768	   1.52166	0.00113899	   1.52166	   28.4747	
   1.45008	0.00115629	   1.44261	0.00112839	   1.44736	0.00112523	   1.44668	0.00113664	   1.44668	   28.4159	
   1.37523	0.00115384	   1.36748	0.00112607	   1.37226	0.00112277	   1.37166	0.00113423	   1.37166	   28.3557	
   1.30041	0.00115135	   1.29245	0.00112371	   1.29691	0.00112034	   1.29659	 0.0011318	   1.29659	    28.295	
   1.22555	0.00114887	   1.21713	0.00112132	   1.22182	0.00111796	    1.2215	0.00112938	    1.2215	   28.2346	
   1.15059	0.00114651	    1.1418	0.00111891	   1.14667	0.00111556	   1.14635	0.00112699	   1.14635	   28.1748	
   1.07568	0.00114424	    1.0665	0.00111648	   1.07121	0.00111304	   1.07113	0.00112459	   1.07113	   28.1147	
   1.00055	0.00114192	  0.991058	  0.001114	   0.99571	0.00111039	  0.995773	 0.0011221	  0.995773	   28.0526	
  0.925366	0.00113938	  0.915643	0.00111143	  0.920325	0.00110765	  0.920445	0.00111948	  0.920445	   27.9871	
  0.850068	0.00113654	  0.840291	0.00110876	  0.844985	0.00110489	  0.845115	0.00111673	  0.845115	   27.9182	
  0.774708	0.00113348	  0.764938	0.00110601	  0.769625	0.00110216	  0.769757	0.00111389	  0.769757	   27.8472	
  0.699443	0.00113042	  0.689629	0.00110323	  0.694292	0.00109946	  0.694454	0.00111104	  0.694454	   27.7759	
  0.624095	0.00112753	  0.614296	0.00110044	   0.61892	 0.0010967	  0.619103	0.00110822	  0.619103	   27.7056	
   0.54882	0.00112481	  0.539089	0.00109762	   0.54366	0.00109384	  0.543856	0.00110542	  0.543856	   27.6356	
  0.473444	0.00112209	  0.463832	0.00109475	  0.468443	0.00109087	  0.468573	0.00110257	  0.468573	   27.5643	
   0.39802	0.00111915	   0.38857	0.00109185	  0.393201	0.00108787	  0.393264	0.00109962	  0.393264	   27.4905	
    0.3227	0.00111593	  0.313455	0.00108891	   0.31777	0.00108487	  0.317975	0.00109657	  0.317975	   27.4142	
  0.247309	0.00111255	  0.238199	0.00108595	  0.242313	0.00108187	  0.242607	0.00109345	  0.242607	   27.3364	
  0.171999	 0.0011092	  0.163066	0.00108297	  0.166772	0.00107881	  0.167279	0.00109033	  0.167279	   27.2582	
 0.0968097	0.00110602	 0.0879861	0.00107993	 0.0913024	0.00107565	 0.0920327	 0.0010872	 0.0920327	     27.18	
 0.0215636	0.00110294	 0.0128923	0.00107681	 0.0158388	0.00107239	 0.0167649	0.00108405	 0.0167649	   27.1012	
  -0.05369	0.00109979	-0.0620643	0.00107362	-0.0594687	0.00106909	-0.0584077	0.00108084	-0.0584077	   27.0209	
  -0.12912	0.00109642	 -0.137171	0.00107038	 -0.134908	0.00106583	 -0.133733	0.00107754	 -0.133733	   26.9386	
 -0.204457	0.00109282	 -0.212265	0.00106711	 -0.210316	 0.0010626	 -0.209013	0.00107418	 -0.209013	   26.8545	
 -0.279876	0.00108915	 -0.287413	0.00106382	  -0.28576	0.00105933	  -0.28435	0.00107077	  -0.28435	   26.7692	
 -0.355327	0.00108556	 -0.362567	0.00106049	 -0.361194	0.00105597	 -0.359696	0.00106734	 -0.359696	   26.6835	
 -0.430868	0.00108211	 -0.437683	0.00105709	 -0.436573	 0.0010525	 -0.435041	 0.0010639	 -0.435041	   26.5975	
 -0.506449	0.00107871	 -0.512934	0.00105364	  -0.51207	0.00104898	 -0.510484	0.00106044	 -0.510484	    26.511	
 -0.581917	0.00107517	 -0.588055	0.00105015	 -0.587525	0.00104546	 -0.585832	0.00105693	 -0.585832	   26.4232	
 -0.657237	0.00107143	 -0.663222	0.00104664	 -0.662898	0.00104196	 -0.661119	0.00105334	 -0.661119	   26.3335	
 -0.732586	0.00106752	 -0.738388	0.00104308	 -0.738257	0.00103841	 -0.736411	0.00104967	 -0.736411	   26.2418	
 -0.807918	 0.0010636	 -0.813511	0.00103948	 -0.813664	0.00103476	 -0.811698	0.00104595	 -0.811698	   26.1486	
 -0.883403	0.00105978	 -0.888763	0.00103581	 -0.889177	  0.001031	 -0.887114	 0.0010422	 -0.887114	   26.0549	
 -0.958774	0.00105606	 -0.963879	0.00103209	 -0.964534	0.00102717	 -0.962396	0.00103844	 -0.962396	   25.9609	
  -1.03421	0.00105232	  -1.03914	0.00102833	  -1.03981	0.00102337	  -1.03772	0.00103467	  -1.03772	   25.8668	
  -1.10965	0.00104844	   -1.1144	0.00102454	  -1.11507	0.00101964	  -1.11304	0.00103088	  -1.11304	   25.7719	
  -1.18507	0.00104438	   -1.1896	0.00102073	  -1.19049	0.00101595	  -1.18838	0.00102702	  -1.18838	   25.6755	
  -1.26037	0.00104019	  -1.26466	0.00101691	    -1.266	0.00101221	  -1.26368	0.00102311	  -1.26368	   25.5776	
  -1.33556	0.00103601	  -1.33961	0.00101307	  -1.34146	0.00100834	  -1.33888	0.00101914	  -1.33888	   25.4785	
  -1.41062	 0.0010319	  -1.41439	0.00100918	  -1.41671	0.00100435	  -1.41391	0.00101514	  -1.41391	   25.3786	
  -1.48571	0.00102783	   -1.4892	0.00100521	  -1.49195	0.00100034	  -1.48895	0.00101113	  -1.48895	   25.2782	
  -1.56058	0.00102369	  -1.56389	0.00100119	  -1.56691	0.000996396	  -1.56379	0.00100709	  -1.56379	   25.1773	
  -1.63564	 0.0010194	  -1.63852	0.000997131	   -1.6419	0.00099253	  -1.63869	0.00100302	  -1.63869	   25.0755	
   -1.7106	0.00101497	  -1.71307	0.000993064	  -1.71676	0.000988646	  -1.71348	0.000998893	  -1.71348	   24.9723	
  -1.78544	0.00101049	   -1.7875	0.000988997	  -1.79167	0.000984609	   -1.7882	0.000994697	   -1.7882	   24.8674	
  -1.86034	0.00100604	  -1.86188	0.000984891	   -1.8666	0.000980404	  -1.86294	0.000990446	  -1.86294	   24.7611	
  -1.93503	0.00100166	  -1.93608	0.000980713	  -1.94138	0.000976104	   -1.9375	0.000986159	   -1.9375	    24.654	
  -2.00982	0.000997272	  -2.01027	0.000976472	   -2.0162	0.000971844	   -2.0121	0.000981863	   -2.0121	   24.5466	
  -2.08454	0.000992794	  -2.08443	0.000972192	  -2.09091	0.000967685	  -2.08663	0.000977557	  -2.08663	   24.4389	
  -2.15905	0.000988181	   -2.1584	0.000967888	  -2.16528	0.000963583	  -2.16091	0.000973217	  -2.16091	   24.3304	
  -2.23365	0.000983469	  -2.23238	0.000963571	  -2.23969	0.000959405	  -2.23524	0.000968815	  -2.23524	   24.2204	
  -2.30808	0.00097874	  -2.30622	0.000959232	  -2.31391	0.000955052	   -2.3094	0.000964341	   -2.3094	   24.1085	
   -2.3822	0.000974052	  -2.37999	0.000954836	  -2.38801	0.000950532	   -2.3834	0.000959807	   -2.3834	   23.9952	
  -2.45631	0.000969405	  -2.45378	0.00095037	  -2.46207	0.000945954	  -2.45739	0.000955243	  -2.45739	   23.8811	
  -2.53028	0.000964732	  -2.52732	0.000945849	  -2.53594	0.000941425	  -2.53118	0.000950669	  -2.53118	   23.7667	
  -2.60429	0.000959967	  -2.60082	0.000941295	  -2.60982	0.000936973	  -2.60498	0.000946078	  -2.60498	    23.652	
  -2.67818	0.000955095	  -2.67424	0.000936722	  -2.68356	0.000932522	  -2.67866	0.000941446	  -2.67866	   23.5362	
  -2.75183	0.000950158	  -2.74766	0.000932135	  -2.75713	0.000927965	  -2.75221	0.000936753	  -2.75221	   23.4188	
  -2.82543	0.000945202	  -2.82114	0.000927521	  -2.83062	0.00092325	  -2.82573	0.000931991	  -2.82573	   23.2998	
  -2.89883	0.000940267	  -2.89443	0.000922855	  -2.90389	0.000918423	  -2.89905	0.000927182	  -2.89905	   23.1795	
  -2.97203	0.000935343	  -2.96772	0.000918123	  -2.97723	0.000913584	  -2.97233	0.00092235	  -2.97233	   23.0588	
   -3.0451	0.000930383	  -3.04097	0.000913343	  -3.05051	0.000908812	  -3.04552	0.000917513	  -3.04552	   22.9378	
  -3.11811	0.000925357	  -3.11395	0.000908531	  -3.12357	0.00090411	  -3.11854	0.000912666	  -3.11854	   22.8167	
  -3.19105	0.000920244	  -3.18683	0.000903702	  -3.19662	0.000899399	   -3.1915	0.000907782	   -3.1915	   22.6945	
  -3.26389	0.000915045	  -3.25961	0.000898854	  -3.26951	0.000894583	  -3.26434	0.000902827	  -3.26434	   22.5707	
  -3.33659	0.000909794	  -3.33215	0.000893969	  -3.34222	0.000889627	  -3.33699	0.000897796	  -3.33699	   22.4449	
  -3.40913	0.000904507	  -3.40474	0.000889026	  -3.41484	0.000884584	  -3.40957	0.000892706	  -3.40957	   22.3176	
  -3.48149	 0.0008992	  -3.47715	0.000884031	  -3.48724	0.000879551	  -3.48196	0.000887594	  -3.48196	   22.1899	
  -3.55377	0.000893883	  -3.54924	0.000878996	   -3.5594	0.000874586	  -3.55414	0.000882488	  -3.55414	   22.0622	
  -3.62603	0.000888527	  -3.62123	0.000873936	  -3.63141	0.000869661	  -3.62622	0.000877375	  -3.62622	   21.9344	
  -3.69814	0.000883103	  -3.69297	0.000868856	  -3.70315	0.000864684	  -3.69809	0.000872214	  -3.69809	   21.8054	
  -3.77019	0.000877599	  -3.76468	0.000863751	   -3.7746	0.000859573	  -3.76982	0.000866974	  -3.76982	   21.6744	
  -3.84215	0.000872035	  -3.83621	0.00085862	  -3.84598	0.000854326	  -3.84145	0.00086166	  -3.84145	   21.5415	
  -3.91377	0.000866439	  -3.90745	0.000853447	  -3.91715	0.000849017	  -3.91279	0.000856301	  -3.91279	   21.4075	
  -3.98517	0.000860839	   -3.9786	0.000848222	   -3.9881	0.000843734	  -3.98396	0.000850932	  -3.98396	   21.2733	
  -4.05644	0.000855226	  -4.04964	0.000842937	  -4.05892	0.00083851	    -4.055	0.000845558	    -4.055	   21.1389	
  -4.12735	0.000849574	  -4.12044	0.000837606	   -4.1296	0.000833294	  -4.12579	0.000840158	  -4.12579	    21.004	
  -4.19832	0.000843864	   -4.1911	0.000832252	  -4.20032	0.000827993	  -4.19658	0.000834703	  -4.19658	   20.8676	
  -4.26911	0.000838113	   -4.2616	0.000826894	  -4.27086	0.000822554	  -4.26719	0.000829187	  -4.26719	   20.7297	
  -4.33959	0.000832351	  -4.33193	0.000821526	  -4.34109	  0.000817	  -4.33754	0.000823626	  -4.33754	   20.5906	
  -4.41009	0.000826587	  -4.40219	0.000816136	  -4.41133	0.000811416	  -4.40787	0.000818046	  -4.40787	   20.4512	
  -4.48036	0.000820799	  -4.47224	0.000810709	  -4.48134	0.000805875	  -4.47798	0.000812461	  -4.47798	   20.3115	
   -4.5504	0.000814945	  -4.54219	0.000805246	  -4.55132	0.000800382	  -4.54797	0.000806858	  -4.54797	   20.1714	
  -4.62041	0.000809008	  -4.61202	0.000799729	  -4.62125	0.000794871	  -4.61789	0.000801202	  -4.61789	   20.0301	
  -4.69015	0.00080301	   -4.6816	0.000794168	   -4.6909	0.000789263	  -4.68755	0.00079548	  -4.68755	    19.887	
  -4.75983	0.000796997	  -4.75093	0.000788577	  -4.76037	0.000783522	  -4.75704	0.000789699	  -4.75704	   19.7425	
  -4.82944	0.000791007	  -4.82022	0.000782955	  -4.82975	0.000777694	  -4.82647	0.000783885	  -4.82647	   19.5971	
  -4.89874	0.000785035	  -4.88924	0.000777311	  -4.89893	0.000771853	  -4.89564	0.000778066	  -4.89564	   19.4517	
  -4.96795	0.000779041	  -4.95809	0.000771654	  -4.96791	0.000766052	  -4.96465	0.000772249	  -4.96465	   19.3062	
  -5.03705	0.000772976	  -5.02688	0.000765967	  -5.03667	0.000760291	  -5.03353	0.000766411	  -5.03353	   19.1603	
  -5.10582	0.000766822	  -5.09538	0.000760235	   -5.1051	0.000754499	   -5.1021	0.000760519	   -5.1021	    19.013	
  -5.17431	0.000760607	   -5.1635	0.000754454	  -5.17364	0.000748607	  -5.17048	0.000754556	  -5.17048	   18.8639	
  -5.24269	0.000754376	  -5.23155	0.000748624	  -5.24205	0.000742605	  -5.23876	0.000748535	  -5.23876	   18.7134	
  -5.31073	0.000748158	  -5.29932	0.000742767	  -5.31021	0.000736553	  -5.30675	0.000742493	  -5.30675	   18.5623	
  -5.37866	0.000741954	   -5.3669	0.000736892	  -5.37812	0.000730526	  -5.37456	0.000736457	  -5.37456	   18.4114	
  -5.44646	0.000735747	   -5.4344	0.000730997	  -5.44588	0.000724554	  -5.44225	0.000730433	  -5.44225	   18.2608	
  -5.51392	0.000729484	  -5.50171	0.000725064	  -5.51329	0.000718579	  -5.50964	0.000724376	  -5.50964	   18.1094	
  -5.58126	0.000723133	  -5.56861	0.000719089	  -5.58057	0.000712498	  -5.57681	0.00071824	  -5.57681	    17.956	
  -5.64837	0.000716701	  -5.63544	0.000713075	  -5.64759	0.000706252	   -5.6438	0.000712009	   -5.6438	   17.8002	
  -5.71514	0.000710228	  -5.70198	0.000707035	  -5.71427	0.000699928	  -5.71046	0.00070573	  -5.71046	   17.6433	
  -5.78148	0.000703754	  -5.76823	0.000700979	  -5.78094	0.000693659	  -5.77688	0.000699464	  -5.77688	   17.4866	
  -5.84774	0.00069732	  -5.83422	0.000694923	    -5.848	0.000687499	  -5.84332	0.000693247	  -5.84332	   17.3312	
  -5.91369	0.000690915	  -5.89995	0.000688846	  -5.91476	0.00068139	  -5.90947	0.000687051	  -5.90947	   17.1763	
  -5.97934	0.000684504	  -5.96543	0.000682717	  -5.98136	0.000675192	  -5.97538	0.000680804	  -5.97538	   17.0201	
  -6.04494	0.000678046	  -6.03077	0.000676516	  -6.04715	0.000668821	  -6.04095	0.000674461	  -6.04095	   16.8615	
  -6.11024	0.000671517	  -6.09588	0.000670253	  -6.11272	0.000662356	  -6.10628	0.000668042	  -6.10628	    16.701	
  -6.17518	0.000664932	  -6.16065	0.00066396	  -6.17797	0.000655897	  -6.17127	0.000661596	  -6.17127	   16.5399	
  -6.23997	0.000658328	  -6.22532	0.000657691	  -6.24291	0.000649509	  -6.23607	0.000655176	  -6.23607	   16.3794	
  -6.30451	0.000651727	  -6.28978	0.000651456	  -6.30725	0.000643183	  -6.30052	0.000648788	  -6.30052	   16.2197	
  -6.36861	0.000645152	  -6.35384	0.000645211	  -6.37156	0.000636809	  -6.36467	0.00064239	  -6.36467	   16.0598	
  -6.43262	0.000638559	  -6.41772	0.000638901	  -6.43488	0.000630309	  -6.42841	0.000635923	  -6.42841	   15.8981	
  -6.49643	0.000631895	  -6.48145	0.000632504	  -6.49856	0.000623731	  -6.49214	0.000629377	  -6.49214	   15.7344	
  -6.55984	0.000625148	  -6.54481	0.000626044	  -6.56235	0.00061713	  -6.55567	0.000622774	  -6.55567	   15.5693	
  -6.62299	0.00061835	  -6.60805	0.000619572	  -6.62529	0.000610566	  -6.61878	0.000616163	  -6.61878	   15.4041	
   -6.6859	0.000611556	  -6.67106	0.000613124	   -6.6885	0.000604039	  -6.68182	0.000609573	  -6.68182	   15.2393	
  -6.74847	0.00060483	  -6.73377	0.000606675	  -6.75101	0.000597495	  -6.74442	  0.000603	  -6.74442	    15.075	
  -6.81064	0.000598152	  -6.79608	0.000600191	   -6.8133	0.000590879	  -6.80667	0.000596408	  -6.80667	   14.9102	
  -6.87265	0.000591444	  -6.85825	0.00059365	   -6.8758	0.000584181	   -6.8689	0.000589758	   -6.8689	    14.744	
   -6.9344	0.000584641	  -6.92017	0.000587049	   -6.9376	0.000577428	  -6.93072	0.000583039	  -6.93072	    14.576	
  -6.99571	0.000577742	  -6.98167	0.000580415	  -6.99955	0.000570655	  -6.99231	0.000576271	  -6.99231	   14.4068	
  -7.05683	0.000570808	  -7.04288	0.000573779	   -7.0608	0.000563893	   -7.0535	0.000569493	   -7.0535	   14.2373	
  -7.11778	0.000563933	  -7.10394	0.00056715	  -7.12183	0.00055714	  -7.11452	0.000562741	  -7.11452	   14.0685	
  -7.17837	0.000557143	  -7.16465	0.000560509	  -7.18278	0.000550364	  -7.17526	0.000556005	  -7.17526	   13.9001	
  -7.23852	0.000550363	  -7.22493	0.000553828	  -7.24323	0.000543529	  -7.23556	0.00054924	  -7.23556	    13.731	
   -7.2986	0.000543488	  -7.28495	0.000547058	  -7.30354	0.00053663	   -7.2957	0.000542392	   -7.2957	   13.5598	
  -7.35841	0.000536504	  -7.34483	0.00054019	  -7.36321	0.000529689	  -7.35548	0.000535461	  -7.35548	   13.3865	
  -7.41777	0.00052948	  -7.40428	0.000533291	  -7.42262	0.000522743	  -7.41489	0.000528505	  -7.41489	   13.2126	
  -7.47694	0.000522483	  -7.46335	0.000526431	  -7.48179	0.000515811	  -7.47403	0.000521575	  -7.47403	   13.0394	
  -7.53595	0.000515551	  -7.52228	0.000519621	  -7.54077	0.000508876	    -7.533	0.000514683	    -7.533	   12.8671	
  -7.59461	0.00050865	    -7.581	0.000512825	  -7.59936	0.000501898	  -7.59165	0.000507791	  -7.59165	   12.6948	
  -7.65275	0.00050169	  -7.63921	0.000505928	   -7.6575	0.000494857	  -7.64982	0.000500825	  -7.64982	   12.5206	
  -7.71043	0.000494621	  -7.69709	0.000498915	  -7.71546	0.000487757	  -7.70766	0.000493764	  -7.70766	   12.3441	
  -7.76791	0.000487483	  -7.75478	0.000491862	  -7.77317	0.000480633	  -7.76529	0.000486659	  -7.76529	   12.1665	
  -7.82502	0.000480344	   -7.8121	0.000484844	  -7.83055	0.000473527	  -7.82255	0.000479571	  -7.82255	   11.9893	
   -7.8818	0.000473252	   -7.8692	0.000477895	  -7.88754	0.000466457	  -7.87951	0.000472535	  -7.87951	   11.8134	
  -7.93851	0.000466202	  -7.92612	0.000470976	  -7.94429	0.000459387	  -7.93631	0.000465521	  -7.93631	    11.638	
  -7.99497	0.000459143	  -7.98279	0.000463982	  -8.00075	0.000452268	  -7.99283	0.000458464	  -7.99283	   11.4616	
    -8.051	0.000452007	  -8.03913	0.000456864	  -8.05684	0.000445077	  -8.04899	0.000451316	  -8.04899	   11.2829	
  -8.10676	0.00044478	    -8.095	0.000449672	  -8.11273	0.000437828	  -8.10483	0.000444094	  -8.10483	   11.1023	
  -8.16231	0.000437513	  -8.15065	0.000442497	  -8.16825	0.000430553	   -8.1604	0.000436854	   -8.1604	   10.9214	
  -8.21758	0.000430267	  -8.20603	0.000435391	  -8.22344	0.000423291	  -8.21568	0.00042965	  -8.21568	   10.7412	
   -8.2725	0.000423066	  -8.26097	0.000428336	  -8.27847	0.000416034	  -8.27064	0.000422479	  -8.27064	    10.562	
  -8.32703	0.000415891	  -8.31553	0.000421264	  -8.33305	0.000408764	   -8.3252	0.000415306	   -8.3252	   10.3827	
  -8.38143	0.000408682	  -8.36987	0.000414098	  -8.38747	0.000401461	  -8.37959	0.00040808	  -8.37959	    10.202	
  -8.43554	0.000401391	  -8.42394	0.000406824	  -8.44155	0.000394106	  -8.43368	0.000400773	  -8.43368	   10.0193	
   -8.4892	0.000394027	  -8.47771	0.000399492	  -8.49513	0.000386716	  -8.48735	0.000393412	  -8.48735	   9.83529	
  -8.54226	0.000386638	  -8.53088	0.000392178	   -8.5484	0.000379316	  -8.54051	0.000386044	  -8.54051	    9.6511	
  -8.59522	0.000379266	  -8.58386	0.000384911	   -8.6012	0.000371915	  -8.59343	0.000378697	  -8.59343	   9.46743	
  -8.64792	0.000371923	  -8.63659	0.000377659	   -8.6537	0.00036452	  -8.64607	0.000371368	  -8.64607	   9.28419	
  -8.70019	0.000364578	  -8.68891	0.000370367	  -8.70576	0.00035712	  -8.69829	0.000364022	  -8.69829	   9.10054	
  -8.75191	0.000357188	  -8.74068	0.000362997	  -8.75744	0.000349688	  -8.75001	0.000356624	  -8.75001	    8.9156	
  -8.80356	0.000349726	  -8.79229	0.000355571	  -8.80892	0.000342214	  -8.80159	0.00034917	  -8.80159	   8.72926	
  -8.85487	0.000342215	  -8.84369	0.000348156	  -8.86014	0.000334713	   -8.8529	0.000341695	   -8.8529	   8.54237	
  -8.90581	0.000334698	  -8.89472	0.000340796	  -8.91096	0.000327197	  -8.90383	0.00033423	  -8.90383	   8.35576	
  -8.95644	0.000327204	  -8.94525	0.000333475	  -8.96133	0.000319679	  -8.95434	0.000326786	  -8.95434	   8.16966	
  -9.00651	0.000319734	  -8.99555	0.00032612	  -9.01113	0.000312163	   -9.0044	0.000319339	   -9.0044	   7.98347	
  -9.05643	0.000312253	  -9.04549	0.000318675	  -9.06076	0.000304614	  -9.05422	0.000311847	  -9.05422	   7.79618	
  -9.10604	0.000304722	  -9.09513	0.00031114	  -9.11007	0.000297004	  -9.10374	0.000304289	  -9.10374	   7.60721	
  -9.15519	0.000297131	  -9.14433	0.000303585	  -9.15892	0.000289349	  -9.15281	0.000296688	  -9.15281	   7.41721	
  -9.20398	0.000289512	  -9.19317	0.000296091	  -9.20739	0.000281708	  -9.20151	0.000289104	  -9.20151	   7.22759	
  -9.25258	0.000281908	  -9.24162	0.00028868	  -9.25556	0.000274141	  -9.24992	0.000281577	  -9.24992	   7.03941	
  -9.30095	0.00027434	  -9.28987	0.000281297	   -9.3035	0.000266656	  -9.29811	0.000274098	  -9.29811	   6.85244	
  -9.34895	0.000266783	  -9.33766	0.00027386	  -9.35108	0.000259176	   -9.3459	0.000266606	   -9.3459	   6.66515	
  -9.39644	0.00025919	  -9.38498	0.000266328	  -9.39816	0.000251584	  -9.39319	0.000259034	  -9.39319	   6.47585	
  -9.44351	0.000251541	  -9.43181	0.000258735	  -9.44483	0.000243829	  -9.44005	0.000251368	  -9.44005	   6.28421	
  -9.49026	0.000243861	  -9.47835	0.000251154	  -9.49107	0.000235982	  -9.48656	0.000243666	  -9.48656	   6.09164	
  -9.53676	0.000236205	  -9.52457	0.000243642	  -9.53709	0.000228175	  -9.53281	0.000236007	  -9.53281	   5.90018	
  -9.58287	0.000228599	  -9.57045	0.000236193	  -9.58274	0.000220486	  -9.57869	0.000228426	  -9.57869	   5.71066	
  -9.62848	0.000221023	  -9.61586	0.000228752	   -9.6281	0.000212875	  -9.62415	0.000220884	  -9.62415	   5.52209	
  -9.67368	0.000213426	  -9.66079	0.000221261	  -9.67306	0.000205244	  -9.66918	0.00021331	  -9.66918	   5.33276	
  -9.71846	0.00020576	  -9.70524	0.000213696	   -9.7177	0.000197489	   -9.7138	0.000205648	   -9.7138	   5.14121	
   -9.7629	0.000198018	   -9.7495	0.000206088	  -9.76211	0.000189595	  -9.75817	 0.0001979	  -9.75817	   4.94751	
    -9.807	0.000190239	  -9.79346	0.000198497	  -9.80615	0.000181645	   -9.8022	0.000190127	   -9.8022	   4.75318	
  -9.85063	0.000182493	  -9.83699	0.000190964	  -9.84971	0.000173738	  -9.84578	0.000182398	  -9.84578	   4.55996	
  -9.89368	0.000174871	  -9.87997	0.000183477	  -9.89269	0.000165901	  -9.88878	0.00017475	  -9.88878	   4.36875	
  -9.93648	0.000167314	  -9.92241	0.000175987	  -9.93529	0.00015809	  -9.93139	0.000167131	  -9.93139	   4.17827	
  -9.97869	0.000159718	  -9.96453	0.000168441	  -9.97773	0.000150221	  -9.97365	0.00015946	  -9.97365	    3.9865	
  -10.0197	0.000151936	  -10.0064	0.00016083	  -10.0199	0.00014225	  -10.0153	0.000151672	  -10.0153	   3.79181	
  -10.0601	0.00014398	   -10.048	0.000153193	  -10.0616	0.000134206	  -10.0565	0.000143793	  -10.0565	   3.59483	
  -10.0993	0.000135958	   -10.089	0.000145587	  -10.1028	0.000126168	  -10.0971	0.000135904	  -10.0971	   3.39761	
  -10.1397	0.00012808	  -10.1296	0.000138035	  -10.1435	0.000118187	  -10.1376	0.000128101	  -10.1376	   3.20252	
  -10.1792	0.000120422	  -10.1696	0.000130509	  -10.1839	0.000110263	  -10.1776	0.000120398	  -10.1776	   3.00995	
  -10.2194	0.000112908	  -10.2093	0.000122959	   -10.224	0.000102342	  -10.2176	0.000112736	  -10.2176	   2.81841	
  -10.2596	0.000105333	  -10.2487	0.00011535	  -10.2638	9.43678e-05	  -10.2574	0.000105017	  -10.2574	   2.62542	
  -10.2989	9.75494e-05	  -10.2878	0.000107696	  -10.3032	8.63231e-05	  -10.2966	9.71894e-05	  -10.2966	   2.42974	
   -10.338	8.95764e-05	  -10.3264	0.000100038	  -10.3421	7.82413e-05	  -10.3355	8.92851e-05	  -10.3355	   2.23213	
  -10.3765	8.15884e-05	  -10.3646	9.24176e-05	  -10.3804	7.0185e-05	  -10.3738	8.1397e-05	  -10.3738	   2.03493	
  -10.4143	7.37601e-05	  -10.4021	8.48381e-05	  -10.4182	6.21822e-05	  -10.4115	7.35935e-05	  -10.4115	   1.83984	
  -10.4519	6.61229e-05	  -10.4391	7.72606e-05	  -10.4555	5.42137e-05	  -10.4489	6.58657e-05	  -10.4489	   1.64664	
  -10.4888	5.85513e-05	  -10.4758	6.96368e-05	  -10.4926	4.62322e-05	  -10.4857	5.81401e-05	  -10.4857	    1.4535	
  -10.5255	5.08702e-05	  -10.5122	6.19637e-05	  -10.5294	3.81996e-05	  -10.5224	5.03445e-05	  -10.5224	   1.25861	
  -10.5619	4.29903e-05	  -10.5483	5.42842e-05	  -10.5658	3.01248e-05	  -10.5587	4.24664e-05	  -10.5587	   1.06166	
  -10.5979	3.49805e-05	   -10.584	4.66458e-05	  -10.6017	2.20581e-05	  -10.5945	3.45615e-05	  -10.5945	  0.864037	
  -10.6333	2.70176e-05	  -10.6191	 3.906e-05	   -10.637	1.40373e-05	  -10.6298	2.67049e-05	  -10.6298	  0.667624	
  -10.6681	1.9235e-05	  -10.6536	3.14918e-05	   -10.672	6.06203e-06	  -10.6646	1.89296e-05	  -10.6646	  0.473241	
  -10.7024	1.16131e-05	  -10.6878	2.38934e-05	  -10.7066	-1.90903e-06	  -10.6989	1.11992e-05	  -10.6989	  0.279979	
  -10.7366	4.0223e-06	  -10.7216	1.62564e-05	  -10.7409	-9.91222e-06	   -10.733	3.4555e-06	   -10.733	 0.0863874	
  -10.7704	-3.71916e-06	  -10.7551	8.5805e-06	   -10.775	-1.79607e-05	  -10.7668	-4.36646e-06	  -10.7668	 -0.109161	
   -10.804	-1.16828e-05	  -10.7884	9.17981e-07	  -10.8086	-2.6028e-05	  -10.8003	-1.22643e-05	  -10.8003	 -0.306606	
  -10.8371	-1.97566e-05	  -10.8213	-6.71368e-06	  -10.8417	-3.40701e-05	  -10.8334	-2.01801e-05	  -10.8334	 -0.504503	
  -10.8696	-2.77543e-05	  -10.8537	-1.43261e-05	  -10.8743	-4.20653e-05	  -10.8659	-2.80486e-05	  -10.8659	 -0.701215	
  -10.9016	-3.55518e-05	  -10.8856	-2.19319e-05	  -10.9063	-5.00306e-05	  -10.8978	-3.58381e-05	  -10.8978	 -0.895953	
  -10.9331	-4.31881e-05	  -10.9168	-2.95498e-05	  -10.9377	-5.80043e-05	  -10.9292	-4.35807e-05	  -10.9292	  -1.08952	
  -10.9641	-5.08496e-05	  -10.9476	-3.71814e-05	  -10.9687	-6.60135e-05	  -10.9601	-5.13482e-05	  -10.9601	   -1.2837	
  -10.9948	-5.87131e-05	  -10.9779	-4.48231e-05	  -10.9991	-7.40532e-05	  -10.9906	-5.91965e-05	  -10.9906	  -1.47991	
  -11.0251	-6.67877e-05	   -11.008	-5.24784e-05	  -11.0293	-8.20874e-05	  -11.0208	-6.71178e-05	  -11.0208	  -1.67795	
  -11.0551	-7.49152e-05	  -11.0377	-6.0128e-05	  -11.0591	-9.00817e-05	  -11.0506	-7.50416e-05	  -11.0506	  -1.87604	
  -11.0848	-8.28993e-05	  -11.0672	-6.77321e-05	  -11.0884	-9.80276e-05	  -11.0801	-8.28863e-05	  -11.0801	  -2.07216	
   -11.114	-9.06637e-05	  -11.0962	-7.52756e-05	  -11.1174	-0.000105955	  -11.1092	-9.06313e-05	  -11.1092	  -2.26578	
  -11.1428	-9.83099e-05	  -11.1248	-8.27777e-05	  -11.1458	-0.000113899	  -11.1378	-9.8329e-05	  -11.1378	  -2.45822	
  -11.1709	-0.000106032	   -11.153	-9.02864e-05	  -11.1737	-0.000121867	  -11.1659	-0.000106062	  -11.1659	  -2.65155	
  -11.1985	-0.000113953	  -11.1805	-9.7858e-05	   -11.201	-0.000129833	  -11.1933	-0.000113882	  -11.1933	  -2.84704	
  -11.2254	-0.000122003	  -11.2075	-0.000105492	  -11.2277	-0.000137758	  -11.2202	-0.000121751	  -11.2202	  -3.04378	
  -11.2519	-0.00013002	  -11.2339	-0.000113142	  -11.2542	-0.000145627	  -11.2467	-0.000129596	  -11.2467	   -3.2399	
  -11.2781	-0.000137863	  -11.2598	-0.000120741	  -11.2806	-0.000153455	  -11.2728	-0.000137353	  -11.2728	  -3.43383	
  -11.3038	-0.00014554	  -11.2853	-0.000128268	  -11.3067	-0.000161281	  -11.2986	-0.00014503	  -11.2986	  -3.62574	
  -11.3294	-0.000153191	  -11.3105	-0.00013575	  -11.3325	-0.000169129	  -11.3241	-0.00015269	  -11.3241	  -3.81725	
  -11.3546	-0.000160956	  -11.3354	-0.000143254	   -11.358	-0.000176986	  -11.3493	-0.000160399	  -11.3493	  -4.00997	
  -11.3795	-0.000168858	    -11.36	-0.000150818	  -11.3831	-0.000184811	  -11.3742	-0.000168162	  -11.3742	  -4.20406	
  -11.4041	-0.0001768	  -11.3842	-0.000158414	  -11.4077	-0.000192573	  -11.3986	-0.000175929	  -11.3986	  -4.39822	
  -11.4281	-0.000184642	   -11.408	-0.000165975	  -11.4318	-0.000200284	  -11.4226	-0.000183634	  -11.4226	  -4.59085	
  -11.4517	-0.000192325	  -11.4314	-0.000173468	  -11.4554	-0.000207993	  -11.4462	-0.000191262	  -11.4462	  -4.78156	
  -11.4747	-0.000199912	  -11.4543	-0.000180903	  -11.4785	-0.000215747	  -11.4691	-0.000198854	  -11.4691	  -4.97135	
  -11.4971	-0.000207525	  -11.4767	-0.00018833	  -11.5009	-0.000223545	  -11.4916	-0.000206467	  -11.4916	  -5.16167	
   -11.519	-0.000215253	  -11.4985	-0.000195801	  -11.5227	-0.000231334	  -11.5134	-0.00021413	  -11.5134	  -5.35324	
  -11.5402	-0.000223089	  -11.5198	-0.000203305	  -11.5439	-0.000239051	  -11.5346	-0.000221815	  -11.5346	  -5.54537	
  -11.5612	-0.000230932	  -11.5404	-0.000210804	  -11.5647	-0.000246672	  -11.5554	-0.000229469	  -11.5554	  -5.73673	
  -11.5815	-0.00023868	  -11.5606	-0.000218274	   -11.585	-0.000254234	  -11.5757	-0.000237063	  -11.5757	  -5.92657	
  -11.6016	-0.000246307	  -11.5801	-0.000225761	  -11.6048	-0.000261813	  -11.5955	-0.000244627	  -11.5955	  -6.11567	
  -11.6212	-0.000253883	  -11.5989	-0.000233319	  -11.6241	-0.000269453	  -11.6147	-0.000252218	  -11.6147	  -6.30545	
  -11.6403	-0.000261513	  -11.6171	-0.000240936	  -11.6431	-0.000277143	  -11.6335	-0.000259864	  -11.6335	  -6.49659	
  -11.6591	-0.00026925	  -11.6348	-0.000248481	  -11.6617	-0.000284815	  -11.6519	-0.000267515	  -11.6519	  -6.68788	
  -11.6776	-0.000277052	  -11.6524	-0.000255864	  -11.6799	-0.000292406	  -11.6699	-0.000275107	  -11.6699	  -6.87768	
  -11.6957	-0.000284809	  -11.6698	-0.00026309	  -11.6979	-0.000299904	  -11.6878	-0.000282601	  -11.6878	  -7.06502	
  -11.7134	-0.000292446	  -11.6871	-0.00027029	  -11.7154	-0.00030736	  -11.7053	-0.000290032	  -11.7053	  -7.25081	
  -11.7308	-0.000299981	   -11.704	-0.000277634	  -11.7327	-0.00031484	  -11.7225	-0.000297485	  -11.7225	  -7.43713	
  -11.7479	-0.00030751	  -11.7205	-0.000285193	  -11.7496	-0.000322372	  -11.7393	-0.000305025	  -11.7393	  -7.62562	
  -11.7646	-0.000315121	  -11.7361	-0.000292852	   -11.766	-0.000329921	  -11.7556	-0.000312631	  -11.7556	  -7.81578	
  -11.7809	-0.000322824	  -11.7511	-0.000300409	   -11.782	-0.000337423	  -11.7713	-0.000320219	  -11.7713	  -8.00547	
  -11.7967	-0.000330543	  -11.7656	-0.000307738	  -11.7975	-0.000344839	  -11.7866	-0.000327707	  -11.7866	  -8.19267	
   -11.812	-0.000338185	  -11.7799	-0.000314892	  -11.8127	-0.000352182	  -11.8016	-0.000335086	  -11.8016	  -8.37716	
   -11.827	-0.000345714	  -11.7939	-0.000322044	  -11.8274	-0.000359508	  -11.8161	-0.000342422	  -11.8161	  -8.56055	
  -11.8414	-0.000353179	  -11.8076	-0.000329352	  -11.8416	-0.000366869	  -11.8302	-0.0003498	  -11.8302	  -8.74499	
  -11.8554	-0.00036067	   -11.821	-0.000336825	  -11.8554	-0.000374268	  -11.8439	-0.000357254	  -11.8439	  -8.93136	
  -11.8689	-0.000368239	  -11.8341	-0.000344338	  -11.8686	-0.000381657	  -11.8572	-0.000364744	  -11.8572	  -9.11861	
  -11.8819	-0.00037586	  -11.8468	-0.000351719	  -11.8814	-0.000388981	    -11.87	-0.000372187	    -11.87	  -9.30467	
  -11.8944	-0.00038346	   -11.859	-0.000358908	  -11.8937	-0.000396224	  -11.8824	-0.000379531	  -11.8824	  -9.48827	
  -11.9064	-0.00039097	  -11.8709	-0.000365988	  -11.9055	-0.000403418	  -11.8943	-0.000386792	  -11.8943	   -9.6698	
   -11.918	-0.000398382	  -11.8823	-0.000373109	  -11.9168	-0.000410619	  -11.9057	-0.000394037	  -11.9057	  -9.85092	
   -11.929	-0.000405752	  -11.8934	-0.000380371	  -11.9277	-0.00041786	  -11.9167	-0.000401328	  -11.9167	  -10.0332	
  -11.9396	-0.000413155	  -11.9041	-0.000387757	   -11.938	-0.000425122	  -11.9272	-0.000408678	  -11.9272	  -10.2169	
  -11.9497	-0.000420629	  -11.9143	-0.000395141	  -11.9479	-0.000432358	  -11.9373	-0.000416043	  -11.9373	  -10.4011	
  -11.9593	-0.000428144	  -11.9241	-0.000402386	  -11.9573	-0.000439522	  -11.9469	-0.000423351	  -11.9469	  -10.5838	
  -11.9684	-0.000435627	  -11.9335	-0.00040946	  -11.9662	-0.000446612	   -11.956	-0.000430567	   -11.956	  -10.7642	
  -11.9771	-0.000443019	  -11.9426	-0.000416458	  -11.9745	-0.000453672	  -11.9647	-0.000437716	  -11.9647	  -10.9429	
  -11.9853	-0.000450322	  -11.9512	-0.000423516	  -11.9823	-0.000460743	  -11.9729	-0.00044486	  -11.9729	  -11.1215	
  -11.9929	-0.000457593	  -11.9593	-0.000430699	  -11.9897	-0.000467841	  -11.9807	-0.000452044	  -11.9807	  -11.3011	
  -12.0001	-0.000464897	  -11.9669	-0.000437942	  -11.9967	-0.000474932	  -11.9879	-0.000459257	  -11.9879	  -11.4814	
  -12.0068	-0.000472249	  -11.9738	-0.000445112	  -12.0033	-0.000481968	  -11.9946	-0.000466443	  -11.9946	  -11.6611	
   -12.013	-0.000479606	    -11.98	-0.00045213	  -12.0093	-0.000488924	  -12.0008	-0.000473553	  -12.0008	  -11.8388	
  -12.0188	-0.000486906	  -11.9856	-0.000459033	  -12.0149	-0.000495816	  -12.0064	-0.000480585	  -12.0064	  -12.0146	
  -12.0239	-0.00049411	  -11.9905	-0.000465926	    -12.02	-0.000502686	  -12.0115	-0.000487574	  -12.0115	  -12.1894	
  -12.0286	-0.00050124	  -11.9948	-0.000472894	  -12.0245	-0.000509572	  -12.0159	-0.000494569	  -12.0159	  -12.3642	
  -12.0326	-0.000508354	  -11.9984	-0.000479925	  -12.0284	-0.00051648	  -12.0198	-0.000501586	  -12.0198	  -12.5397	
  -12.0361	-0.000515502	  -12.0014	-0.000486919	  -12.0317	-0.000523372	   -12.023	-0.000508598	   -12.023	  -12.7149	
  -12.0388	-0.000522682	  -12.0037	-0.000493793	  -12.0345	-0.000530202	  -12.0257	-0.000515559	  -12.0257	   -12.889	
  -12.0407	-0.000529842	  -12.0054	-0.000500559	  -12.0367	-0.000536959	  -12.0276	-0.000522453	  -12.0276	  -13.0613	
   -12.042	-0.000536924	  -12.0065	-0.000507289	  -12.0381	-0.000543664	  -12.0289	-0.000529293	  -12.0289	  -13.2323	
  -12.0428	-0.000543909	  -12.0071	-0.000514074	  -12.0387	-0.000550352	  -12.0295	-0.000536112	  -12.0295	  -13.4028	
  -12.0429	-0.000550819	  -12.0071	-0.000520939	  -12.0388	-0.000557052	  -12.0296	-0.000542937	  -12.0296	  -13.5734	
  -12.0424	-0.000557707	  -12.0066	-0.000527803	  -12.0383	-0.000563759	  -12.0291	-0.000549756	  -12.0291	  -13.7439	
  -12.0413	-0.00056463	  -12.0057	-0.000534562	  -12.0373	-0.000570448	  -12.0281	-0.000556547	  -12.0281	  -13.9137	
  -12.0397	-0.000571604	  -12.0043	-0.000541181	  -12.0357	-0.000577111	  -12.0266	-0.000563299	  -12.0266	  -14.0825	
  -12.0374	-0.000578604	  -12.0026	-0.000547715	  -12.0337	-0.000583747	  -12.0246	-0.000570022	  -12.0246	  -14.2505	
  -12.0344	-0.000585553	  -12.0005	-0.000554259	  -12.0312	-0.00059034	   -12.022	-0.000576717	   -12.022	  -14.4179	
   -12.031	-0.000592379	  -11.9981	-0.000560886	  -12.0284	-0.000596882	  -12.0192	-0.000583382	  -12.0192	  -14.5846	
  -12.0275	-0.000599071	  -11.9953	-0.000567577	  -12.0253	-0.0006034	   -12.016	-0.000590016	   -12.016	  -14.7504	
  -12.0239	-0.000605683	  -11.9924	-0.00057424	  -12.0218	-0.000609931	  -12.0127	-0.000596618	  -12.0127	  -14.9154	
  -12.0201	-0.000612311	  -11.9888	-0.000580783	  -12.0181	-0.00061649	   -12.009	-0.000603194	   -12.009	  -15.0799	
  -12.0158	-0.00061901	  -11.9846	-0.000587183	  -12.0139	-0.000623064	  -12.0048	-0.000609753	  -12.0048	  -15.2438	
  -12.0109	-0.000625764	  -11.9799	-0.000593498	  -12.0092	-0.000629623	       -12	-0.000616295	       -12	  -15.4074	
  -12.0053	-0.000632488	  -11.9744	-0.000599816	   -12.004	-0.00063613	  -11.9946	-0.000622812	  -11.9946	  -15.5703	
   -11.999	-0.000639134	  -11.9684	-0.000606189	  -11.9981	-0.000642584	  -11.9885	-0.000629302	  -11.9885	  -15.7326	
  -11.9922	-0.000645688	  -11.9619	-0.000612583	  -11.9917	-0.000648968	  -11.9819	-0.000635746	  -11.9819	  -15.8937	
  -11.9849	-0.000652164	   -11.955	-0.000618918	  -11.9847	-0.000655292	  -11.9748	-0.000642125	  -11.9748	  -16.0531	
  -11.9777	-0.000658605	  -11.9477	-0.000625138	  -11.9772	-0.000661587	  -11.9675	-0.000648443	  -11.9675	  -16.2111	
  -11.9706	-0.000665062	    -11.94	-0.000631255	  -11.9693	-0.000667893	    -11.96	-0.000654737	    -11.96	  -16.3684	
  -11.9631	-0.000671536	  -11.9321	-0.000637329	   -11.961	-0.000674253	  -11.9521	-0.000661039	  -11.9521	   -16.526	
  -11.9546	-0.000678005	  -11.9238	-0.000643426	  -11.9525	-0.000680664	  -11.9436	-0.000667365	  -11.9436	  -16.6841	
  -11.9456	-0.000684438	  -11.9149	-0.000649561	  -11.9436	-0.000687054	  -11.9347	-0.000673684	  -11.9347	  -16.8421	
  -11.9359	-0.000690782	  -11.9056	-0.00065569	  -11.9344	-0.000693335	  -11.9253	-0.000679936	  -11.9253	  -16.9984	
  -11.9258	-0.000697043	  -11.8957	-0.000661746	  -11.9246	-0.000699483	  -11.9154	-0.00068609	  -11.9154	  -17.1523	
  -11.9153	-0.000703288	  -11.8852	-0.000667698	  -11.9144	-0.000705548	   -11.905	-0.000692178	   -11.905	  -17.3045	
  -11.9039	-0.000709558	  -11.8742	-0.000673574	  -11.9036	-0.000711635	  -11.8939	-0.000698256	  -11.8939	  -17.4564	
  -11.8922	-0.000715866	  -11.8628	-0.000679431	  -11.8923	-0.000717809	  -11.8824	-0.000704369	  -11.8824	  -17.6092	
  -11.8798	-0.000722163	  -11.8511	-0.000685312	  -11.8805	-0.000724036	  -11.8704	-0.000710504	  -11.8704	  -17.7626	
  -11.8671	-0.000728357	   -11.839	-0.000691222	  -11.8683	-0.000730212	  -11.8581	-0.000716597	  -11.8581	  -17.9149	
  -11.8547	-0.00073443	  -11.8266	-0.00069712	  -11.8559	-0.000736251	  -11.8457	-0.0007226	  -11.8457	   -18.065	
  -11.8411	-0.000740439	  -11.8138	-0.000702949	  -11.8431	-0.000742153	  -11.8327	-0.000728514	  -11.8327	  -18.2128	
  -11.8275	-0.00074646	  -11.8004	-0.000708677	  -11.8298	-0.000748003	  -11.8193	-0.00073438	  -11.8193	  -18.3595	
  -11.8134	-0.000752527	  -11.7865	-0.000714315	  -11.8158	-0.000753897	  -11.8052	-0.000740246	  -11.8052	  -18.5062	
  -11.7986	-0.000758604	   -11.772	-0.000719912	  -11.8013	-0.000759866	  -11.7906	-0.000746127	  -11.7906	  -18.6532	
  -11.7838	-0.00076461	  -11.7571	-0.000725525	  -11.7862	-0.000765851	  -11.7757	-0.000751996	  -11.7757	  -18.7999	
  -11.7683	-0.000770493	  -11.7419	-0.000731178	  -11.7707	-0.000771761	  -11.7603	-0.00075781	  -11.7603	  -18.9453	
  -11.7526	-0.000776264	  -11.7263	-0.000736845	  -11.7549	-0.00077754	  -11.7446	-0.000763549	  -11.7446	  -19.0887	
  -11.7363	-0.000781991	  -11.7102	-0.000742473	  -11.7387	-0.0007832	  -11.7284	-0.000769221	  -11.7284	  -19.2305	
  -11.7195	-0.000787748	  -11.6934	-0.000748016	  -11.7219	-0.000788812	  -11.7116	-0.000774858	  -11.7116	  -19.3715	
  -11.7025	-0.00079355	  -11.6762	-0.000753465	  -11.7047	-0.000794447	  -11.6944	-0.000780487	  -11.6944	  -19.5122	
  -11.6849	-0.000799343	  -11.6585	-0.00075886	  -11.6868	-0.000800126	  -11.6767	-0.00078611	  -11.6767	  -19.6527	
  -11.6671	-0.000805047	  -11.6404	-0.000764249	  -11.6684	-0.000805797	  -11.6586	-0.000791698	  -11.6586	  -19.7924	
  -11.6487	-0.000810625	   -11.622	-0.000769649	  -11.6497	-0.000811388	  -11.6401	-0.000797221	  -11.6401	  -19.9305	
  -11.6298	-0.000816107	  -11.6031	-0.000775039	  -11.6307	-0.000816866	  -11.6212	-0.000802671	  -11.6212	  -20.0668	
  -11.6104	-0.000821571	  -11.5837	-0.000780388	  -11.6112	-0.000822258	  -11.6018	-0.000808072	  -11.6018	  -20.2018	
  -11.5906	-0.000827078	  -11.5638	-0.000785701	  -11.5911	-0.000827626	  -11.5818	-0.000813468	  -11.5818	  -20.3367	
  -11.5703	-0.000832614	  -11.5434	-0.000791006	  -11.5703	-0.000833018	  -11.5613	-0.000818879	  -11.5613	   -20.472	
  -11.5494	-0.000838113	  -11.5225	-0.000796312	  -11.5491	-0.000838425	  -11.5404	-0.000824283	  -11.5404	  -20.6071	
  -11.5282	-0.000843499	  -11.5014	-0.000801598	  -11.5275	-0.000843798	   -11.519	-0.000829632	   -11.519	  -20.7408	
  -11.5067	-0.000848755	  -11.4799	-0.000806825	  -11.5057	-0.000849092	  -11.4974	-0.000834891	  -11.4974	  -20.8723	
  -11.4849	-0.000853953	   -11.458	-0.000811968	  -11.4834	-0.000854308	  -11.4754	-0.000840077	  -11.4754	  -21.0019	
  -11.4625	-0.000859177	  -11.4354	-0.000817063	  -11.4606	-0.00085948	  -11.4528	-0.00084524	  -11.4528	   -21.131	
  -11.4395	-0.000864458	  -11.4123	-0.000822152	  -11.4372	-0.000864648	  -11.4297	-0.000850419	  -11.4297	  -21.2605	
  -11.4161	-0.000869749	  -11.3889	-0.000827269	  -11.4134	-0.000869823	  -11.4061	-0.000855614	  -11.4061	  -21.3903	
  -11.3922	-0.000874967	   -11.365	-0.000832387	  -11.3892	-0.000874984	  -11.3821	-0.000860779	  -11.3821	  -21.5195	
  -11.3678	-0.00088006	  -11.3408	-0.00083745	  -11.3647	-0.00088009	  -11.3578	-0.000865867	  -11.3578	  -21.6467	
   -11.343	-0.000885059	   -11.316	-0.00084243	  -11.3398	-0.000885119	  -11.3329	-0.000870869	  -11.3329	  -21.7717	
  -11.3176	-0.000890042	  -11.2906	-0.000847341	  -11.3143	-0.000890079	  -11.3075	-0.000875821	  -11.3075	  -21.8955	
  -11.2918	-0.000895064	  -11.2649	-0.00085223	  -11.2884	-0.000895003	  -11.2817	-0.000880766	  -11.2817	  -22.0191	
  -11.2655	-0.000900121	  -11.2388	-0.000857129	  -11.2621	-0.000899923	  -11.2555	-0.000885724	  -11.2555	  -22.1431	
  -11.2389	-0.000905152	  -11.2123	-0.000862036	  -11.2355	-0.000904836	  -11.2289	-0.000890675	  -11.2289	  -22.2669	
  -11.2118	-0.000910092	  -11.1853	-0.000866902	  -11.2085	-0.000909702	  -11.2019	-0.000895565	  -11.2019	  -22.3891	
   -11.184	-0.0009149	  -11.1578	-0.0008717	  -11.1809	-0.000914514	  -11.1742	-0.000900371	  -11.1742	  -22.5093	
  -11.1558	-0.000919637	  -11.1298	-0.000876426	  -11.1528	-0.000919292	  -11.1461	-0.000905118	  -11.1461	   -22.628	
  -11.1272	-0.000924382	  -11.1016	-0.000881101	  -11.1243	-0.000924056	  -11.1177	-0.000909846	  -11.1177	  -22.7462	
  -11.0983	-0.00092922	   -11.073	-0.000885768	  -11.0953	-0.000928819	  -11.0889	-0.000914602	  -11.0889	  -22.8651	
  -11.0691	-0.000934135	  -11.0439	-0.00089044	  -11.0659	-0.00093356	  -11.0596	-0.000919378	  -11.0596	  -22.9845	
  -11.0392	-0.00093904	  -11.0143	-0.000895086	   -11.036	-0.000938232	  -11.0298	-0.000924119	  -11.0298	   -23.103	
   -11.009	-0.000943828	  -10.9842	-0.000899674	  -11.0056	-0.000942816	  -10.9996	-0.000928773	  -10.9996	  -23.2193	
  -10.9784	-0.000948472	  -10.9538	-0.000904216	  -10.9749	-0.00094734	   -10.969	-0.000933343	   -10.969	  -23.3336	
  -10.9475	-0.000953027	  -10.9229	-0.00090875	   -10.944	-0.000951868	  -10.9381	-0.000937882	  -10.9381	   -23.447	
   -10.916	-0.000957599	  -10.8914	-0.000913297	  -10.9124	-0.000956437	  -10.9066	-0.000942445	  -10.9066	  -23.5611	
   -10.884	-0.000962253	  -10.8594	-0.000917841	  -10.8803	-0.000961018	  -10.8746	-0.000947038	  -10.8746	  -23.6759	
  -10.8516	-0.000966965	  -10.8271	-0.000922333	  -10.8479	-0.000965538	  -10.8422	-0.000951612	  -10.8422	  -23.7903	
   -10.819	-0.000971638	  -10.7946	-0.000926709	  -10.8152	-0.000969965	  -10.8096	-0.000956104	  -10.8096	  -23.9026	
  -10.7859	-0.000976183	  -10.7618	-0.000930997	  -10.7819	-0.000974316	  -10.7765	-0.000960499	  -10.7765	  -24.0125	
  -10.7521	-0.000980588	  -10.7285	-0.000935236	  -10.7482	-0.000978645	  -10.7429	-0.000964823	  -10.7429	  -24.1206	
   -10.718	-0.000984928	  -10.6947	-0.000939497	   -10.714	-0.000983005	  -10.7089	-0.000969143	  -10.7089	  -24.2286	
  -10.6834	-0.0009893	  -10.6604	-0.000943806	  -10.6796	-0.000987384	  -10.6745	-0.000973497	  -10.6745	  -24.3374	
  -10.6485	-0.000993759	  -10.6254	-0.00094808	  -10.6447	-0.000991716	  -10.6395	-0.000977852	  -10.6395	  -24.4463	
  -10.6129	-0.000998255	  -10.5901	-0.000952242	  -10.6094	-0.000995954	  -10.6041	-0.00098215	  -10.6041	  -24.5537	
  -10.5769	-0.00100267	  -10.5543	-0.000956312	  -10.5737	-0.0010001	  -10.5683	-0.000986362	  -10.5683	   -24.659	
  -10.5406	-0.00100692	   -10.518	-0.000960315	  -10.5376	-0.0010042	  -10.5321	-0.000990479	  -10.5321	   -24.762	
  -10.5037	 -0.001011	  -10.4815	-0.000964313	  -10.5011	-0.00100831	  -10.4954	-0.000994541	  -10.4954	  -24.8635	
  -10.4663	-0.00101502	  -10.4441	-0.000968348	  -10.4642	-0.00101243	  -10.4582	-0.000998602	  -10.4582	  -24.9651	
  -10.4284	-0.0010191	  -10.4061	-0.000972374	  -10.4267	-0.00101655	  -10.4204	-0.00100267	  -10.4204	  -25.0669	
  -10.3903	-0.00102326	  -10.3681	-0.000976317	  -10.3889	-0.00102061	  -10.3825	-0.00100673	  -10.3825	  -25.1682	
  -10.3519	-0.00102744	  -10.3295	-0.000980161	  -10.3509	-0.00102457	  -10.3441	-0.00101072	  -10.3441	  -25.2681	
  -10.3129	-0.00103152	  -10.2907	-0.000983934	  -10.3124	-0.00102846	  -10.3053	-0.00101464	  -10.3053	  -25.3659	
  -10.2736	-0.00103543	  -10.2516	-0.000987679	  -10.2735	-0.00103231	  -10.2662	-0.00101847	  -10.2662	  -25.4618	
   -10.234	-0.00103921	  -10.2119	-0.000991452	  -10.2343	-0.00103616	  -10.2267	-0.00102227	  -10.2267	  -25.5568	
  -10.1943	-0.00104294	  -10.1719	-0.000995257	  -10.1946	-0.00104001	  -10.1869	-0.00102607	  -10.1869	  -25.6517	
  -10.1539	-0.00104671	  -10.1315	-0.000999041	  -10.1544	-0.00104385	  -10.1466	-0.00102987	  -10.1466	  -25.7467	
  -10.1132	-0.00105053	  -10.0908	-0.00100275	  -10.1138	-0.00104765	   -10.106	-0.00103364	   -10.106	  -25.8411	
  -10.0722	-0.00105432	  -10.0499	-0.00100637	   -10.073	-0.00105141	   -10.065	-0.00103737	   -10.065	  -25.9342	
  -10.0309	 -0.001058	  -10.0085	-0.00100993	  -10.0318	-0.00105513	  -10.0237	-0.00104102	  -10.0237	  -26.0255	
  -9.98913	-0.00106156	   -9.9667	-0.00101347	   -9.9902	-0.00105882	  -9.98201	-0.00104462	  -9.98201	  -26.1154	
  -9.94702	-0.00106506	  -9.92463	-0.00101705	   -9.9482	-0.00106246	  -9.93995	-0.00104819	  -9.93995	  -26.2048	
  -9.90473	-0.00106858	  -9.88222	-0.00102064	  -9.90587	-0.00106605	  -9.89761	-0.00105176	  -9.89761	   -26.294	
  -9.86189	-0.00107213	  -9.83954	-0.0010242	  -9.86308	-0.00106959	  -9.85484	-0.00105531	  -9.85484	  -26.3827	
  -9.81858	-0.00107568	  -9.79643	-0.00102766	   -9.8198	-0.0010731	  -9.81161	-0.00105882	  -9.81161	  -26.4704	
    -9.775	-0.00107915	  -9.75308	-0.00103104	  -9.77621	-0.0010766	   -9.7681	-0.00106226	   -9.7681	  -26.5566	
  -9.73099	-0.0010825	  -9.70923	-0.00103437	  -9.73217	-0.00108008	  -9.72413	-0.00106565	  -9.72413	  -26.6412	
  -9.68641	-0.00108575	  -9.66496	-0.0010377	  -9.68755	-0.00108351	  -9.67964	-0.00106898	  -9.67964	  -26.7246	
  -9.64148	-0.00108898	  -9.62035	-0.00104104	  -9.64254	-0.00108685	  -9.63479	-0.00107229	  -9.63479	  -26.8072	
  -9.59636	-0.00109223	  -9.57526	-0.00104437	  -9.59733	-0.0010901	  -9.58965	-0.00107557	  -9.58965	  -26.8891	
  -9.55071	-0.00109551	  -9.52979	-0.00104764	  -9.55167	-0.00109329	  -9.54406	-0.00107881	  -9.54406	  -26.9704	
   -9.5046	-0.00109876	  -9.48391	-0.00105084	  -9.50554	-0.00109648	  -9.49802	-0.00108203	  -9.49802	  -27.0506	
  -9.45814	-0.00110193	   -9.4378	-0.00105395	  -9.45914	-0.00109968	  -9.45169	-0.00108519	  -9.45169	  -27.1298	
  -9.41129	 -0.001105	  -9.39132	-0.00105703	  -9.41232	-0.00110289	  -9.40498	-0.0010883	  -9.40498	  -27.2076	
  -9.36414	-0.00110798	  -9.34435	-0.0010601	  -9.36507	-0.00110603	  -9.35785	-0.00109137	  -9.35785	  -27.2842	
  -9.31667	-0.00111095	  -9.29708	-0.00106319	  -9.31747	-0.00110905	  -9.31041	-0.0010944	  -9.31041	  -27.3599	
  -9.26894	-0.00111395	  -9.24948	-0.00106626	  -9.26951	-0.00111196	  -9.26265	-0.00109739	  -9.26265	  -27.4347	
  -9.22084	-0.00111698	  -9.20154	-0.00106925	  -9.22096	-0.00111481	  -9.21445	-0.00110035	  -9.21445	  -27.5087	
  -9.17234	-0.00111997	  -9.15323	-0.00107209	  -9.17202	-0.00111768	  -9.16586	-0.00110325	  -9.16586	  -27.5812	
  -9.12364	-0.00112284	  -9.10474	-0.00107481	   -9.1229	-0.00112059	  -9.11709	-0.00110608	  -9.11709	   -27.652	
  -9.07481	-0.00112558	  -9.05584	-0.0010775	  -9.07315	-0.00112349	  -9.06793	-0.00110886	  -9.06793	  -27.7215	
  -9.02571	-0.00112822	  -9.00629	-0.0010803	  -9.02297	-0.00112631	  -9.01832	-0.00111161	  -9.01832	  -27.7902	
  -8.97632	-0.00113086	  -8.95559	-0.00108321	  -8.97258	-0.00112897	  -8.96816	-0.00111435	  -8.96816	  -27.8587	
  -8.92631	-0.00113358	   -8.9042	-0.00108618	  -8.92154	-0.00113149	  -8.91735	-0.00111709	  -8.91735	  -27.9272	
  -8.87566	-0.00113634	  -8.85297	-0.00108908	  -8.87007	-0.00113394	  -8.86623	-0.00111979	  -8.86623	  -27.9947	
   -8.8244	-0.00113906	  -8.80156	-0.00109178	  -8.81837	-0.00113642	  -8.81478	-0.00112242	  -8.81478	  -28.0605	
  -8.77277	-0.00114162	  -8.75078	-0.00109433	  -8.76644	-0.00113893	  -8.76333	-0.00112496	  -8.76333	   -28.124	
  -8.72106	-0.00114403	   -8.6998	-0.00109683	  -8.71414	-0.00114143	  -8.71167	-0.00112743	  -8.71167	  -28.1858	
  -8.66883	-0.00114641	  -8.64871	-0.00109939	  -8.66159	-0.00114381	  -8.65971	-0.00112987	  -8.65971	  -28.2467	
  -8.61588	-0.00114885	  -8.59727	-0.00110202	  -8.60886	-0.00114603	  -8.60734	-0.0011323	  -8.60734	  -28.3075	
  -8.56297	-0.00115134	  -8.54537	-0.00110465	  -8.55574	-0.00114814	  -8.55469	-0.00113471	  -8.55469	  -28.3678	
  -8.50932	-0.00115381	  -8.49289	-0.00110718	  -8.50233	-0.00115028	  -8.50151	-0.00113709	  -8.50151	  -28.4273	
  -8.45539	-0.00115616	  -8.43986	-0.00110959	  -8.44862	-0.00115248	  -8.44796	-0.00113941	  -8.44796	  -28.4852	
   -8.4016	-0.00115835	   -8.3865	-0.00111192	   -8.3945	-0.0011547	   -8.3942	-0.00114166	   -8.3942	  -28.5415	
  -8.34727	-0.00116045	  -8.33281	-0.00111427	  -8.34008	-0.00115682	  -8.34005	-0.00114385	  -8.34005	  -28.5962	
  -8.29273	-0.00116257	  -8.27867	-0.00111665	  -8.28537	-0.00115877	  -8.28559	 -0.001146	  -8.28559	  -28.6499	
  -8.23788	-0.00116475	  -8.22452	-0.00111904	  -8.23035	-0.00116058	  -8.23092	-0.00114812	  -8.23092	  -28.7031	
   -8.1826	-0.00116695	  -8.17002	-0.00112134	  -8.17503	-0.00116238	  -8.17588	-0.00115022	  -8.17588	  -28.7556	
  -8.12722	-0.00116905	  -8.11517	-0.00112352	  -8.11952	-0.00116424	  -8.12064	-0.00115227	  -8.12064	  -28.8067	
  -8.07131	-0.00117099	  -8.05976	-0.00112559	  -8.06359	-0.00116616	  -8.06489	-0.00115425	  -8.06489	  -28.8562	
   -8.0151	-0.00117281	  -8.00392	-0.00112764	  -8.00737	-0.00116804	   -8.0088	-0.00115616	   -8.0088	  -28.9041	
   -7.9586	-0.0011746	  -7.94776	-0.00112972	  -7.95097	-0.00116976	  -7.95244	-0.00115803	  -7.95244	  -28.9507	
  -7.90179	-0.00117645	  -7.89119	-0.00113183	  -7.89416	-0.00117133	  -7.89571	-0.00115987	  -7.89571	  -28.9967	
   -7.8447	-0.00117835	  -7.83433	-0.00113391	  -7.83706	-0.00117284	   -7.8387	-0.0011617	   -7.8387	  -29.0424	
  -7.78722	-0.00118019	  -7.77707	-0.0011359	  -7.77969	-0.00117438	  -7.78132	-0.00116349	  -7.78132	  -29.0873	
  -7.72946	-0.00118191	  -7.71932	-0.00113778	  -7.72183	 -0.001176	  -7.72354	-0.00116523	  -7.72354	  -29.1308	
  -7.67145	-0.00118352	  -7.66132	-0.00113957	  -7.66373	-0.00117763	   -7.6655	-0.00116691	   -7.6655	  -29.1726	
  -7.61328	-0.0011851	  -7.60287	-0.00114136	  -7.60527	-0.00117914	  -7.60714	-0.00116853	  -7.60714	  -29.2133	
  -7.55465	-0.00118672	  -7.54399	-0.00114318	  -7.54639	-0.0011805	  -7.54834	-0.00117013	  -7.54834	  -29.2534	
  -7.49579	-0.0011884	  -7.48491	-0.00114502	   -7.4873	-0.00118173	  -7.48933	-0.00117172	  -7.48933	  -29.2929	
   -7.4366	-0.00119007	  -7.42564	-0.00114677	  -7.42801	-0.00118293	  -7.43008	-0.00117326	  -7.43008	  -29.3314	
  -7.37699	-0.00119162	  -7.36597	-0.00114837	  -7.36844	-0.00118417	  -7.37047	-0.00117472	  -7.37047	   -29.368	
   -7.3172	-0.00119304	  -7.30614	-0.00114984	   -7.3087	-0.00118545	  -7.31068	-0.00117611	  -7.31068	  -29.4027	
  -7.25723	-0.00119439	  -7.24584	-0.00115126	  -7.24868	-0.00118669	  -7.25058	-0.00117745	  -7.25058	  -29.4362	
  -7.19688	-0.00119577	  -7.18519	-0.00115278	  -7.18828	-0.00118782	  -7.19012	-0.00117879	  -7.19012	  -29.4697	
  -7.13627	-0.00119721	  -7.12433	-0.00115442	  -7.12775	-0.00118881	  -7.12945	-0.00118015	  -7.12945	  -29.5036	
  -7.07564	-0.00119868	  -7.06317	-0.00115607	  -7.06709	-0.00118971	  -7.06863	-0.00118149	  -7.06863	  -29.5372	
  -7.01466	-0.00120009	  -7.00172	-0.00115757	   -7.0061	-0.00119061	  -7.00749	-0.00118276	  -7.00749	   -29.569	
  -6.95356	-0.00120137	  -6.94011	-0.00115885	  -6.94499	-0.00119156	  -6.94622	-0.00118393	  -6.94622	  -29.5983	
  -6.89215	-0.00120254	  -6.87804	-0.00115997	  -6.88348	-0.00119254	  -6.88456	-0.00118502	  -6.88456	  -29.6254	
  -6.83045	-0.00120367	  -6.81576	-0.00116108	  -6.82168	-0.00119346	  -6.82263	-0.00118607	  -6.82263	  -29.6517	
  -6.76846	-0.00120483	  -6.75328	-0.00116231	  -6.75984	-0.00119426	  -6.76053	-0.00118713	  -6.76053	  -29.6783	
  -6.70623	-0.00120603	   -6.6905	-0.00116362	  -6.69754	-0.00119494	  -6.69809	-0.0011882	  -6.69809	  -29.7049	
  -6.64376	-0.00120722	  -6.62747	-0.00116489	  -6.63501	-0.00119557	  -6.63541	-0.00118923	  -6.63541	  -29.7307	
  -6.58108	-0.00120831	  -6.56429	 -0.001166	  -6.57218	-0.00119622	  -6.57252	-0.00119018	  -6.57252	  -29.7544	
    -6.518	-0.00120928	  -6.50079	-0.00116693	  -6.50896	-0.00119691	  -6.50925	-0.00119104	  -6.50925	   -29.776	
  -6.45464	-0.00121016	   -6.4372	-0.00116777	  -6.44561	-0.0011976	  -6.44582	-0.00119184	  -6.44582	  -29.7961	
  -6.39105	-0.00121102	  -6.37331	-0.00116865	  -6.38202	-0.00119822	  -6.38213	-0.00119263	  -6.38213	  -29.8158	
  -6.32713	-0.00121191	  -6.30927	-0.00116959	  -6.31812	-0.00119872	  -6.31817	-0.00119341	  -6.31817	  -29.8352	
  -6.26303	-0.00121282	  -6.24509	-0.00117055	  -6.25404	-0.00119914	  -6.25405	-0.00119417	  -6.25405	  -29.8543	
  -6.19866	-0.00121368	  -6.18068	-0.00117143	   -6.1896	-0.00119955	  -6.18965	-0.00119488	  -6.18965	  -29.8721	
  -6.13404	-0.00121444	  -6.11608	-0.00117215	  -6.12493	-0.00119998	  -6.12502	-0.00119552	  -6.12502	  -29.8881	
  -6.06922	-0.00121509	  -6.05119	-0.00117276	  -6.06006	-0.00120043	  -6.06016	-0.00119609	  -6.06016	  -29.9023	
  -6.00399	-0.0012157	  -5.98595	-0.00117332	   -5.9948	-0.00120086	  -5.99492	-0.00119663	  -5.99492	  -29.9157	
  -5.93862	-0.00121632	  -5.92061	-0.0011739	  -5.92931	-0.00120119	  -5.92951	-0.00119714	  -5.92951	  -29.9285	
  -5.87292	-0.00121696	  -5.85506	-0.00117452	  -5.86361	-0.00120143	  -5.86386	-0.00119763	  -5.86386	  -29.9408	
  -5.80692	-0.00121754	  -5.78925	-0.00117511	  -5.79762	-0.00120159	  -5.79793	-0.00119808	  -5.79793	   -29.952	
  -5.74065	-0.00121801	  -5.72331	-0.00117559	  -5.73159	-0.00120174	  -5.73185	-0.00119844	  -5.73185	  -29.9611	
  -5.67406	-0.00121836	  -5.65704	-0.0011759	  -5.66512	-0.00120191	   -5.6654	-0.00119872	   -5.6654	  -29.9681	
  -5.60727	-0.00121866	  -5.59046	-0.00117611	  -5.59846	-0.00120209	  -5.59873	-0.00119895	  -5.59873	  -29.9738	
  -5.54023	-0.00121898	  -5.52386	-0.00117631	  -5.53164	-0.00120225	  -5.53191	-0.00119918	  -5.53191	  -29.9795	
  -5.47287	-0.00121936	  -5.45702	-0.00117656	  -5.46459	-0.00120235	  -5.46483	-0.00119942	  -5.46483	  -29.9856	
  -5.40543	-0.00121972	   -5.3901	-0.00117686	  -5.39734	-0.00120238	  -5.39762	-0.00119965	  -5.39762	  -29.9914	
  -5.33762	-0.00121998	   -5.3228	-0.00117712	  -5.32992	-0.00120235	  -5.33011	-0.00119981	  -5.33011	  -29.9954	
  -5.26959	-0.00122008	  -5.25527	-0.00117722	  -5.26227	-0.00120227	  -5.26238	-0.00119986	  -5.26238	  -29.9964	
   -5.2015	-0.00122009	  -5.18745	-0.00117717	  -5.19452	-0.00120216	  -5.19449	-0.00119981	  -5.19449	  -29.9951	
  -5.13315	-0.0012201	  -5.11936	-0.00117702	  -5.12648	-0.00120204	  -5.12633	-0.00119972	  -5.12633	   -29.993	
  -5.06468	-0.00122015	  -5.05117	-0.00117688	   -5.0583	-0.00120193	  -5.05805	-0.00119966	  -5.05805	  -29.9914	
  -4.99603	-0.00122023	  -4.98248	-0.00117682	  -4.99002	-0.00120178	  -4.98951	-0.00119961	  -4.98951	  -29.9902	
  -4.92712	-0.00122024	  -4.91366	-0.00117679	  -4.92146	-0.00120155	  -4.92074	-0.00119953	  -4.92074	  -29.9882	
  -4.85821	-0.00122013	  -4.84485	-0.0011767	  -4.85286	-0.00120123	  -4.85197	-0.00119935	  -4.85197	  -29.9839	
  -4.78889	-0.0012199	  -4.77576	-0.00117647	  -4.78383	-0.00120087	  -4.78283	-0.00119908	  -4.78283	   -29.977	
  -4.71945	-0.00121962	  -4.70654	-0.00117611	  -4.71464	-0.00120051	  -4.71354	-0.00119875	  -4.71354	  -29.9686	
  -4.64969	-0.00121936	  -4.63722	-0.00117569	  -4.64533	-0.00120015	  -4.64408	-0.0011984	  -4.64408	    -29.96	
  -4.57967	-0.00121911	  -4.56773	-0.00117531	  -4.57571	-0.00119977	  -4.57437	-0.00119806	  -4.57437	  -29.9516	
  -4.50965	-0.00121883	  -4.49821	-0.00117498	  -4.50594	-0.00119931	   -4.5046	-0.00119771	   -4.5046	  -29.9427	
  -4.43944	-0.00121845	  -4.42827	-0.00117464	  -4.43586	-0.00119876	  -4.43452	-0.00119728	  -4.43452	  -29.9321	
  -4.36909	-0.00121795	  -4.35818	-0.00117421	   -4.3656	-0.00119815	  -4.36429	-0.00119677	  -4.36429	  -29.9192	
  -4.29873	-0.00121737	  -4.28786	-0.00117364	  -4.29533	-0.00119752	  -4.29397	-0.00119617	  -4.29397	  -29.9044	
  -4.22808	-0.00121678	  -4.21726	-0.00117298	  -4.22474	-0.00119688	  -4.22336	-0.00119555	  -4.22336	  -29.8887	
   -4.1574	-0.00121622	  -4.14665	-0.0011723	  -4.15412	-0.00119623	  -4.15272	-0.00119492	  -4.15272	  -29.8729	
  -4.08641	-0.00121564	  -4.07572	-0.00117166	  -4.08327	-0.00119553	   -4.0818	-0.00119428	   -4.0818	  -29.8569	
  -4.01526	 -0.001215	  -4.00466	-0.00117105	  -4.01224	-0.00119474	  -4.01072	-0.0011936	  -4.01072	  -29.8399	
   -3.9441	-0.00121424	  -3.93327	-0.00117042	  -3.94119	-0.00119387	  -3.93952	-0.00119284	  -3.93952	  -29.8211	
  -3.87276	-0.00121338	  -3.86163	-0.00116967	  -3.86982	-0.00119296	  -3.86807	 -0.001192	  -3.86807	  -29.8001	
  -3.80138	-0.00121247	  -3.78988	-0.0011688	  -3.79841	-0.00119203	  -3.79656	-0.0011911	  -3.79656	  -29.7775	
  -3.72982	-0.00121155	  -3.71801	-0.00116784	  -3.72682	-0.00119109	  -3.72488	-0.00119016	  -3.72488	   -29.754	
   -3.6581	-0.00121063	  -3.64601	-0.00116687	  -3.65505	-0.00119011	  -3.65305	-0.0011892	  -3.65305	    -29.73	
  -3.58625	-0.00120966	  -3.57403	-0.00116591	  -3.58325	-0.00118909	  -3.58118	-0.00118822	  -3.58118	  -29.7055	
  -3.51421	-0.00120862	  -3.50189	-0.00116496	  -3.51125	-0.00118798	  -3.50912	-0.00118719	  -3.50912	  -29.6797	
  -3.44214	-0.00120749	  -3.42963	-0.00116394	   -3.4392	-0.00118681	  -3.43699	-0.00118608	  -3.43699	   -29.652	
  -3.36996	-0.00120629	  -3.35721	-0.0011628	  -3.36693	-0.00118559	   -3.3647	-0.0011849	   -3.3647	  -29.6224	
  -3.29761	-0.00120504	  -3.28465	-0.00116156	  -3.29449	-0.00118437	  -3.29225	-0.00118366	  -3.29225	  -29.5914	
  -3.22525	-0.00120375	  -3.21202	-0.00116027	  -3.22203	-0.00118312	  -3.21977	-0.00118238	  -3.21977	  -29.5595	
   -3.1526	-0.00120246	  -3.13913	-0.00115898	  -3.14927	-0.00118181	    -3.147	-0.00118108	    -3.147	  -29.5271	
  -3.07992	-0.00120118	  -3.06626	-0.0011577	  -3.07649	-0.00118042	  -3.07422	-0.00117977	  -3.07422	  -29.4941	
  -3.00714	-0.00119985	  -2.99333	-0.00115641	  -3.00339	-0.00117893	  -3.00129	-0.0011784	  -3.00129	  -29.4599	
   -2.9342	-0.00119843	  -2.92028	-0.00115502	  -2.93015	-0.00117741	  -2.92821	-0.00117695	  -2.92821	  -29.4238	
  -2.86125	-0.0011969	  -2.84704	-0.00115352	  -2.85682	-0.0011759	  -2.85504	-0.00117544	  -2.85504	   -29.386	
  -2.78802	-0.00119526	  -2.77368	-0.00115194	  -2.78334	-0.00117441	  -2.78168	-0.00117387	  -2.78168	  -29.3467	
  -2.71467	-0.00119357	  -2.70022	-0.00115033	  -2.70985	-0.00117288	  -2.70825	-0.00117226	  -2.70825	  -29.3065	
  -2.64135	-0.00119189	  -2.62652	-0.00114874	  -2.63609	-0.00117124	  -2.63466	-0.00117062	  -2.63466	  -29.2656	
  -2.56789	-0.00119023	  -2.55274	-0.00114716	  -2.56232	-0.00116946	  -2.56098	-0.00116895	  -2.56098	  -29.2238	
  -2.49433	-0.00118853	  -2.47892	-0.00114552	  -2.48848	-0.00116757	  -2.48724	-0.00116721	  -2.48724	  -29.1802	
  -2.42052	-0.00118674	  -2.40488	-0.00114377	  -2.41451	-0.00116565	   -2.4133	-0.00116539	   -2.4133	  -29.1347	
   -2.3466	-0.00118485	  -2.33091	-0.00114192	  -2.34045	-0.00116379	  -2.33932	-0.00116352	  -2.33932	  -29.0879	
  -2.27243	-0.00118287	  -2.25671	  -0.00114	  -2.26624	 -0.001162	  -2.26513	-0.00116162	  -2.26513	  -29.0406	
  -2.19816	-0.00118087	  -2.18245	-0.00113809	  -2.19195	-0.00116026	  -2.19085	-0.00115974	  -2.19085	  -28.9936	
  -2.12385	-0.00117888	  -2.10806	-0.00113619	  -2.11761	-0.00115845	  -2.11651	-0.00115784	  -2.11651	   -28.946	
  -2.04932	-0.00117687	  -2.03361	-0.00113428	  -2.04307	-0.00115644	    -2.042	-0.00115586	    -2.042	  -28.8965	
  -1.97485	-0.00117477	  -1.95913	-0.00113238	  -1.96847	-0.00115424	  -1.96748	-0.0011538	  -1.96748	  -28.8449	
  -1.90026	-0.00117256	  -1.88435	-0.00113042	  -1.89366	-0.00115183	  -1.89276	-0.0011516	  -1.89276	  -28.7901	
   -1.8256	-0.00117023	  -1.80955	-0.0011284	   -1.8188	-0.00114934	  -1.81799	-0.00114932	  -1.81799	  -28.7331	
